timestamps,TP9,AF7,AF8,TP10,Right AUX
1771279847.216125,48.33984375,40.52734375,36.1328125,39.55078125,25.390625
1771279847.2200313,66.40625,49.31640625,38.0859375,45.8984375,36.62109375
1771279847.2239375,46.875,41.50390625,39.0625,48.828125,67.3828125
1771279847.2278438,32.2265625,23.4375,39.0625,46.875,62.98828125
1771279847.23175,34.1796875,25.87890625,38.0859375,34.1796875,46.875
1771279847.2356563,43.45703125,38.0859375,36.62109375,36.62109375,73.73046875
1771279847.2395625,40.52734375,39.55078125,38.0859375,37.59765625,83.49609375
1771279847.2434688,32.71484375,29.296875,36.1328125,24.90234375,39.55078125
1771279847.247375,27.83203125,18.06640625,31.73828125,27.34375,13.671875
1771279847.2512813,37.109375,30.76171875,38.0859375,40.52734375,24.90234375
1771279847.2551875,48.33984375,55.17578125,41.9921875,42.48046875,20.99609375
1771279847.2590938,32.71484375,37.109375,38.0859375,36.62109375,31.73828125
1771279847.231125,27.83203125,21.97265625,37.109375,35.64453125,22.94921875
1771279847.2350314,43.45703125,40.52734375,35.64453125,35.64453125,-0.9765625
1771279847.2389376,36.62109375,50.29296875,37.59765625,40.52734375,-25.390625
1771279847.2428439,21.484375,33.203125,37.59765625,30.76171875,41.015625
1771279847.24675,22.94921875,19.04296875,33.203125,22.94921875,50.78125
1771279847.2506564,40.0390625,29.296875,34.66796875,47.36328125,30.76171875
1771279847.2545626,55.6640625,43.9453125,41.50390625,62.5,-20.99609375
1771279847.2584689,48.33984375,41.9921875,38.57421875,49.8046875,-47.36328125
1771279847.262375,32.71484375,8.30078125,29.296875,41.50390625,3.41796875
1771279847.2662814,36.62109375,12.6953125,33.203125,43.45703125,37.59765625
1771279847.2701876,48.828125,50.29296875,36.62109375,50.78125,15.13671875
1771279847.2740939,53.22265625,42.48046875,29.296875,44.43359375,-0.9765625
1771279847.276125,37.59765625,23.4375,32.71484375,29.78515625,60.05859375
1771279847.2800312,32.71484375,31.73828125,39.0625,37.59765625,54.19921875
1771279847.2839375,52.24609375,55.17578125,38.57421875,47.36328125,59.08203125
1771279847.2878437,43.45703125,46.38671875,27.83203125,50.78125,56.640625
1771279847.29175,30.2734375,28.80859375,20.5078125,44.43359375,84.9609375
1771279847.2956562,30.76171875,22.94921875,28.3203125,46.875,98.14453125
1771279847.2995625,45.41015625,38.57421875,35.15625,47.36328125,29.296875
1771279847.3034687,62.5,46.38671875,29.78515625,47.36328125,7.32421875
1771279847.307375,45.41015625,20.5078125,29.296875,41.50390625,59.5703125
1771279847.3112812,33.69140625,31.25,36.62109375,39.55078125,58.10546875
1771279847.3151875,42.48046875,53.22265625,36.62109375,54.6875,23.4375
1771279847.3190937,42.96875,47.36328125,36.1328125,69.3359375,22.94921875
1771279847.320125,42.96875,33.69140625,34.1796875,57.12890625,13.671875
1771279847.3240314,34.1796875,26.85546875,33.203125,36.62109375,4.39453125
1771279847.3279376,32.2265625,24.90234375,32.2265625,39.0625,42.48046875
1771279847.3318439,41.50390625,31.25,23.92578125,47.36328125,45.41015625
1771279847.33575,43.45703125,40.0390625,27.83203125,43.45703125,13.671875
1771279847.3396564,31.25,26.3671875,27.34375,34.1796875,20.01953125
1771279847.3435626,31.73828125,23.92578125,22.4609375,28.80859375,33.203125
1771279847.3474689,51.7578125,31.73828125,29.296875,29.296875,27.83203125
1771279847.351375,47.8515625,44.43359375,34.1796875,32.2265625,26.3671875
1771279847.3552814,23.92578125,41.9921875,32.2265625,29.78515625,0.0
1771279847.3591876,20.99609375,24.4140625,29.78515625,32.2265625,68.359375
1771279847.3630939,34.66796875,32.2265625,32.71484375,41.015625,67.87109375
1771279847.365125,48.828125,54.19921875,30.2734375,48.33984375,8.30078125
1771279847.3690312,39.55078125,49.8046875,30.76171875,47.36328125,57.12890625
1771279847.3729374,25.87890625,24.4140625,29.296875,38.57421875,24.4140625
1771279847.3768437,36.1328125,28.80859375,26.85546875,37.59765625,59.5703125
1771279847.38075,49.31640625,44.921875,27.34375,41.9921875,49.8046875
1771279847.3846562,50.29296875,37.109375,29.296875,48.33984375,9.765625
1771279847.3885624,43.45703125,12.6953125,33.203125,55.6640625,59.08203125
1771279847.3924687,41.015625,12.6953125,32.2265625,46.875,26.85546875
1771279847.396375,51.26953125,52.734375,37.109375,41.9921875,-1.46484375
1771279847.4002812,53.7109375,52.734375,36.62109375,46.38671875,7.32421875
1771279847.4041874,41.9921875,36.1328125,35.15625,41.9921875,79.1015625
1771279847.4080937,54.19921875,42.48046875,35.15625,53.22265625,103.515625
1771279847.425125,62.98828125,51.26953125,34.66796875,58.59375,72.265625
1771279847.4290311,34.1796875,47.8515625,34.66796875,41.50390625,41.015625
1771279847.4329374,31.25,17.08984375,33.69140625,49.31640625,35.64453125
1771279847.4368436,43.45703125,10.25390625,34.66796875,64.453125,5.37109375
1771279847.44075,53.7109375,32.71484375,41.015625,60.546875,13.671875
1771279847.4446561,22.94921875,26.3671875,41.50390625,32.2265625,43.45703125
1771279847.4485624,-20.99609375,8.7890625,26.85546875,-14.16015625,41.9921875
1771279847.4524686,-49.8046875,6.8359375,37.109375,-57.12890625,-2.44140625
1771279847.456375,-66.40625,19.53125,46.875,-68.84765625,12.20703125
1771279847.4602811,-63.96484375,43.45703125,47.8515625,-77.1484375,48.828125
1771279847.4641874,-85.44921875,58.59375,47.8515625,-101.5625,32.71484375
1771279847.4680936,-114.74609375,52.734375,33.203125,-129.8828125,-29.78515625
1771279847.471125,-128.41796875,59.5703125,42.48046875,-139.16015625,-24.4140625
1771279847.4750311,-123.53515625,66.40625,51.7578125,-133.7890625,33.69140625
1771279847.4789374,-126.953125,70.80078125,52.734375,-141.11328125,63.4765625
1771279847.4828436,-151.85546875,54.19921875,55.17578125,-159.66796875,50.29296875
1771279847.48675,-164.0625,30.2734375,51.7578125,-165.52734375,38.57421875
1771279847.4906561,-147.4609375,41.50390625,49.8046875,-159.1796875,41.015625
1771279847.4945624,-142.08984375,55.17578125,56.15234375,-155.2734375,63.4765625
1771279847.4984686,-153.80859375,53.7109375,56.640625,-151.85546875,54.19921875
1771279847.502375,-161.62109375,45.8984375,31.73828125,-145.99609375,14.6484375
1771279847.5062811,-139.6484375,40.0390625,33.69140625,-143.5546875,7.8125
1771279847.5101874,-118.65234375,43.9453125,59.5703125,-132.32421875,0.0
1771279847.5140936,-120.1171875,62.01171875,54.19921875,-114.2578125,37.59765625
1771279847.515125,-101.07421875,45.8984375,37.59765625,-96.19140625,8.7890625
1771279847.5190313,-72.75390625,42.48046875,38.0859375,-84.47265625,21.97265625
1771279847.5229375,-51.7578125,59.5703125,42.96875,-58.59375,61.03515625
1771279847.5268438,-39.55078125,56.640625,40.52734375,-39.55078125,55.6640625
1771279847.53075,-46.38671875,38.57421875,36.62109375,-45.8984375,62.5
1771279847.5346563,-37.59765625,29.78515625,33.203125,-35.15625,26.3671875
1771279847.5385625,-6.8359375,44.43359375,31.25,-11.23046875,27.34375
1771279847.5424688,4.8828125,53.7109375,34.66796875,4.8828125,20.99609375
1771279847.546375,6.8359375,43.9453125,35.15625,2.44140625,45.8984375
1771279847.5502813,16.11328125,13.18359375,33.69140625,-3.41796875,16.6015625
1771279847.5541875,26.85546875,29.296875,34.1796875,8.7890625,21.484375
1771279847.5580938,23.92578125,75.1953125,39.55078125,27.83203125,66.40625
1771279847.561125,13.18359375,51.26953125,36.1328125,22.94921875,7.8125
1771279847.5650313,22.4609375,19.04296875,27.83203125,28.3203125,-20.5078125
1771279847.5689375,42.96875,53.22265625,35.15625,42.48046875,30.76171875
1771279847.5728438,52.24609375,80.078125,40.52734375,41.9921875,64.453125
1771279847.57675,33.203125,36.1328125,34.66796875,38.57421875,15.13671875
1771279847.5806563,18.5546875,9.27734375,26.3671875,32.71484375,-10.25390625
1771279847.5845625,23.92578125,31.73828125,26.85546875,28.3203125,50.78125
1771279847.5884688,41.50390625,53.22265625,37.59765625,48.33984375,46.38671875
1771279847.592375,61.5234375,41.015625,34.66796875,58.59375,-7.32421875
1771279847.5962813,45.8984375,21.97265625,22.4609375,33.203125,-6.34765625
1771279847.6001875,27.34375,42.96875,23.4375,45.8984375,-27.83203125
1771279847.6040938,45.8984375,64.94140625,29.296875,56.640625,39.0625
1771279847.605125,44.921875,53.22265625,27.83203125,44.921875,59.08203125
1771279847.6090312,28.80859375,30.76171875,24.4140625,42.96875,12.6953125
1771279847.6129375,28.80859375,27.83203125,28.80859375,43.9453125,23.92578125
1771279847.6168437,51.7578125,46.875,33.69140625,54.19921875,26.3671875
1771279847.62075,69.82421875,65.91796875,29.296875,64.94140625,15.13671875
1771279847.6246562,52.734375,48.828125,24.90234375,45.8984375,0.48828125
1771279847.6285625,38.57421875,28.80859375,24.90234375,37.109375,18.06640625
1771279847.6324687,41.50390625,40.52734375,29.296875,50.29296875,15.625
1771279847.636375,44.43359375,39.55078125,32.71484375,52.24609375,41.9921875
1771279847.6402812,43.45703125,41.9921875,35.64453125,47.8515625,54.6875
1771279847.6441875,40.0390625,40.0390625,33.69140625,40.0390625,40.52734375
1771279847.6480937,44.921875,40.52734375,35.15625,49.31640625,19.53125
1771279847.650125,64.94140625,62.5,36.1328125,58.59375,14.6484375
1771279847.6540313,71.2890625,54.6875,23.92578125,49.8046875,26.3671875
1771279847.6579375,44.921875,28.80859375,22.94921875,38.0859375,32.71484375
1771279847.6618438,26.85546875,17.08984375,25.87890625,40.0390625,30.76171875
1771279847.66575,45.41015625,34.66796875,27.34375,52.24609375,11.23046875
1771279847.6696563,58.10546875,47.36328125,30.2734375,53.22265625,36.1328125
1771279847.6735625,50.29296875,39.55078125,34.66796875,45.41015625,35.64453125
1771279847.6774688,51.7578125,25.87890625,27.83203125,40.52734375,69.82421875
1771279847.681375,60.546875,26.85546875,27.34375,45.8984375,57.6171875
1771279847.6852813,54.6875,52.734375,30.2734375,55.6640625,-9.27734375
1771279847.6891875,40.0390625,40.52734375,24.4140625,51.26953125,4.39453125
1771279847.6930938,26.85546875,19.53125,28.3203125,42.48046875,71.77734375
1771279847.696125,34.1796875,27.34375,26.85546875,39.55078125,93.75
1771279847.7000313,60.546875,52.24609375,28.80859375,50.78125,65.91796875
1771279847.7039375,57.12890625,53.22265625,31.25,47.8515625,46.38671875
1771279847.7078438,29.296875,24.4140625,23.92578125,33.69140625,13.671875
1771279847.71175,30.76171875,24.4140625,19.53125,32.71484375,44.921875
1771279847.7156563,42.48046875,41.9921875,26.3671875,40.52734375,64.94140625
1771279847.7195625,45.41015625,48.33984375,31.73828125,40.0390625,61.03515625
1771279847.7234688,41.015625,20.5078125,26.3671875,22.94921875,106.4453125
1771279847.727375,36.62109375,20.99609375,26.85546875,21.484375,60.05859375
1771279847.7312813,48.828125,66.89453125,34.1796875,35.64453125,81.0546875
1771279847.7351875,50.78125,57.6171875,28.80859375,42.48046875,95.703125
1771279847.7390938,44.921875,28.80859375,18.5546875,30.76171875,29.78515625
1771279847.740125,35.15625,23.4375,17.578125,27.34375,-0.9765625
1771279847.7440312,29.296875,33.69140625,24.4140625,42.48046875,-38.0859375
1771279847.7479374,47.8515625,44.921875,26.85546875,55.6640625,-39.55078125
1771279847.7518437,72.265625,38.57421875,17.08984375,59.5703125,-18.06640625
1771279847.75575,67.87109375,27.83203125,15.625,56.640625,14.16015625
1771279847.7596562,38.0859375,33.69140625,23.92578125,42.48046875,42.96875
1771279847.7635624,35.64453125,41.015625,28.3203125,33.203125,-5.37109375
1771279847.7674687,48.33984375,23.92578125,28.3203125,41.9921875,-1.46484375
1771279847.771375,51.26953125,25.390625,28.3203125,43.45703125,75.68359375
1771279847.7752812,37.109375,28.80859375,32.2265625,45.8984375,77.63671875
1771279847.7791874,36.62109375,32.71484375,38.57421875,60.546875,67.3828125
1771279847.7830937,42.48046875,33.69140625,40.52734375,55.6640625,86.9140625
1771279847.786125,25.87890625,21.97265625,35.64453125,50.29296875,28.3203125
1771279847.7900312,15.13671875,15.625,25.390625,45.41015625,-22.4609375
1771279847.7939374,33.69140625,25.87890625,31.25,39.0625,5.859375
1771279847.7978437,49.31640625,40.52734375,32.71484375,47.36328125,63.96484375
1771279847.80175,48.33984375,29.78515625,19.53125,40.52734375,52.734375
1771279847.8056562,39.55078125,16.6015625,22.94921875,30.2734375,2.44140625
1771279847.8095624,43.45703125,9.27734375,31.73828125,38.57421875,-9.765625
1771279847.8134687,55.17578125,28.80859375,37.109375,53.7109375,-24.4140625
1771279847.817375,56.640625,48.33984375,37.109375,43.9453125,17.08984375
1771279847.8212812,51.7578125,29.296875,29.78515625,34.66796875,58.59375
1771279847.8251874,43.9453125,29.78515625,30.76171875,43.9453125,43.45703125
1771279847.8290937,42.96875,46.38671875,34.1796875,59.5703125,41.50390625
1771279847.830125,42.96875,42.96875,30.2734375,51.7578125,29.296875
1771279847.8340313,26.85546875,13.671875,24.90234375,34.66796875,-17.08984375
1771279847.8379376,21.97265625,15.13671875,24.90234375,26.3671875,-14.6484375
1771279847.8418438,37.109375,40.52734375,29.78515625,41.50390625,31.73828125
1771279847.84575,50.78125,44.43359375,34.1796875,54.19921875,19.53125
1771279847.8496563,52.24609375,16.6015625,29.78515625,34.66796875,26.3671875
1771279847.8535626,33.69140625,7.32421875,28.3203125,39.0625,10.25390625
1771279847.8574688,28.80859375,37.109375,33.203125,44.921875,-53.7109375
1771279847.861375,51.7578125,59.08203125,36.62109375,42.48046875,17.578125
1771279847.8652813,45.41015625,34.66796875,33.203125,34.1796875,62.98828125
1771279847.8691876,17.578125,9.27734375,25.390625,22.4609375,29.78515625
1771279847.8730938,22.94921875,26.85546875,29.296875,29.78515625,61.03515625
1771279847.890125,45.8984375,42.48046875,35.64453125,47.36328125,53.7109375
1771279847.8940313,43.9453125,42.48046875,31.25,49.31640625,40.52734375
1771279847.8979375,38.0859375,30.76171875,29.78515625,36.62109375,40.52734375
1771279847.9018438,39.0625,33.69140625,32.2265625,48.33984375,40.52734375
1771279847.90575,48.33984375,46.875,27.83203125,61.5234375,46.38671875
1771279847.9096563,50.29296875,43.45703125,29.296875,49.8046875,7.32421875
1771279847.9135625,44.43359375,28.80859375,30.76171875,34.66796875,-8.30078125
1771279847.9174688,50.78125,31.25,27.83203125,35.15625,24.4140625
1771279847.921375,52.734375,41.50390625,25.390625,40.52734375,-1.953125
1771279847.9252813,54.6875,35.64453125,30.76171875,50.29296875,-19.04296875
1771279847.9291875,48.33984375,29.296875,37.109375,44.43359375,68.84765625
1771279847.9330938,30.76171875,30.76171875,32.2265625,29.296875,42.96875
1771279847.935125,36.62109375,33.203125,31.25,45.41015625,12.6953125
1771279847.9390314,54.6875,40.0390625,41.50390625,51.26953125,4.39453125
1771279847.9429376,49.8046875,42.96875,40.0390625,38.57421875,5.37109375
1771279847.9468439,30.2734375,26.3671875,25.390625,35.64453125,-0.9765625
1771279847.95075,28.3203125,28.80859375,19.04296875,35.15625,3.41796875
1771279847.9546564,47.36328125,44.43359375,28.80859375,42.48046875,74.70703125
1771279847.9585626,35.15625,40.0390625,36.1328125,38.0859375,98.6328125
1771279847.9624689,8.7890625,23.4375,37.109375,23.92578125,41.015625
1771279847.966375,18.06640625,18.06640625,33.203125,29.78515625,31.25
1771279847.9702814,36.62109375,41.015625,34.1796875,37.59765625,100.09765625
1771279847.9741876,32.2265625,50.29296875,35.15625,38.57421875,67.3828125
1771279847.9780939,26.3671875,38.0859375,35.64453125,42.48046875,-16.6015625
1771279847.981125,35.15625,25.390625,33.69140625,34.66796875,-15.13671875
1771279847.9850314,44.43359375,25.87890625,30.2734375,30.2734375,-46.875
1771279847.9889376,38.0859375,46.38671875,37.59765625,34.1796875,-50.29296875
1771279847.9928439,26.85546875,31.25,40.0390625,32.71484375,72.75390625
1771279847.99675,12.6953125,12.6953125,37.59765625,29.78515625,62.98828125
1771279848.0006564,22.4609375,26.85546875,35.15625,46.875,-8.30078125
1771279848.0045626,48.33984375,37.59765625,33.69140625,56.15234375,18.06640625
1771279848.0084689,61.5234375,39.55078125,29.296875,44.921875,60.05859375
1771279848.012375,41.015625,20.01953125,24.4140625,29.296875,60.05859375
1771279848.0162814,12.6953125,21.97265625,23.92578125,13.671875,12.6953125
1771279848.0201876,33.203125,49.8046875,33.203125,30.76171875,-7.8125
1771279848.0240939,37.109375,37.109375,36.62109375,42.96875,53.22265625
1771279848.026125,17.578125,17.08984375,34.1796875,26.85546875,75.68359375
1771279848.0300312,30.2734375,30.2734375,31.73828125,30.2734375,50.29296875
1771279848.0339375,53.22265625,49.31640625,35.64453125,47.8515625,70.80078125
1771279848.0378437,54.19921875,40.0390625,38.0859375,51.7578125,13.18359375
1771279848.04175,35.64453125,23.4375,34.66796875,30.2734375,13.18359375
1771279848.0456562,21.97265625,16.11328125,41.50390625,29.78515625,44.921875
1771279848.0495625,18.06640625,26.85546875,38.57421875,35.64453125,70.80078125
1771279848.0534687,37.109375,35.15625,31.73828125,41.50390625,63.4765625
1771279848.057375,33.69140625,28.3203125,32.2265625,42.48046875,61.5234375
1771279848.0612812,19.53125,31.73828125,31.25,27.83203125,80.56640625
1771279848.0651875,36.1328125,34.66796875,31.73828125,31.73828125,56.640625
1771279848.0690937,46.875,44.921875,29.296875,40.52734375,54.19921875
1771279848.070125,42.48046875,41.015625,28.3203125,40.52734375,20.5078125
1771279848.0740314,28.80859375,25.87890625,28.80859375,27.34375,39.55078125
1771279848.0779376,29.78515625,26.3671875,33.69140625,29.78515625,41.9921875
1771279848.0818439,50.78125,49.8046875,38.0859375,51.26953125,-30.2734375
1771279848.08575,58.10546875,45.8984375,27.83203125,43.45703125,40.52734375
1771279848.0896564,32.2265625,11.23046875,23.4375,29.296875,32.2265625
1771279848.0935626,11.23046875,18.06640625,29.78515625,23.4375,21.484375
1771279848.0974689,22.94921875,29.78515625,30.2734375,22.4609375,112.79296875
1771279848.101375,33.203125,28.80859375,26.85546875,22.4609375,59.08203125
1771279848.1052814,18.06640625,30.2734375,27.34375,14.6484375,3.41796875
1771279848.1091876,19.04296875,17.08984375,27.34375,23.92578125,-18.06640625
1771279848.1130939,35.64453125,23.92578125,25.390625,36.62109375,-48.33984375
1771279848.116125,46.875,52.734375,34.66796875,39.55078125,0.9765625
1771279848.1200314,41.9921875,41.50390625,34.66796875,37.109375,25.390625
1771279848.1239376,25.390625,7.32421875,20.01953125,28.3203125,-12.20703125
1771279848.1278439,23.4375,19.53125,23.92578125,32.2265625,-30.2734375
1771279848.13175,30.76171875,49.8046875,33.203125,39.0625,-13.18359375
1771279848.1356564,22.4609375,39.0625,28.3203125,32.71484375,13.671875
1771279848.1395626,22.4609375,16.6015625,19.53125,19.04296875,63.96484375
1771279848.1434689,26.3671875,18.06640625,18.5546875,20.5078125,56.640625
1771279848.147375,32.2265625,50.78125,28.80859375,38.57421875,52.734375
1771279848.1512814,56.640625,57.6171875,31.73828125,45.41015625,79.58984375
1771279848.1551876,49.8046875,30.76171875,18.5546875,35.64453125,47.36328125
1771279848.1590939,29.296875,29.78515625,18.06640625,30.76171875,-15.13671875
1771279848.161125,43.45703125,54.19921875,28.80859375,41.015625,-28.80859375
1771279848.1650312,49.31640625,58.59375,32.2265625,49.31640625,78.125
1771279848.1689374,37.109375,31.25,20.5078125,33.203125,35.15625
1771279848.1728437,31.73828125,25.87890625,16.6015625,29.78515625,-36.62109375
1771279848.17675,45.41015625,47.8515625,27.34375,42.96875,29.296875
1771279848.1806562,58.10546875,52.24609375,27.83203125,55.17578125,73.2421875
1771279848.1845624,48.33984375,19.04296875,24.90234375,49.31640625,28.3203125
1771279848.1884687,42.48046875,11.71875,29.296875,29.78515625,-1.953125
1771279848.192375,56.640625,49.31640625,33.69140625,45.41015625,73.73046875
1771279848.1962812,57.6171875,57.12890625,32.2265625,53.7109375,64.94140625
1771279848.2001874,36.62109375,42.96875,27.83203125,34.1796875,54.19921875
1771279848.2040937,21.484375,37.59765625,33.203125,20.5078125,30.76171875
1771279848.206125,30.76171875,36.62109375,39.0625,25.87890625,11.23046875
1771279848.2100313,32.71484375,38.57421875,39.0625,41.015625,22.94921875
1771279848.2139375,28.80859375,37.109375,32.71484375,43.9453125,18.5546875
1771279848.2178438,27.83203125,20.99609375,28.3203125,30.2734375,-27.34375
1771279848.22175,27.83203125,15.625,34.66796875,29.296875,-43.9453125
1771279848.2256563,45.8984375,30.76171875,40.0390625,36.62109375,-0.9765625
1771279848.2295625,48.828125,43.45703125,37.109375,30.2734375,7.32421875
1771279848.2334688,29.78515625,38.57421875,34.1796875,22.4609375,21.97265625
1771279848.237375,9.27734375,23.92578125,26.85546875,14.16015625,79.1015625
1771279848.2412813,13.671875,28.80859375,24.4140625,25.390625,36.1328125
1771279848.2451875,35.64453125,42.48046875,34.66796875,42.48046875,8.7890625
1771279848.2490938,34.66796875,37.109375,32.71484375,33.69140625,23.92578125
1771279848.270125,30.2734375,24.4140625,21.484375,26.3671875,52.24609375
1771279848.2740312,35.15625,25.87890625,20.5078125,31.73828125,77.1484375
1771279848.2779374,59.5703125,53.22265625,31.73828125,46.875,42.48046875
1771279848.2818437,57.6171875,67.87109375,34.66796875,50.78125,48.828125
1771279848.28575,28.3203125,38.57421875,29.78515625,41.50390625,36.1328125
1771279848.2896562,31.73828125,15.625,25.390625,42.96875,36.1328125
1771279848.2935624,56.640625,35.64453125,28.80859375,40.52734375,34.1796875
1771279848.2974687,61.5234375,57.6171875,38.0859375,50.78125,34.1796875
1771279848.301375,31.73828125,32.71484375,36.1328125,41.015625,66.40625
1771279848.3052812,27.34375,18.5546875,30.2734375,34.1796875,14.16015625
1771279848.3091874,41.015625,41.9921875,37.59765625,60.546875,-41.50390625
1771279848.3130937,40.52734375,59.08203125,40.52734375,61.03515625,5.37109375
1771279848.314125,33.203125,38.0859375,32.71484375,44.43359375,30.76171875
1771279848.3180313,22.94921875,18.06640625,26.85546875,35.15625,7.8125
1771279848.3219376,26.85546875,28.3203125,23.4375,28.3203125,20.99609375
1771279848.3258438,39.0625,43.9453125,30.2734375,42.48046875,52.24609375
1771279848.32975,44.43359375,29.296875,33.69140625,42.48046875,44.43359375
1771279848.3336563,38.57421875,12.20703125,30.2734375,24.90234375,16.11328125
1771279848.3375626,38.57421875,33.69140625,31.25,24.4140625,50.78125
1771279848.3414688,47.8515625,58.10546875,35.64453125,35.15625,53.7109375
1771279848.345375,47.36328125,48.828125,37.59765625,39.55078125,34.1796875
1771279848.3492813,21.97265625,23.4375,31.73828125,16.11328125,53.22265625
1771279848.3531876,15.625,31.73828125,32.71484375,3.90625,87.40234375
1771279848.3570938,25.390625,41.9921875,36.1328125,26.85546875,70.3125
1771279848.359125,27.83203125,39.0625,36.62109375,24.4140625,51.26953125
1771279848.3630311,30.2734375,26.85546875,33.203125,25.390625,4.39453125
1771279848.3669374,27.83203125,19.53125,36.62109375,34.66796875,-28.3203125
1771279848.3708436,22.94921875,28.3203125,33.69140625,34.1796875,7.32421875
1771279848.37475,27.83203125,36.62109375,23.92578125,39.55078125,4.8828125
1771279848.3786561,27.83203125,20.99609375,30.2734375,45.41015625,19.04296875
1771279848.3825624,18.5546875,8.7890625,31.25,39.55078125,58.59375
1771279848.3864686,29.78515625,26.3671875,25.87890625,34.1796875,62.5
1771279848.390375,39.55078125,26.85546875,23.4375,44.43359375,21.484375
1771279848.3942811,40.0390625,24.90234375,21.97265625,33.69140625,-8.30078125
1771279848.3981874,22.4609375,31.25,24.4140625,18.5546875,-30.76171875
1771279848.4020936,23.92578125,22.94921875,23.92578125,31.73828125,21.484375
1771279848.401125,62.5,32.71484375,23.4375,69.3359375,68.84765625
1771279848.4050312,66.89453125,45.8984375,26.3671875,61.5234375,61.5234375
1771279848.4089375,46.875,28.80859375,19.53125,35.15625,10.25390625
1771279848.4128437,61.03515625,19.04296875,14.16015625,48.33984375,-26.3671875
1771279848.41675,81.0546875,40.0390625,17.578125,63.96484375,-15.13671875
1771279848.4206562,75.68359375,42.96875,15.13671875,58.59375,8.30078125
1771279848.4245625,63.4765625,22.94921875,10.7421875,43.9453125,8.7890625
1771279848.4284687,67.87109375,6.8359375,8.7890625,46.875,2.44140625
1771279848.432375,81.0546875,16.6015625,7.32421875,57.12890625,-9.27734375
1771279848.4362812,83.984375,56.15234375,12.6953125,60.05859375,19.04296875
1771279848.4401875,89.84375,59.08203125,15.625,64.453125,17.578125
1771279848.4440937,82.51953125,34.66796875,14.16015625,58.10546875,15.13671875
1771279848.449125,59.08203125,29.296875,14.16015625,53.22265625,-10.25390625
1771279848.4530313,66.40625,45.8984375,12.20703125,58.59375,-23.92578125
1771279848.4569376,68.84765625,39.0625,15.13671875,49.31640625,30.2734375
1771279848.4608438,63.4765625,17.08984375,20.99609375,42.96875,86.42578125
1771279848.46475,71.77734375,18.06640625,18.06640625,39.55078125,63.4765625
1771279848.4686563,86.42578125,36.62109375,20.01953125,60.05859375,25.390625
1771279848.4725626,78.125,49.31640625,30.76171875,81.54296875,92.28515625
1771279848.4764688,50.29296875,23.92578125,26.3671875,60.05859375,85.44921875
1771279848.480375,52.24609375,14.6484375,24.4140625,51.7578125,45.41015625
1771279848.4842813,58.59375,33.203125,28.3203125,65.91796875,9.27734375
1771279848.4881876,59.08203125,36.62109375,24.4140625,54.19921875,-38.0859375
1771279848.4920938,54.19921875,18.06640625,21.97265625,61.03515625,-11.71875
1771279848.495125,45.41015625,17.08984375,26.85546875,77.1484375,24.90234375
1771279848.4990313,63.96484375,43.9453125,31.25,58.10546875,75.68359375
1771279848.5029376,68.84765625,52.24609375,29.78515625,58.59375,29.78515625
1771279848.5068438,60.546875,37.109375,23.92578125,60.546875,-14.6484375
1771279848.51075,58.10546875,21.97265625,16.6015625,43.9453125,48.33984375
1771279848.5146563,55.6640625,24.4140625,17.578125,47.36328125,52.734375
1771279848.5185626,59.08203125,35.64453125,28.80859375,54.19921875,83.49609375
1771279848.5224688,32.71484375,28.80859375,27.34375,37.59765625,113.28125
1771279848.526375,34.1796875,33.203125,21.484375,28.80859375,71.77734375
1771279848.5302813,52.734375,38.57421875,27.83203125,37.59765625,31.25
1771279848.5341876,59.5703125,45.8984375,27.83203125,52.24609375,26.3671875
1771279848.5380938,50.29296875,41.9921875,23.92578125,41.015625,59.08203125
1771279848.537125,22.94921875,17.578125,20.5078125,21.97265625,35.64453125
1771279848.5410314,22.4609375,10.7421875,23.92578125,32.71484375,26.3671875
1771279848.5449376,41.50390625,24.90234375,30.76171875,56.15234375,31.25
1771279848.5488439,53.22265625,41.50390625,30.2734375,54.19921875,-8.7890625
1771279848.55275,23.92578125,36.1328125,30.76171875,28.80859375,14.6484375
1771279848.5566564,15.13671875,15.625,31.73828125,29.296875,60.05859375
1771279848.5605626,44.43359375,14.16015625,20.5078125,37.109375,41.9921875
1771279848.5644689,61.5234375,35.64453125,20.99609375,37.59765625,47.36328125
1771279848.568375,40.0390625,45.41015625,24.4140625,31.73828125,35.15625
1771279848.5722814,9.27734375,25.87890625,21.97265625,20.99609375,11.71875
1771279848.5761876,24.90234375,22.94921875,26.85546875,34.1796875,16.11328125
1771279848.5800939,37.109375,41.9921875,26.3671875,48.828125,18.06640625
1771279848.583125,35.15625,38.57421875,20.99609375,43.45703125,10.25390625
1771279848.5870314,41.50390625,18.06640625,17.578125,41.50390625,31.73828125
1771279848.5909376,17.578125,5.859375,20.99609375,34.1796875,38.0859375
1771279848.5948439,23.92578125,24.90234375,24.90234375,41.9921875,33.69140625
1771279848.59875,50.78125,38.57421875,26.85546875,36.1328125,79.1015625
1771279848.6026564,57.12890625,17.08984375,19.53125,20.99609375,66.89453125
1771279848.6065626,42.48046875,-3.90625,15.625,28.80859375,21.97265625
1771279848.6104689,38.57421875,31.73828125,19.04296875,37.109375,25.87890625
1771279848.614375,61.03515625,52.734375,23.92578125,44.921875,55.17578125
1771279848.6182814,49.31640625,25.87890625,29.78515625,39.0625,32.2265625
1771279848.6221876,28.80859375,18.5546875,36.62109375,29.296875,-7.32421875
1771279848.6260939,44.921875,28.80859375,32.71484375,51.26953125,25.390625
1771279848.640125,61.03515625,42.48046875,20.01953125,43.9453125,27.34375
1771279848.6440313,62.01171875,37.109375,18.06640625,37.109375,53.22265625
1771279848.6479375,27.83203125,20.01953125,20.99609375,32.2265625,7.8125
1771279848.6518438,22.94921875,20.99609375,25.390625,20.99609375,-29.296875
1771279848.65575,29.296875,38.0859375,32.2265625,45.41015625,37.109375
1771279848.6596563,23.92578125,26.3671875,24.4140625,49.31640625,56.15234375
1771279848.6635625,33.203125,14.16015625,15.13671875,20.5078125,36.1328125
1771279848.6674688,32.71484375,34.66796875,20.99609375,8.7890625,50.78125
1771279848.671375,24.4140625,42.48046875,26.3671875,37.59765625,41.9921875
1771279848.6752813,33.69140625,43.9453125,24.4140625,43.9453125,6.8359375
1771279848.6791875,39.55078125,37.59765625,20.99609375,28.3203125,-3.90625
1771279848.6830938,33.69140625,28.80859375,21.484375,22.4609375,3.90625
1771279848.686125,26.85546875,31.25,21.97265625,32.2265625,47.36328125
1771279848.6900313,43.45703125,41.015625,22.4609375,46.875,79.1015625
1771279848.6939375,46.38671875,41.50390625,20.5078125,47.36328125,46.875
1771279848.6978438,46.875,33.203125,15.13671875,32.2265625,36.1328125
1771279848.70175,32.71484375,31.25,20.99609375,29.296875,69.82421875
1771279848.7056563,26.3671875,41.015625,25.390625,47.8515625,55.6640625
1771279848.7095625,33.203125,33.203125,24.4140625,45.8984375,41.50390625
1771279848.7134688,25.87890625,21.97265625,20.01953125,31.25,48.828125
1771279848.717375,28.80859375,19.04296875,18.06640625,25.87890625,32.2265625
1771279848.7212813,36.1328125,21.97265625,16.11328125,34.66796875,14.16015625
1771279848.7251875,26.3671875,53.7109375,18.06640625,37.109375,56.15234375
1771279848.7290938,22.94921875,48.33984375,21.97265625,25.87890625,64.453125
1771279848.731125,34.66796875,28.3203125,21.97265625,19.04296875,27.34375
1771279848.7350314,35.64453125,41.015625,24.90234375,30.2734375,20.5078125
1771279848.7389376,26.85546875,47.8515625,24.90234375,43.9453125,5.859375
1771279848.7428439,22.94921875,36.62109375,22.94921875,21.484375,-0.48828125
1771279848.74675,14.16015625,21.484375,20.5078125,9.27734375,36.1328125
1771279848.7506564,14.16015625,21.484375,20.99609375,24.90234375,2.9296875
1771279848.7545626,31.25,38.0859375,22.94921875,32.2265625,-31.73828125
1771279848.7584689,30.2734375,43.9453125,25.87890625,28.80859375,5.37109375
1771279848.762375,22.94921875,18.06640625,11.71875,10.7421875,41.50390625
1771279848.7662814,26.85546875,18.06640625,-1.953125,14.16015625,29.78515625
1771279848.7701876,18.5546875,56.15234375,4.39453125,35.15625,55.6640625
1771279848.7740939,22.4609375,47.8515625,3.41796875,34.1796875,80.56640625
1771279848.775125,19.53125,27.83203125,0.0,15.13671875,25.390625
1771279848.7790313,22.94921875,41.50390625,-1.953125,10.25390625,51.26953125
1771279848.7829375,41.50390625,51.7578125,-1.46484375,28.3203125,52.734375
1771279848.7868438,36.62109375,48.828125,1.46484375,32.2265625,32.2265625
1771279848.79075,29.296875,32.2265625,-1.953125,28.80859375,58.59375
1771279848.7946563,27.83203125,21.484375,-0.48828125,31.25,73.73046875
1771279848.7985625,32.2265625,37.109375,3.41796875,35.15625,32.71484375
1771279848.8024688,41.015625,40.52734375,2.44140625,39.55078125,-12.20703125
1771279848.806375,48.828125,30.2734375,3.90625,23.92578125,10.25390625
1771279848.8102813,42.96875,33.203125,6.34765625,16.11328125,0.9765625
1771279848.8141875,44.921875,39.0625,4.39453125,23.92578125,23.4375
1771279848.8180938,59.08203125,50.29296875,5.859375,40.52734375,50.29296875
1771279848.820125,40.0390625,48.828125,5.859375,34.1796875,29.78515625
1771279848.8240314,19.04296875,35.15625,7.32421875,16.6015625,-10.7421875
1771279848.8279376,36.62109375,37.59765625,11.23046875,27.83203125,11.71875
1771279848.8318439,63.4765625,47.8515625,14.6484375,44.921875,38.0859375
1771279848.83575,47.36328125,40.52734375,19.53125,41.9921875,35.15625
1771279848.8396564,27.83203125,23.4375,25.390625,29.78515625,30.2734375
1771279848.8435626,40.0390625,27.83203125,27.83203125,35.15625,44.43359375
1771279848.8474689,56.15234375,41.50390625,31.25,54.19921875,80.56640625
1771279848.851375,51.7578125,48.33984375,32.71484375,67.3828125,46.38671875
1771279848.8552814,36.62109375,41.015625,29.78515625,42.48046875,10.25390625
1771279848.8591876,32.71484375,21.97265625,32.71484375,35.64453125,11.71875
1771279848.8630939,63.4765625,39.0625,35.64453125,56.640625,9.27734375
1771279848.867125,62.01171875,56.640625,31.73828125,60.546875,14.6484375
1771279848.8710313,46.875,34.1796875,25.390625,41.50390625,38.57421875
1771279848.8749375,42.48046875,11.71875,23.4375,26.3671875,28.80859375
1771279848.8788438,42.96875,30.76171875,26.3671875,40.52734375,37.109375
1771279848.88275,66.89453125,64.94140625,25.390625,48.828125,48.33984375
1771279848.8866563,61.03515625,50.29296875,24.4140625,41.9921875,53.22265625
1771279848.8905625,45.41015625,14.6484375,22.4609375,35.15625,2.9296875
1771279848.8944688,46.38671875,21.484375,25.390625,32.2265625,30.2734375
1771279848.898375,47.8515625,64.453125,35.64453125,52.24609375,89.35546875
1771279848.9022813,53.22265625,66.89453125,34.1796875,59.5703125,71.77734375
1771279848.9061875,38.57421875,33.69140625,26.3671875,39.0625,62.5
1771279848.9100938,33.203125,29.78515625,32.71484375,35.15625,24.4140625
1771279848.910125,65.4296875,48.828125,37.109375,64.94140625,30.76171875
1771279848.9140313,85.44921875,52.734375,33.203125,84.9609375,65.4296875
1771279848.9179375,60.05859375,41.50390625,29.78515625,53.7109375,39.0625
1771279848.9218438,37.109375,47.8515625,23.92578125,20.5078125,-2.9296875
1771279848.92575,41.9921875,61.5234375,22.94921875,17.578125,28.80859375
1771279848.9296563,44.921875,62.5,20.5078125,26.85546875,4.8828125
1771279848.9335625,35.15625,42.96875,18.06640625,22.94921875,-22.4609375
1771279848.9374688,28.80859375,35.64453125,17.08984375,8.7890625,-23.92578125
1771279848.941375,21.97265625,69.82421875,19.04296875,10.7421875,7.32421875
1771279848.9452813,19.53125,83.0078125,22.4609375,8.30078125,61.5234375
1771279848.9491875,30.2734375,75.1953125,22.94921875,1.953125,22.94921875
1771279848.9530938,24.90234375,65.91796875,20.01953125,7.8125,61.5234375
1771279848.955125,29.296875,62.98828125,20.5078125,20.99609375,105.46875
1771279848.9590313,55.6640625,68.84765625,22.4609375,26.3671875,84.47265625
1771279848.9629376,61.03515625,67.87109375,23.92578125,25.390625,82.51953125
1771279848.9668438,38.57421875,49.31640625,23.4375,15.625,31.25
1771279848.97075,30.76171875,39.0625,24.4140625,18.5546875,-43.9453125
1771279848.9746563,48.33984375,48.33984375,24.90234375,32.71484375,-21.97265625
1771279848.9785626,52.24609375,53.22265625,27.83203125,41.9921875,29.78515625
1771279848.9824688,32.2265625,55.6640625,29.78515625,33.203125,20.99609375
1771279848.986375,26.3671875,54.19921875,26.3671875,20.5078125,-5.37109375
1771279848.9902813,50.78125,49.31640625,31.73828125,41.015625,7.32421875
1771279848.9941876,79.58984375,52.24609375,35.64453125,47.8515625,41.9921875
1771279848.9980938,67.87109375,48.33984375,29.296875,33.69140625,30.76171875
1771279849.016125,41.015625,26.85546875,27.83203125,26.85546875,22.4609375
1771279849.0200312,33.203125,31.25,34.1796875,29.296875,38.57421875
1771279849.0239375,41.50390625,54.6875,37.109375,41.50390625,35.15625
1771279849.0278437,45.41015625,56.640625,34.1796875,42.48046875,42.96875
1771279849.03175,32.2265625,38.0859375,23.92578125,29.296875,33.203125
1771279849.0356562,32.71484375,20.5078125,19.04296875,26.3671875,20.5078125
1771279849.0395625,49.8046875,37.109375,25.87890625,39.55078125,-29.296875
1771279849.0434687,63.96484375,62.98828125,35.64453125,56.640625,0.9765625
1771279849.047375,56.15234375,42.48046875,34.66796875,38.0859375,45.8984375
1771279849.0512812,42.48046875,25.87890625,23.4375,16.11328125,9.765625
1771279849.0551875,45.8984375,44.921875,23.92578125,40.52734375,28.80859375
1771279849.0590937,50.29296875,57.6171875,31.73828125,51.26953125,9.27734375
1771279849.060125,42.96875,36.62109375,31.25,34.1796875,-0.9765625
1771279849.0640314,42.96875,27.83203125,30.2734375,38.0859375,-5.37109375
1771279849.0679376,57.12890625,51.26953125,30.2734375,34.1796875,9.27734375
1771279849.0718439,59.08203125,60.05859375,25.390625,36.62109375,56.640625
1771279849.07575,47.36328125,38.0859375,24.4140625,38.0859375,37.59765625
1771279849.0796564,36.62109375,14.6484375,25.390625,30.2734375,14.6484375
1771279849.0835626,34.1796875,28.80859375,25.390625,34.66796875,23.4375
1771279849.0874689,52.734375,64.94140625,31.73828125,39.55078125,50.29296875
1771279849.091375,51.7578125,51.26953125,33.69140625,39.55078125,54.6875
1771279849.0952814,24.4140625,22.4609375,33.69140625,26.3671875,41.9921875
1771279849.0991876,20.5078125,39.0625,35.15625,23.92578125,50.78125
1771279849.1030939,39.55078125,49.8046875,30.76171875,38.57421875,35.15625
1771279849.106125,51.7578125,45.8984375,27.83203125,45.8984375,55.6640625
1771279849.1100314,29.78515625,33.69140625,27.83203125,24.90234375,54.19921875
1771279849.1139376,15.625,28.80859375,32.2265625,20.01953125,18.5546875
1771279849.1178439,28.80859375,38.57421875,34.1796875,46.875,3.41796875
1771279849.12175,45.41015625,53.22265625,35.64453125,52.24609375,54.6875
1771279849.1256564,44.921875,42.96875,37.109375,36.62109375,55.6640625
1771279849.1295626,20.01953125,29.78515625,32.2265625,20.01953125,21.97265625
1771279849.1334689,28.3203125,40.52734375,34.1796875,27.83203125,40.0390625
1771279849.137375,49.8046875,34.1796875,32.2265625,46.38671875,30.76171875
1771279849.1412814,69.3359375,32.71484375,15.625,48.828125,27.83203125
1771279849.1451876,65.4296875,34.66796875,20.01953125,57.12890625,36.1328125
1771279849.1490939,48.828125,26.85546875,41.015625,68.359375,37.59765625
1771279849.151125,64.453125,39.55078125,39.55078125,53.7109375,-4.8828125
1771279849.1550312,62.01171875,33.203125,38.0859375,62.01171875,-4.8828125
1771279849.1589375,35.64453125,20.99609375,41.50390625,64.453125,36.1328125
1771279849.1628437,23.4375,15.625,36.1328125,48.33984375,45.41015625
1771279849.16675,35.15625,14.6484375,39.55078125,65.4296875,105.95703125
1771279849.1706562,55.6640625,26.3671875,45.8984375,85.44921875,98.6328125
1771279849.1745625,52.24609375,10.25390625,46.38671875,76.171875,23.4375
1771279849.1784687,38.0859375,-15.13671875,45.8984375,55.6640625,23.92578125
1771279849.182375,50.29296875,-11.71875,46.875,74.21875,-4.8828125
1771279849.1862812,71.2890625,29.78515625,46.38671875,103.515625,27.34375
1771279849.1901875,66.40625,24.90234375,46.38671875,100.09765625,46.38671875
1771279849.1940937,46.38671875,-2.44140625,35.64453125,85.44921875,3.41796875
1771279849.195125,43.45703125,16.6015625,31.73828125,83.49609375,76.66015625
1771279849.1990314,63.4765625,44.43359375,37.109375,96.6796875,103.02734375
1771279849.2029376,58.59375,39.0625,31.25,86.9140625,60.05859375
1771279849.2068439,44.921875,4.8828125,27.34375,66.40625,-19.53125
1771279849.21075,41.9921875,0.48828125,32.2265625,72.265625,-25.87890625
1771279849.2146564,44.43359375,28.80859375,35.15625,84.47265625,7.8125
1771279849.2185626,51.7578125,39.0625,28.80859375,74.21875,14.16015625
1771279849.2224689,38.0859375,7.32421875,26.3671875,55.17578125,-16.11328125
1771279849.226375,25.87890625,1.46484375,29.296875,50.78125,-10.25390625
1771279849.2302814,51.7578125,40.52734375,41.015625,70.80078125,18.5546875
1771279849.2341876,62.5,42.96875,40.52734375,79.1015625,-10.7421875
1771279849.2380939,48.828125,31.25,28.80859375,71.77734375,-14.16015625
1771279849.240125,40.0390625,25.390625,26.3671875,53.22265625,-0.48828125
1771279849.2440312,43.45703125,35.15625,24.4140625,42.96875,31.25
1771279849.2479374,62.98828125,46.875,30.2734375,74.21875,41.015625
1771279849.2518437,53.22265625,36.1328125,29.78515625,66.89453125,29.78515625
1771279849.25575,32.71484375,20.01953125,22.4609375,30.76171875,28.3203125
1771279849.2596562,42.48046875,22.4609375,27.83203125,43.9453125,42.48046875
1771279849.2635624,47.36328125,32.71484375,29.296875,67.87109375,41.9921875
1771279849.2674687,48.33984375,37.109375,18.06640625,53.22265625,38.0859375
1771279849.271375,45.41015625,36.62109375,6.8359375,27.83203125,4.39453125
1771279849.2752812,45.8984375,44.43359375,6.8359375,38.0859375,30.2734375
1771279849.2791874,70.80078125,45.41015625,8.7890625,61.5234375,51.26953125
1771279849.2830937,73.2421875,36.1328125,4.39453125,59.5703125,57.6171875
1771279849.288125,39.0625,30.76171875,-0.48828125,48.828125,33.69140625
1771279849.2920313,26.3671875,25.87890625,-5.859375,53.22265625,10.25390625
1771279849.2959375,44.43359375,41.50390625,1.953125,65.4296875,53.22265625
1771279849.2998438,43.9453125,47.8515625,10.25390625,62.01171875,59.08203125
1771279849.30375,33.69140625,32.71484375,10.25390625,44.921875,51.7578125
1771279849.3076563,31.25,21.484375,-0.48828125,32.71484375,11.23046875
1771279849.3115625,53.22265625,27.83203125,-1.46484375,50.29296875,-4.39453125
1771279849.3154688,58.10546875,45.8984375,5.37109375,68.359375,3.90625
1771279849.319375,42.48046875,47.8515625,9.765625,55.6640625,0.48828125
1771279849.3232813,31.25,22.94921875,8.30078125,44.43359375,59.08203125
1771279849.3271875,32.71484375,23.92578125,7.32421875,42.48046875,50.78125
1771279849.3310938,43.45703125,45.8984375,19.04296875,56.15234375,50.78125
1771279849.333125,40.52734375,45.8984375,20.5078125,53.22265625,52.24609375
1771279849.3370314,27.83203125,25.87890625,9.27734375,34.66796875,26.3671875
1771279849.3409376,17.578125,25.390625,7.8125,26.85546875,14.16015625
1771279849.3448439,45.41015625,50.78125,8.7890625,36.1328125,-5.37109375
1771279849.34875,63.96484375,67.3828125,16.6015625,64.453125,45.8984375
1771279849.3526564,48.33984375,28.80859375,16.6015625,53.7109375,58.10546875
1771279849.3565626,34.1796875,-0.48828125,4.8828125,28.80859375,30.2734375
1771279849.3604689,36.1328125,37.109375,9.765625,47.36328125,41.50390625
1771279849.364375,46.875,58.59375,17.08984375,50.29296875,-0.48828125
1771279849.3682814,42.96875,38.0859375,19.04296875,46.38671875,-25.390625
1771279849.3721876,41.9921875,19.04296875,19.04296875,39.55078125,47.36328125
1771279849.3760939,55.6640625,24.90234375,16.11328125,42.96875,58.59375
1771279849.378125,68.359375,44.43359375,13.671875,78.61328125,26.3671875
1771279849.3820312,77.63671875,41.015625,16.6015625,69.3359375,15.13671875
1771279849.3859375,36.62109375,31.73828125,19.04296875,33.69140625,6.34765625
1771279849.3898437,-9.765625,33.203125,21.484375,24.90234375,34.1796875
1771279849.39375,7.32421875,38.57421875,25.87890625,27.83203125,61.5234375
1771279849.3976562,24.4140625,39.55078125,28.80859375,23.4375,59.08203125
1771279849.4015625,10.7421875,23.4375,31.73828125,13.671875,77.1484375
1771279849.4054687,-8.7890625,18.06640625,34.66796875,-0.9765625,11.71875
1771279849.409375,22.4609375,31.73828125,35.64453125,26.3671875,-37.59765625
1771279849.4132812,42.48046875,26.85546875,33.69140625,44.43359375,-0.9765625
1771279849.4171875,13.18359375,24.90234375,38.0859375,30.2734375,17.578125
1771279849.4210937,16.6015625,31.25,38.57421875,29.78515625,50.29296875
1771279849.437125,32.71484375,34.1796875,31.25,43.9453125,77.1484375
1771279849.4410312,39.0625,43.9453125,39.0625,50.78125,30.76171875
1771279849.4449375,28.3203125,37.109375,44.43359375,50.29296875,-13.18359375
1771279849.4488437,8.7890625,17.08984375,36.62109375,45.8984375,0.48828125
1771279849.45275,21.97265625,20.99609375,27.83203125,42.96875,24.4140625
1771279849.4566562,47.8515625,41.015625,28.80859375,35.64453125,84.47265625
1771279849.4605625,38.57421875,48.828125,30.2734375,19.53125,55.6640625
1771279849.4644687,16.6015625,35.15625,27.83203125,20.01953125,45.41015625
1771279849.468375,29.296875,18.06640625,28.3203125,34.1796875,83.49609375
1771279849.4722812,44.921875,35.15625,29.78515625,42.48046875,77.1484375
1771279849.4761875,36.62109375,52.24609375,34.66796875,41.9921875,103.515625
1771279849.4800937,28.80859375,28.3203125,30.2734375,41.9921875,85.9375
1771279849.482125,24.4140625,17.08984375,25.390625,45.8984375,47.36328125
1771279849.4860313,36.1328125,29.78515625,30.2734375,53.22265625,-6.8359375
1771279849.4899375,54.6875,50.29296875,31.25,40.0390625,23.4375
1771279849.4938438,57.12890625,29.78515625,20.5078125,41.9921875,76.171875
1771279849.49775,53.22265625,6.8359375,18.5546875,52.734375,32.2265625
1771279849.5016563,39.55078125,33.203125,27.83203125,50.29296875,28.3203125
1771279849.5055625,16.6015625,56.15234375,34.1796875,33.69140625,74.21875
1771279849.5094688,7.32421875,45.41015625,35.15625,15.625,65.4296875
1771279849.513375,-6.8359375,11.71875,35.64453125,7.8125,7.32421875
1771279849.5172813,2.9296875,20.01953125,37.109375,6.8359375,-40.52734375
1771279849.5211875,12.20703125,52.734375,38.0859375,24.4140625,-13.18359375
1771279849.5250938,13.671875,42.48046875,32.2265625,24.90234375,5.859375
1771279849.533125,24.90234375,24.4140625,23.4375,0.48828125,-15.625
1771279849.5370312,11.23046875,30.76171875,29.78515625,8.7890625,40.0390625
1771279849.5409374,7.8125,48.828125,36.62109375,34.1796875,-8.7890625
1771279849.5448437,37.59765625,50.78125,36.62109375,48.33984375,5.37109375
1771279849.54875,21.484375,26.3671875,27.34375,25.390625,10.7421875
1771279849.5526562,2.44140625,11.71875,26.3671875,20.5078125,-51.7578125
1771279849.5565624,33.69140625,35.64453125,35.64453125,41.50390625,1.953125
1771279849.5604687,48.828125,44.43359375,31.73828125,41.50390625,-0.48828125
1771279849.564375,29.78515625,17.578125,30.2734375,28.80859375,-30.76171875
1771279849.5682812,22.4609375,26.85546875,40.52734375,17.08984375,49.8046875
1771279849.5721874,26.85546875,52.24609375,40.0390625,32.71484375,41.50390625
1771279849.5760937,51.7578125,65.91796875,35.15625,51.26953125,-3.41796875
1771279849.571125,43.45703125,54.6875,34.66796875,27.34375,48.33984375
1771279849.5750313,14.6484375,30.76171875,32.2265625,17.578125,75.68359375
1771279849.5789375,16.11328125,34.1796875,35.64453125,44.921875,46.875
1771279849.5828438,53.22265625,51.7578125,37.59765625,57.12890625,5.859375
1771279849.58675,53.7109375,46.875,35.15625,49.31640625,8.7890625
1771279849.5906563,13.18359375,24.90234375,26.3671875,39.0625,62.5
1771279849.5945625,22.4609375,30.76171875,28.3203125,28.80859375,31.25
1771279849.5984688,35.15625,46.875,31.73828125,34.66796875,42.96875
1771279849.602375,40.52734375,51.7578125,31.73828125,43.9453125,84.47265625
1771279849.6062813,43.45703125,48.828125,25.390625,22.94921875,57.6171875
1771279849.6101875,14.6484375,37.109375,19.53125,5.37109375,50.29296875
1771279849.6140938,12.6953125,53.22265625,26.85546875,36.62109375,28.3203125
1771279849.615125,37.109375,67.87109375,26.3671875,46.38671875,29.296875
1771279849.6190312,30.76171875,44.921875,28.80859375,26.85546875,65.4296875
1771279849.6229374,29.78515625,24.90234375,27.83203125,25.87890625,19.53125
1771279849.6268437,35.64453125,38.57421875,24.4140625,30.76171875,-41.015625
1771279849.63075,45.8984375,54.6875,28.80859375,42.48046875,-54.6875
1771279849.6346562,37.109375,47.8515625,28.80859375,31.73828125,-29.78515625
1771279849.6385624,20.99609375,20.99609375,31.73828125,9.765625,22.4609375
1771279849.6424687,20.01953125,20.5078125,28.3203125,27.34375,18.06640625
1771279849.646375,20.99609375,67.3828125,22.94921875,41.9921875,46.38671875
1771279849.6502812,35.15625,66.40625,30.2734375,21.484375,35.64453125
1771279849.6541874,9.27734375,27.83203125,30.2734375,14.6484375,10.25390625
1771279849.6580937,2.44140625,23.4375,32.2265625,13.671875,42.48046875
1771279849.660125,39.55078125,50.29296875,38.57421875,23.92578125,53.22265625
1771279849.6640313,58.59375,45.8984375,37.109375,64.453125,2.9296875
1771279849.6679375,56.15234375,25.87890625,33.203125,52.24609375,-36.1328125
1771279849.6718438,9.765625,36.62109375,26.3671875,-6.34765625,18.5546875
1771279849.67575,-29.78515625,54.19921875,29.296875,-28.3203125,63.96484375
1771279849.6796563,-21.97265625,44.921875,31.73828125,-28.80859375,15.13671875
1771279849.6835625,-25.87890625,39.55078125,28.3203125,-46.875,0.0
1771279849.6874688,-53.7109375,48.33984375,28.3203125,-65.91796875,35.64453125
1771279849.691375,-52.734375,62.98828125,36.1328125,-61.03515625,35.64453125
1771279849.6952813,-46.875,73.2421875,39.55078125,-66.89453125,9.27734375
1771279849.6991875,-51.7578125,79.1015625,28.80859375,-82.51953125,56.640625
1771279849.7030938,-86.9140625,71.2890625,24.4140625,-99.12109375,92.28515625
1771279849.706125,-81.54296875,64.453125,24.4140625,-94.23828125,93.75
1771279849.7100313,-32.71484375,71.77734375,17.578125,-73.2421875,3.41796875
1771279849.7139375,-48.33984375,71.77734375,15.13671875,-85.9375,-47.8515625
1771279849.7178438,-78.125,66.89453125,16.11328125,-107.421875,31.73828125
1771279849.72175,-66.89453125,72.75390625,13.671875,-86.9140625,32.71484375
1771279849.7256563,-22.94921875,77.1484375,13.671875,-56.640625,41.9921875
1771279849.7295625,-13.671875,81.0546875,13.18359375,-50.29296875,76.171875
1771279849.7334688,-23.92578125,75.68359375,16.6015625,-49.8046875,70.80078125
1771279849.737375,-29.296875,54.19921875,18.5546875,-49.31640625,55.6640625
1771279849.7412813,-26.85546875,52.24609375,19.04296875,-35.64453125,-14.6484375
1771279849.7451875,2.44140625,74.21875,20.5078125,-13.671875,-43.45703125
1771279849.7490938,6.34765625,67.87109375,17.578125,-23.4375,34.1796875
1771279849.765125,2.9296875,43.9453125,18.5546875,-14.6484375,33.69140625
1771279849.7690313,18.06640625,49.31640625,16.11328125,6.34765625,-20.01953125
1771279849.7729375,21.97265625,63.96484375,12.6953125,5.37109375,31.25
1771279849.7768438,6.34765625,54.6875,17.08984375,9.765625,20.5078125
1771279849.78075,-17.578125,38.0859375,20.99609375,-1.953125,19.53125
1771279849.7846563,-6.34765625,24.4140625,19.53125,-4.8828125,81.0546875
1771279849.7885625,43.45703125,41.50390625,23.4375,18.06640625,41.015625
1771279849.7924688,40.52734375,67.87109375,32.2265625,16.6015625,19.53125
1771279849.796375,22.94921875,45.41015625,26.85546875,0.0,8.7890625
1771279849.8002813,28.3203125,33.69140625,23.92578125,8.30078125,30.76171875
1771279849.8041875,31.25,63.96484375,26.3671875,14.16015625,63.4765625
1771279849.8080938,38.57421875,78.125,32.2265625,27.34375,-2.9296875
1771279849.810125,37.109375,55.6640625,29.296875,31.25,33.69140625
1771279849.8140314,28.80859375,34.1796875,19.53125,17.578125,52.24609375
1771279849.8179376,13.18359375,41.9921875,18.06640625,12.6953125,-21.97265625
1771279849.8218439,25.87890625,63.96484375,18.5546875,26.3671875,14.16015625
1771279849.82575,40.0390625,46.38671875,21.484375,30.2734375,5.859375
1771279849.8296564,12.6953125,25.87890625,21.484375,9.27734375,37.109375
1771279849.8335626,25.390625,36.62109375,20.5078125,12.20703125,88.8671875
1771279849.8374689,36.62109375,57.6171875,23.4375,28.3203125,30.76171875
1771279849.841375,23.4375,48.33984375,26.3671875,34.1796875,-0.9765625
1771279849.8452814,32.2265625,4.8828125,27.83203125,49.8046875,21.97265625
1771279849.8491876,41.015625,22.4609375,32.71484375,42.48046875,29.296875
1771279849.8530939,21.484375,65.4296875,33.203125,13.18359375,47.36328125
1771279849.855125,15.625,63.96484375,26.3671875,14.6484375,44.921875
1771279849.8590312,7.8125,40.0390625,33.69140625,5.859375,20.99609375
1771279849.8629375,-10.7421875,31.73828125,31.25,-6.34765625,34.1796875
1771279849.8668437,-2.44140625,47.8515625,29.78515625,13.18359375,7.8125
1771279849.87075,5.37109375,56.15234375,38.57421875,16.11328125,39.0625
1771279849.8746562,18.06640625,38.0859375,30.76171875,20.01953125,65.4296875
1771279849.8785625,25.390625,26.85546875,31.73828125,18.5546875,0.9765625
1771279849.8824687,28.80859375,43.45703125,39.55078125,27.83203125,-5.37109375
1771279849.886375,44.921875,41.50390625,36.1328125,37.109375,14.16015625
1771279849.8902812,42.48046875,40.52734375,29.78515625,29.296875,17.08984375
1771279849.8941875,13.671875,45.8984375,31.73828125,19.04296875,8.7890625
1771279849.8980937,15.13671875,39.55078125,33.203125,19.53125,0.9765625
1771279849.900125,44.43359375,52.734375,33.69140625,42.48046875,16.11328125
1771279849.9040313,52.734375,59.08203125,39.0625,43.45703125,21.484375
1771279849.9079375,28.80859375,32.71484375,37.109375,36.1328125,41.9921875
1771279849.9118438,15.625,19.53125,29.296875,31.25,27.34375
1771279849.91575,38.0859375,44.43359375,28.80859375,31.73828125,7.32421875
1771279849.9196563,66.40625,55.17578125,31.73828125,48.33984375,19.04296875
1771279849.9235625,43.45703125,43.45703125,29.78515625,46.38671875,41.015625
1771279849.9274688,9.27734375,34.1796875,22.94921875,18.5546875,40.0390625
1771279849.931375,24.4140625,38.0859375,22.94921875,13.671875,62.01171875
1771279849.9352813,44.43359375,54.6875,31.25,40.0390625,69.82421875
1771279849.9391875,34.1796875,41.50390625,32.71484375,33.203125,41.015625
1771279849.9430938,13.671875,16.6015625,26.3671875,9.27734375,59.08203125
1771279849.945125,3.41796875,29.296875,29.78515625,17.578125,84.47265625
1771279849.9490314,30.76171875,56.15234375,37.59765625,36.62109375,39.55078125
1771279849.9529376,51.26953125,53.22265625,38.0859375,29.296875,20.99609375
1771279849.9568439,30.76171875,28.80859375,36.62109375,18.5546875,61.03515625
1771279849.96075,16.11328125,20.01953125,38.0859375,33.203125,54.6875
1771279849.9646564,41.015625,37.59765625,38.0859375,44.921875,46.38671875
1771279849.9685626,51.7578125,38.57421875,36.1328125,56.640625,40.0390625
1771279849.9724689,43.45703125,13.671875,33.203125,58.10546875,49.31640625
1771279849.976375,33.203125,22.4609375,34.66796875,36.1328125,27.83203125
1771279849.9802814,42.48046875,55.6640625,32.71484375,32.2265625,17.08984375
1771279849.9841876,61.5234375,57.6171875,29.296875,34.66796875,65.91796875
1771279849.9880939,38.57421875,42.96875,27.83203125,35.15625,86.9140625
1771279849.992125,19.53125,31.25,23.4375,20.01953125,39.0625
1771279849.9960313,40.0390625,41.50390625,25.390625,19.53125,7.32421875
1771279849.9999375,63.96484375,56.15234375,29.296875,43.9453125,20.99609375
1771279850.0038438,64.94140625,47.36328125,29.296875,40.0390625,41.9921875
1771279850.00775,48.33984375,36.62109375,26.3671875,24.4140625,54.19921875
1771279850.0116563,48.828125,39.0625,31.73828125,42.96875,54.19921875
1771279850.0155625,52.24609375,45.41015625,38.0859375,58.10546875,51.26953125
1771279850.0194688,35.15625,36.62109375,34.66796875,44.921875,37.59765625
1771279850.023375,34.66796875,34.1796875,22.4609375,33.203125,15.13671875
1771279850.0272813,44.921875,34.66796875,25.87890625,48.33984375,10.25390625
1771279850.0311875,42.48046875,50.29296875,46.38671875,55.6640625,55.17578125
1771279850.0350938,31.25,58.59375,50.29296875,45.8984375,47.8515625
1771279850.035125,16.11328125,34.66796875,44.43359375,31.73828125,-14.16015625
1771279850.0390313,14.6484375,18.5546875,41.015625,15.625,14.6484375
1771279850.0429375,24.4140625,31.25,43.9453125,33.69140625,41.9921875
1771279850.0468438,26.85546875,41.9921875,47.36328125,39.0625,8.30078125
1771279850.05075,19.53125,28.80859375,39.0625,14.6484375,7.8125
1771279850.0546563,13.671875,15.13671875,38.0859375,21.97265625,16.11328125
1771279850.0585625,24.90234375,17.08984375,40.52734375,40.0390625,44.921875
1771279850.0624688,36.1328125,37.59765625,43.45703125,45.8984375,45.41015625
1771279850.066375,28.80859375,53.22265625,44.43359375,43.45703125,24.4140625
1771279850.0702813,8.30078125,26.3671875,34.1796875,31.73828125,10.25390625
1771279850.0741875,13.671875,20.99609375,33.203125,38.0859375,12.6953125
1771279850.0780938,41.9921875,49.31640625,40.52734375,50.78125,7.32421875
1771279850.080125,41.015625,48.33984375,39.0625,37.109375,41.50390625
1771279850.0840313,43.45703125,29.78515625,38.57421875,32.2265625,82.51953125
1771279850.0879376,30.2734375,26.3671875,35.64453125,26.85546875,38.0859375
1771279850.0918438,22.4609375,49.8046875,31.73828125,40.0390625,0.0
1771279850.09575,41.50390625,57.12890625,33.203125,51.26953125,1.46484375
1771279850.0996563,29.78515625,29.78515625,30.76171875,26.85546875,48.828125
1771279850.1035626,28.80859375,20.99609375,26.85546875,14.16015625,52.24609375
1771279850.1074688,41.9921875,44.43359375,30.76171875,25.390625,-6.34765625
1771279850.111375,27.83203125,55.6640625,31.73828125,31.25,37.59765625
1771279850.1152813,20.01953125,30.76171875,33.203125,29.78515625,74.21875
1771279850.1191876,20.99609375,14.6484375,34.1796875,32.2265625,23.92578125
1771279850.1230938,30.2734375,40.52734375,35.15625,30.2734375,27.83203125
1771279850.140125,47.36328125,60.546875,38.0859375,51.26953125,46.875
1771279850.1440313,44.921875,57.6171875,38.0859375,52.24609375,47.36328125
1771279850.1479375,28.80859375,45.8984375,37.109375,29.78515625,70.80078125
1771279850.1518438,22.94921875,43.9453125,41.015625,31.73828125,66.89453125
1771279850.15575,47.8515625,62.01171875,30.2734375,49.31640625,43.9453125
1771279850.1596563,51.7578125,50.29296875,21.97265625,51.26953125,64.453125
1771279850.1635625,30.2734375,33.203125,28.80859375,38.57421875,61.5234375
1771279850.1674688,27.34375,44.921875,26.85546875,29.296875,62.01171875
1771279850.171375,41.50390625,53.7109375,27.34375,19.04296875,39.0625
1771279850.1752813,52.24609375,49.8046875,31.73828125,36.1328125,-40.0390625
1771279850.1791875,41.015625,35.64453125,30.2734375,42.96875,-37.59765625
1771279850.1830938,23.4375,33.203125,36.1328125,37.109375,12.20703125
1771279850.185125,37.59765625,47.36328125,32.2265625,36.62109375,12.20703125
1771279850.1890314,46.38671875,62.5,26.3671875,27.34375,17.08984375
1771279850.1929376,33.203125,53.22265625,28.3203125,26.3671875,36.1328125
1771279850.1968439,27.34375,38.0859375,25.87890625,17.578125,53.22265625
1771279850.20075,25.390625,35.15625,26.3671875,19.04296875,56.15234375
1771279850.2046564,32.71484375,44.43359375,29.78515625,43.9453125,66.40625
1771279850.2085626,25.87890625,46.38671875,32.71484375,17.08984375,99.609375
1771279850.2124689,22.4609375,28.80859375,33.69140625,2.9296875,51.7578125
1771279850.216375,25.390625,23.92578125,36.62109375,29.296875,59.08203125
1771279850.2202814,27.83203125,40.52734375,37.59765625,42.96875,111.81640625
1771279850.2241876,29.78515625,47.36328125,36.62109375,32.2265625,44.921875
1771279850.2280939,20.01953125,32.71484375,31.25,26.3671875,23.92578125
1771279850.230125,27.83203125,20.5078125,31.73828125,37.109375,42.48046875
1771279850.2340312,44.921875,42.48046875,34.1796875,35.15625,49.8046875
1771279850.2379375,40.0390625,65.91796875,38.0859375,36.62109375,57.6171875
1771279850.2418437,28.3203125,40.0390625,33.203125,28.80859375,24.90234375
1771279850.24575,20.01953125,23.4375,23.92578125,28.3203125,28.3203125
1771279850.2496562,29.296875,25.390625,29.78515625,38.0859375,26.3671875
1771279850.2535625,39.55078125,44.43359375,33.203125,40.52734375,-8.7890625
1771279850.2574687,35.15625,48.33984375,31.25,32.71484375,-19.53125
1771279850.261375,23.92578125,19.53125,28.80859375,20.99609375,-22.4609375
1771279850.2652812,31.25,33.203125,31.25,34.66796875,16.6015625
1771279850.2691875,49.8046875,64.94140625,35.64453125,41.50390625,28.80859375
1771279850.2730937,27.34375,45.8984375,35.15625,43.45703125,15.13671875
1771279850.276125,7.32421875,21.484375,32.2265625,33.69140625,43.9453125
1771279850.2800312,24.4140625,31.73828125,30.76171875,37.109375,25.390625
1771279850.2839375,41.9921875,57.6171875,33.203125,38.0859375,-1.46484375
1771279850.2878437,35.15625,46.38671875,26.3671875,41.9921875,30.76171875
1771279850.29175,34.1796875,21.97265625,17.08984375,45.8984375,65.91796875
1771279850.2956562,21.484375,15.13671875,25.87890625,28.3203125,51.7578125
1771279850.2995625,17.08984375,34.1796875,33.203125,37.109375,20.99609375
1771279850.3034687,28.80859375,43.9453125,31.25,40.0390625,45.41015625
1771279850.307375,12.20703125,20.01953125,27.34375,-9.27734375,4.39453125
1771279850.3112812,-5.37109375,24.90234375,20.99609375,-34.1796875,2.9296875
1771279850.3151875,-9.27734375,39.0625,25.390625,7.8125,41.015625
1771279850.3190937,33.203125,54.19921875,27.83203125,19.04296875,40.52734375
1771279850.321125,48.33984375,50.29296875,22.94921875,-3.41796875,38.0859375
1771279850.3250313,5.859375,30.2734375,30.76171875,-1.46484375,39.55078125
1771279850.3289375,7.8125,24.4140625,38.0859375,41.50390625,60.05859375
1771279850.3328438,52.24609375,33.69140625,33.203125,61.5234375,43.9453125
1771279850.33675,59.5703125,42.48046875,28.80859375,25.87890625,11.23046875
1771279850.3406563,17.08984375,20.99609375,27.34375,11.71875,-45.41015625
1771279850.3445625,17.08984375,28.80859375,28.80859375,16.6015625,17.08984375
1771279850.3484688,55.6640625,33.69140625,35.15625,44.921875,98.14453125
1771279850.352375,67.87109375,31.73828125,33.69140625,60.05859375,81.0546875
1771279850.3562813,41.50390625,33.203125,35.15625,39.0625,55.17578125
1771279850.3601875,22.4609375,19.04296875,33.69140625,15.13671875,52.734375
1771279850.3640938,43.45703125,37.59765625,28.3203125,31.73828125,23.92578125
1771279850.372125,42.48046875,53.7109375,35.15625,59.5703125,-1.953125
1771279850.3760312,21.484375,37.109375,35.64453125,45.8984375,-28.3203125
1771279850.3799374,10.25390625,14.16015625,35.15625,17.578125,14.6484375
1771279850.3838437,3.41796875,22.4609375,34.66796875,23.4375,37.109375
1771279850.38775,12.20703125,48.33984375,27.83203125,22.94921875,19.04296875
1771279850.3916562,29.296875,29.296875,30.2734375,15.625,4.39453125
1771279850.3955624,6.8359375,7.8125,23.92578125,5.37109375,34.1796875
1771279850.3994687,4.8828125,2.9296875,24.90234375,8.30078125,68.359375
1771279850.403375,43.45703125,43.45703125,31.25,40.52734375,36.1328125
1771279850.4072812,31.25,57.6171875,31.25,50.29296875,73.73046875
1771279850.4111874,16.11328125,28.80859375,26.85546875,27.83203125,105.95703125
1771279850.4150937,24.90234375,34.66796875,19.04296875,12.20703125,58.59375
1771279850.411125,41.015625,47.36328125,27.34375,26.3671875,32.2265625
1771279850.4150312,53.7109375,55.17578125,31.25,41.50390625,80.078125
1771279850.4189374,30.2734375,36.1328125,23.92578125,9.765625,86.9140625
1771279850.4228437,1.953125,20.01953125,23.92578125,-3.41796875,38.57421875
1771279850.42675,-2.9296875,34.66796875,24.4140625,20.5078125,-4.8828125
1771279850.4306562,25.390625,49.8046875,20.99609375,26.85546875,33.203125
1771279850.4345624,37.59765625,29.296875,24.4140625,17.578125,80.078125
1771279850.4384687,13.671875,17.578125,19.53125,1.46484375,22.4609375
1771279850.442375,23.92578125,32.2265625,24.90234375,19.04296875,47.8515625
1771279850.4462812,50.29296875,52.734375,34.1796875,36.62109375,49.8046875
1771279850.4501874,40.52734375,36.1328125,30.76171875,40.52734375,11.23046875
1771279850.4540937,20.99609375,20.01953125,27.34375,30.76171875,4.8828125
1771279850.455125,10.25390625,40.52734375,27.34375,8.30078125,10.25390625
1771279850.4590313,25.87890625,47.36328125,34.66796875,18.06640625,48.33984375
1771279850.4629376,44.43359375,45.41015625,34.66796875,50.29296875,49.8046875
1771279850.4668438,47.8515625,32.2265625,29.78515625,47.36328125,9.765625
1771279850.47075,37.109375,19.53125,32.71484375,40.52734375,14.6484375
1771279850.4746563,17.578125,19.53125,32.2265625,40.0390625,4.39453125
1771279850.4785626,53.22265625,37.109375,28.80859375,37.59765625,70.80078125
1771279850.4824688,31.25,38.0859375,31.73828125,33.69140625,67.3828125
1771279850.486375,-17.578125,20.99609375,33.203125,15.625,-16.11328125
1771279850.4902813,21.97265625,33.69140625,32.2265625,28.3203125,6.34765625
1771279850.4941876,41.015625,47.8515625,37.109375,65.4296875,32.2265625
1771279850.4980938,41.9921875,40.0390625,35.64453125,62.01171875,55.17578125
1771279850.516125,38.57421875,26.85546875,28.3203125,37.109375,65.91796875
1771279850.5200312,25.390625,27.83203125,28.80859375,26.3671875,26.85546875
1771279850.5239375,37.59765625,43.45703125,32.71484375,44.921875,-13.18359375
1771279850.5278437,47.36328125,50.29296875,33.203125,70.80078125,16.6015625
1771279850.53175,38.0859375,34.66796875,32.2265625,53.22265625,-1.46484375
1771279850.5356562,25.390625,20.5078125,26.3671875,27.34375,41.9921875
1771279850.5395625,36.1328125,43.45703125,22.94921875,33.69140625,50.29296875
1771279850.5434687,53.22265625,58.10546875,30.2734375,43.45703125,-18.5546875
1771279850.547375,46.875,34.1796875,29.78515625,24.4140625,-32.71484375
1771279850.5512812,31.73828125,29.296875,26.3671875,18.5546875,23.4375
1771279850.5551875,43.45703125,55.6640625,24.90234375,47.36328125,42.48046875
1771279850.5590937,50.78125,63.96484375,28.3203125,47.8515625,45.41015625
1771279850.560125,47.8515625,38.0859375,28.3203125,32.71484375,65.91796875
1771279850.5640314,28.80859375,19.53125,24.4140625,39.55078125,26.3671875
1771279850.5679376,30.2734375,38.57421875,30.76171875,43.9453125,-17.578125
1771279850.5718439,72.265625,67.87109375,36.1328125,44.921875,41.015625
1771279850.57575,55.17578125,52.24609375,29.296875,39.55078125,114.74609375
1771279850.5796564,11.23046875,18.06640625,21.484375,20.5078125,80.56640625
1771279850.5835626,3.41796875,29.296875,22.4609375,14.6484375,16.11328125
1771279850.5874689,20.99609375,61.5234375,25.87890625,17.08984375,59.5703125
1771279850.591375,35.15625,47.8515625,21.97265625,21.484375,61.5234375
1771279850.5952814,23.4375,17.08984375,25.87890625,40.52734375,-10.25390625
1771279850.5991876,21.484375,37.59765625,32.2265625,33.69140625,23.92578125
1771279850.6030939,42.48046875,58.10546875,31.25,35.64453125,41.9921875
1771279850.605125,38.57421875,49.8046875,31.25,37.109375,20.99609375
1771279850.6090312,7.8125,34.66796875,27.34375,11.71875,-2.44140625
1771279850.6129375,3.41796875,29.78515625,22.94921875,1.953125,14.6484375
1771279850.6168437,13.671875,41.9921875,29.296875,20.99609375,59.5703125
1771279850.62075,12.6953125,47.8515625,35.15625,41.50390625,32.71484375
1771279850.6246562,10.25390625,33.203125,31.25,42.96875,61.5234375
1771279850.6285625,18.5546875,24.4140625,29.296875,26.85546875,56.15234375
1771279850.6324687,25.390625,42.96875,35.64453125,24.4140625,-10.7421875
1771279850.636375,24.4140625,48.828125,45.41015625,43.9453125,25.390625
1771279850.6402812,18.5546875,46.875,43.45703125,56.15234375,83.984375
1771279850.6441875,17.08984375,43.9453125,36.62109375,42.96875,53.22265625
1771279850.6480937,16.6015625,33.203125,32.71484375,22.94921875,23.4375
1771279850.666125,30.2734375,47.8515625,35.15625,41.50390625,52.24609375
1771279850.6700313,42.48046875,55.6640625,28.3203125,34.1796875,41.9921875
1771279850.6739376,27.34375,35.15625,25.87890625,7.8125,35.15625
1771279850.6778438,31.73828125,22.94921875,28.80859375,11.71875,20.5078125
1771279850.68175,25.87890625,37.59765625,31.73828125,35.15625,-18.5546875
1771279850.6856563,23.4375,47.8515625,33.69140625,47.36328125,-13.671875
1771279850.6895626,39.0625,44.43359375,31.73828125,31.73828125,62.98828125
1771279850.6934688,27.83203125,25.390625,29.78515625,5.859375,74.21875
1771279850.697375,17.08984375,33.203125,33.203125,17.578125,1.46484375
1771279850.7012813,51.7578125,73.2421875,37.59765625,50.29296875,39.55078125
1771279850.7051876,53.22265625,58.10546875,25.87890625,33.203125,8.30078125
1771279850.7090938,21.484375,18.06640625,20.01953125,6.8359375,-40.0390625
1771279850.695125,43.45703125,29.296875,22.4609375,13.18359375,21.97265625
1771279850.6990314,60.05859375,67.87109375,30.2734375,43.9453125,37.109375
1771279850.7029376,28.80859375,60.05859375,30.76171875,44.921875,64.453125
1771279850.7068439,17.578125,33.69140625,20.5078125,19.53125,27.34375
1771279850.71075,26.3671875,36.62109375,19.53125,14.6484375,-27.83203125
1771279850.7146564,38.57421875,53.7109375,29.296875,32.2265625,45.41015625
1771279850.7185626,59.5703125,59.5703125,30.76171875,56.15234375,23.92578125
1771279850.7224689,30.2734375,40.52734375,20.99609375,28.80859375,-10.25390625
1771279850.726375,11.71875,32.71484375,23.92578125,9.765625,19.04296875
1771279850.7302814,50.78125,56.15234375,29.78515625,34.66796875,49.8046875
1771279850.7341876,48.828125,66.40625,19.04296875,37.59765625,74.21875
1771279850.7380939,22.94921875,31.25,14.16015625,20.99609375,85.44921875
1771279850.740125,25.390625,18.5546875,22.4609375,27.83203125,62.98828125
1771279850.7440312,46.875,56.15234375,27.83203125,26.3671875,7.32421875
1771279850.7479374,55.6640625,65.91796875,30.76171875,34.1796875,5.859375
1771279850.7518437,31.25,49.31640625,32.71484375,41.015625,42.48046875
1771279850.75575,21.97265625,42.96875,29.78515625,9.765625,80.56640625
1771279850.7596562,30.2734375,41.9921875,24.90234375,22.4609375,83.984375
1771279850.7635624,39.55078125,47.8515625,24.4140625,40.0390625,90.33203125
1771279850.7674687,26.3671875,37.59765625,26.85546875,33.69140625,3.41796875
1771279850.771375,16.6015625,32.2265625,32.2265625,42.96875,-0.9765625
1771279850.7752812,30.2734375,33.69140625,28.3203125,26.3671875,41.50390625
1771279850.7791874,43.9453125,45.8984375,24.90234375,24.90234375,18.06640625
1771279850.7830937,51.7578125,59.5703125,26.85546875,36.1328125,6.34765625
1771279850.786125,35.15625,39.55078125,30.2734375,20.5078125,-40.0390625
1771279850.7900312,19.04296875,21.97265625,34.1796875,11.71875,-22.4609375
1771279850.7939374,37.109375,37.59765625,34.1796875,35.64453125,-6.34765625
1771279850.7978437,56.640625,65.4296875,32.2265625,41.50390625,6.8359375
1771279850.80175,43.9453125,50.78125,30.76171875,30.76171875,56.15234375
1771279850.8056562,26.85546875,19.53125,29.78515625,31.73828125,48.33984375
1771279850.8095624,49.31640625,23.4375,29.78515625,28.3203125,-4.8828125
1771279850.8134687,52.734375,48.828125,34.66796875,35.64453125,2.9296875
1771279850.817375,26.85546875,55.6640625,33.69140625,33.203125,41.50390625
1771279850.8212812,29.296875,31.25,27.83203125,14.6484375,23.4375
1771279850.8251874,44.43359375,28.80859375,28.3203125,28.3203125,79.58984375
1771279850.8290937,49.31640625,50.29296875,30.2734375,48.33984375,72.75390625
1771279850.832125,44.921875,51.26953125,24.90234375,35.64453125,31.73828125
1771279850.8360312,28.3203125,20.5078125,21.97265625,3.90625,68.359375
1771279850.8399374,19.53125,13.671875,28.80859375,19.04296875,102.5390625
1771279850.8438437,39.0625,45.41015625,29.296875,41.9921875,87.40234375
1771279850.84775,45.41015625,55.6640625,30.2734375,45.41015625,81.54296875
1771279850.8516562,23.92578125,20.99609375,28.3203125,38.57421875,77.1484375
1771279850.8555624,16.6015625,3.41796875,25.87890625,35.15625,-38.57421875
1771279850.8594687,44.921875,45.8984375,34.66796875,49.31640625,-45.8984375
1771279850.863375,60.546875,63.96484375,37.109375,43.9453125,36.1328125
1771279850.8672812,44.43359375,35.64453125,30.76171875,31.25,67.3828125
1771279850.8711874,21.97265625,15.13671875,26.85546875,22.4609375,82.03125
1771279850.8750937,22.94921875,29.296875,25.87890625,22.94921875,52.734375
1771279850.891125,41.50390625,47.36328125,31.73828125,33.69140625,-0.48828125
1771279850.8950312,40.52734375,41.015625,30.76171875,29.78515625,-25.390625
1771279850.8989375,17.578125,20.99609375,26.85546875,14.6484375,-35.64453125
1771279850.9028437,17.08984375,30.76171875,30.2734375,27.83203125,-35.15625
1771279850.90675,49.31640625,57.12890625,32.2265625,50.78125,0.48828125
1771279850.9106562,57.6171875,36.1328125,29.78515625,42.96875,39.55078125
1771279850.9145625,28.3203125,16.11328125,24.4140625,16.6015625,65.4296875
1771279850.9184687,29.296875,37.59765625,30.2734375,26.3671875,48.33984375
1771279850.922375,51.7578125,51.7578125,35.64453125,38.57421875,10.7421875
1771279850.9262812,54.6875,54.6875,28.80859375,34.1796875,35.64453125
1771279850.9301875,41.015625,43.9453125,26.85546875,36.62109375,24.4140625
1771279850.9340937,22.94921875,28.80859375,26.3671875,31.25,4.39453125
1771279850.936125,34.1796875,36.62109375,24.4140625,34.1796875,24.90234375
1771279850.9400313,40.0390625,44.43359375,29.296875,51.26953125,11.71875
1771279850.9439375,29.296875,37.59765625,34.1796875,48.828125,22.4609375
1771279850.9478438,23.92578125,28.3203125,34.66796875,17.578125,51.7578125
1771279850.95175,22.4609375,26.3671875,36.1328125,14.16015625,17.578125
1771279850.9556563,41.015625,43.9453125,35.15625,27.83203125,29.296875
1771279850.9595625,50.78125,51.7578125,30.76171875,33.203125,67.87109375
1771279850.9634688,31.73828125,30.2734375,28.3203125,18.5546875,17.08984375
1771279850.967375,31.25,21.97265625,30.76171875,24.4140625,13.18359375
1771279850.9712813,37.59765625,36.1328125,30.2734375,39.55078125,22.4609375
1771279850.9751875,33.69140625,52.734375,25.390625,34.1796875,2.44140625
1771279850.9790938,33.203125,41.015625,19.53125,29.78515625,0.48828125
1771279850.980125,42.96875,24.4140625,20.5078125,21.484375,-7.8125
1771279850.9840312,47.36328125,44.921875,29.296875,25.87890625,19.04296875
1771279850.9879375,56.640625,57.12890625,29.78515625,36.1328125,5.859375
1771279850.9918437,37.109375,38.57421875,22.4609375,22.94921875,4.8828125
1771279850.99575,8.7890625,22.4609375,21.97265625,18.5546875,58.59375
1771279850.9996562,38.57421875,30.76171875,22.94921875,38.0859375,13.671875
1771279851.0035625,59.5703125,49.31640625,26.3671875,49.31640625,-17.578125
1771279851.0074687,47.8515625,45.8984375,32.2265625,44.921875,45.41015625
1771279851.011375,32.71484375,15.13671875,21.97265625,23.92578125,42.96875
1771279851.0152812,24.90234375,25.87890625,17.578125,13.671875,20.01953125
1771279851.0191875,40.0390625,67.3828125,27.34375,29.78515625,40.0390625
1771279851.0230937,47.36328125,55.17578125,23.4375,32.2265625,54.6875
1771279851.026125,24.90234375,24.4140625,20.5078125,21.484375,60.546875
1771279851.0300312,16.6015625,27.34375,23.4375,19.53125,-19.04296875
1771279851.0339375,44.921875,56.15234375,24.90234375,32.2265625,2.9296875
1771279851.0378437,51.26953125,51.26953125,30.76171875,37.59765625,50.29296875
1771279851.04175,37.109375,27.83203125,31.25,25.390625,62.01171875
1771279851.0456562,34.1796875,20.5078125,24.90234375,22.4609375,46.875
1771279851.0495625,35.15625,30.76171875,24.4140625,30.76171875,-15.13671875
1771279851.0534687,44.43359375,38.0859375,31.25,35.64453125,-41.50390625
1771279851.057375,36.1328125,30.76171875,34.66796875,33.203125,3.41796875
1771279851.0612812,25.390625,22.94921875,26.3671875,23.4375,52.734375
1771279851.0651875,41.50390625,38.57421875,26.85546875,30.2734375,33.69140625
1771279851.0690937,52.24609375,49.8046875,36.1328125,55.6640625,12.6953125
1771279851.070125,33.203125,31.25,31.73828125,44.921875,2.9296875
1771279851.0740314,12.20703125,34.1796875,27.83203125,20.99609375,89.84375
1771279851.0779376,19.04296875,36.62109375,28.3203125,30.2734375,83.0078125
1771279851.0818439,51.26953125,49.8046875,29.296875,41.015625,-19.53125
1771279851.08575,53.7109375,53.22265625,28.3203125,28.80859375,32.71484375
1771279851.0896564,17.08984375,27.83203125,28.80859375,24.4140625,51.7578125
1771279851.0935626,11.23046875,23.92578125,31.25,33.203125,24.4140625
1771279851.0974689,42.48046875,34.1796875,35.15625,38.57421875,80.56640625
1771279851.101375,46.38671875,48.33984375,36.62109375,42.48046875,86.9140625
1771279851.1052814,35.15625,42.96875,27.83203125,40.0390625,11.23046875
1771279851.1091876,24.90234375,18.5546875,25.390625,34.1796875,51.26953125
1771279851.1130939,28.3203125,29.296875,22.94921875,40.52734375,22.4609375
1771279851.116125,48.33984375,45.8984375,23.92578125,50.78125,12.6953125
1771279851.1200314,39.55078125,39.55078125,26.3671875,38.0859375,14.6484375
1771279851.1239376,20.99609375,14.16015625,27.34375,27.83203125,-46.38671875
1771279851.1278439,28.3203125,18.5546875,33.203125,41.015625,-30.2734375
1771279851.13175,51.7578125,52.734375,34.1796875,53.22265625,27.83203125
1771279851.1356564,54.6875,44.921875,31.25,41.9921875,57.12890625
1771279851.1395626,35.64453125,17.08984375,24.90234375,23.92578125,42.96875
1771279851.1434689,27.83203125,24.90234375,26.3671875,33.69140625,30.76171875
1771279851.147375,40.0390625,64.94140625,31.73828125,44.921875,76.171875
1771279851.1512814,44.43359375,59.08203125,30.76171875,32.2265625,94.23828125
1771279851.1551876,31.25,27.83203125,24.4140625,13.671875,46.875
1771279851.1590939,37.59765625,25.87890625,24.90234375,16.6015625,50.29296875
1771279851.161125,52.734375,49.31640625,27.34375,35.15625,72.75390625
1771279851.1650312,41.015625,54.19921875,27.34375,43.45703125,47.8515625
1771279851.1689374,21.484375,32.71484375,29.296875,32.2265625,-1.953125
1771279851.1728437,14.16015625,31.25,29.296875,18.5546875,-20.01953125
1771279851.17675,17.08984375,45.41015625,31.25,20.5078125,-8.30078125
1771279851.1806562,36.1328125,44.921875,30.76171875,42.48046875,6.34765625
1771279851.1845624,32.71484375,20.5078125,29.78515625,33.203125,56.640625
1771279851.1884687,9.765625,6.8359375,30.2734375,7.8125,25.390625
1771279851.192375,7.8125,37.59765625,30.2734375,25.390625,-36.62109375
1771279851.1962812,40.52734375,56.640625,35.15625,41.9921875,47.8515625
1771279851.2001874,48.828125,51.7578125,34.66796875,40.0390625,76.66015625
1771279851.2040937,18.5546875,35.15625,35.15625,23.4375,83.49609375
1771279851.205125,10.7421875,29.78515625,34.1796875,20.01953125,93.75
1771279851.2090313,29.296875,42.96875,32.2265625,37.59765625,15.13671875
1771279851.2129376,43.45703125,36.62109375,33.203125,32.71484375,-22.94921875
1771279851.2168438,32.71484375,17.578125,26.3671875,30.76171875,5.37109375
1771279851.22075,43.45703125,10.7421875,22.94921875,46.875,14.16015625
1771279851.2246563,55.6640625,34.66796875,25.390625,51.26953125,18.06640625
1771279851.2285626,44.921875,32.71484375,23.92578125,39.0625,42.96875
1771279851.2324688,39.55078125,26.3671875,27.83203125,35.64453125,68.84765625
1771279851.236375,28.3203125,31.73828125,31.73828125,36.1328125,83.49609375
1771279851.2402813,43.45703125,25.390625,26.3671875,42.96875,42.48046875
1771279851.2441876,47.36328125,34.1796875,33.69140625,58.10546875,37.109375
1771279851.2480938,26.85546875,29.296875,36.62109375,37.59765625,-1.953125
1771279851.265125,27.83203125,12.20703125,28.3203125,26.3671875,-61.03515625
1771279851.2690313,44.921875,19.04296875,29.78515625,52.24609375,-20.5078125
1771279851.2729375,60.546875,39.55078125,36.1328125,70.80078125,50.29296875
1771279851.2768438,62.5,41.50390625,40.52734375,73.73046875,24.4140625
1771279851.28075,46.875,21.97265625,33.203125,54.6875,-3.41796875
1771279851.2846563,38.0859375,-1.46484375,27.34375,49.31640625,-20.5078125
1771279851.2885625,54.6875,24.90234375,38.57421875,61.5234375,5.37109375
1771279851.2924688,64.453125,50.29296875,35.15625,65.4296875,89.35546875
1771279851.296375,50.29296875,28.80859375,20.99609375,57.12890625,50.29296875
1771279851.3002813,29.78515625,19.04296875,24.90234375,37.59765625,54.19921875
1771279851.3041875,48.33984375,38.0859375,38.0859375,58.59375,60.546875
1771279851.3080938,60.05859375,59.5703125,36.1328125,54.19921875,37.59765625
1771279851.310125,49.8046875,43.9453125,29.296875,36.1328125,36.62109375
1771279851.3140314,40.52734375,20.01953125,34.1796875,41.9921875,42.48046875
1771279851.3179376,49.8046875,30.2734375,29.78515625,36.1328125,59.08203125
1771279851.3218439,67.3828125,51.26953125,31.25,42.96875,23.92578125
1771279851.32575,63.4765625,38.57421875,33.69140625,41.9921875,60.05859375
1771279851.3296564,36.62109375,12.6953125,24.90234375,26.3671875,64.94140625
1771279851.3335626,38.0859375,22.4609375,27.34375,32.2265625,29.78515625
1771279851.3374689,65.4296875,54.19921875,32.2265625,45.8984375,50.78125
1771279851.341375,59.08203125,38.0859375,31.73828125,44.921875,46.38671875
1771279851.3452814,44.43359375,1.46484375,24.4140625,36.1328125,11.71875
1771279851.3491876,33.203125,22.4609375,28.3203125,37.109375,38.57421875
1771279851.3530939,21.97265625,48.33984375,30.76171875,48.33984375,95.21484375
1771279851.355125,34.66796875,40.52734375,28.80859375,50.29296875,42.96875
1771279851.3590312,46.875,35.64453125,25.87890625,27.34375,53.22265625
1771279851.3629375,26.3671875,29.78515625,28.80859375,19.04296875,77.1484375
1771279851.3668437,25.87890625,38.57421875,32.71484375,27.34375,46.875
1771279851.37075,44.921875,53.7109375,33.203125,44.921875,60.05859375
1771279851.3746562,38.0859375,32.71484375,24.90234375,34.1796875,61.03515625
1771279851.3785625,24.4140625,19.04296875,16.11328125,12.20703125,38.0859375
1771279851.3824687,34.1796875,37.59765625,23.92578125,31.25,31.25
1771279851.386375,40.52734375,34.66796875,31.25,26.3671875,8.30078125
1771279851.3902812,45.8984375,26.85546875,29.78515625,15.625,3.90625
1771279851.3941875,48.33984375,24.4140625,31.73828125,35.15625,-6.8359375
1771279851.3980937,43.9453125,20.01953125,31.25,57.12890625,0.9765625
1771279851.401125,42.48046875,44.921875,32.2265625,46.875,82.03125
1771279851.4050312,52.24609375,52.734375,30.2734375,27.34375,58.10546875
1771279851.4089375,42.48046875,34.1796875,21.97265625,18.06640625,58.10546875
1771279851.4128437,31.25,20.99609375,20.01953125,22.94921875,42.48046875
1771279851.41675,72.265625,41.9921875,17.578125,33.203125,45.41015625
1771279851.4206562,62.98828125,57.6171875,16.11328125,34.66796875,85.44921875
1771279851.4245625,47.36328125,43.9453125,11.71875,30.76171875,80.078125
1771279851.4284687,46.38671875,30.76171875,7.8125,10.7421875,62.98828125
1771279851.432375,62.01171875,31.73828125,11.71875,31.73828125,41.015625
1771279851.4362812,90.8203125,61.5234375,17.08984375,59.08203125,71.77734375
1771279851.4401875,68.359375,51.7578125,21.97265625,46.38671875,13.18359375
1771279851.4440937,41.015625,23.4375,16.6015625,24.90234375,-11.71875
1771279851.446125,48.33984375,30.76171875,21.484375,40.52734375,27.83203125
1771279851.4500313,70.3125,62.01171875,29.78515625,50.78125,73.2421875
1771279851.4539375,62.01171875,55.6640625,21.97265625,41.50390625,76.66015625
1771279851.4578438,52.24609375,20.01953125,19.53125,40.52734375,3.90625
1771279851.46175,64.453125,31.25,20.99609375,41.015625,35.15625
1771279851.4656563,59.5703125,48.33984375,23.92578125,49.31640625,40.52734375
1771279851.4695625,48.33984375,47.36328125,25.87890625,48.33984375,-0.48828125
1771279851.4734688,40.52734375,27.34375,16.6015625,42.48046875,8.7890625
1771279851.477375,45.8984375,27.83203125,16.11328125,35.15625,-22.94921875
1771279851.4812813,66.89453125,61.03515625,27.34375,44.43359375,-31.25
1771279851.4851875,82.03125,57.6171875,27.34375,63.96484375,-15.13671875
1771279851.4890938,62.98828125,33.69140625,20.99609375,62.5,-20.5078125
1771279851.491125,42.48046875,29.78515625,26.85546875,47.8515625,26.3671875
1771279851.4950314,44.921875,47.8515625,30.2734375,52.24609375,50.29296875
1771279851.4989376,52.24609375,52.734375,22.4609375,69.82421875,-20.01953125
1771279851.5028439,48.33984375,42.48046875,25.390625,49.31640625,-23.92578125
1771279851.50675,43.9453125,24.4140625,28.3203125,27.34375,15.13671875
1771279851.5106564,60.05859375,23.4375,25.87890625,50.29296875,4.39453125
1771279851.5145626,73.2421875,44.921875,26.3671875,66.40625,20.5078125
1771279851.5184689,70.80078125,35.64453125,27.83203125,63.96484375,26.3671875
1771279851.522375,48.828125,29.78515625,31.73828125,42.48046875,16.11328125
1771279851.5262814,30.76171875,35.15625,34.1796875,47.36328125,4.8828125
1771279851.5301876,56.15234375,39.55078125,32.2265625,68.359375,-4.8828125
1771279851.5340939,75.68359375,47.8515625,38.57421875,72.75390625,32.2265625
1771279851.535125,31.73828125,40.0390625,38.57421875,39.55078125,60.05859375
1771279851.5390313,8.7890625,32.71484375,25.87890625,14.6484375,28.80859375
1771279851.5429375,51.7578125,41.50390625,27.34375,48.828125,-3.90625
1771279851.5468438,70.80078125,62.5,32.2265625,62.5,36.62109375
1771279851.55075,43.9453125,50.78125,23.92578125,51.26953125,80.56640625
1771279851.5546563,26.3671875,18.5546875,19.53125,39.55078125,3.90625
1771279851.5585625,41.015625,21.484375,20.5078125,30.2734375,-52.734375
1771279851.5624688,55.17578125,51.7578125,27.34375,37.59765625,15.13671875
1771279851.566375,58.10546875,69.82421875,30.2734375,33.203125,58.10546875
1771279851.5702813,40.52734375,40.52734375,26.85546875,25.390625,59.5703125
1771279851.5741875,36.1328125,33.203125,30.76171875,33.203125,50.78125
1771279851.5780938,58.59375,61.5234375,30.2734375,41.9921875,-1.46484375
1771279851.580125,53.7109375,60.05859375,28.80859375,24.4140625,8.30078125
1771279851.5840313,41.50390625,36.1328125,24.4140625,7.32421875,35.64453125
1771279851.5879376,53.7109375,29.296875,22.4609375,24.90234375,4.39453125
1771279851.5918438,60.05859375,54.19921875,25.390625,35.15625,7.8125
1771279851.59575,53.22265625,66.40625,30.76171875,39.55078125,63.4765625
1771279851.5996563,40.0390625,36.1328125,27.83203125,33.203125,5.859375
1771279851.6035626,46.38671875,19.04296875,23.4375,32.2265625,-47.8515625
1771279851.6074688,47.8515625,46.38671875,35.15625,38.0859375,17.578125
1771279851.611375,40.52734375,60.546875,39.0625,43.45703125,63.96484375
1771279851.6152813,34.1796875,37.59765625,35.15625,46.38671875,58.59375
1771279851.6191876,15.13671875,25.390625,33.203125,27.83203125,49.31640625
1771279851.6230938,27.83203125,43.45703125,34.66796875,24.4140625,62.01171875
1771279851.640125,44.43359375,57.6171875,34.66796875,42.48046875,46.875
1771279851.6440313,31.73828125,50.78125,34.1796875,38.0859375,57.12890625
1771279851.6479375,25.390625,29.296875,30.2734375,18.5546875,65.91796875
1771279851.6518438,29.296875,34.66796875,29.296875,23.92578125,49.31640625
1771279851.65575,31.73828125,50.78125,30.2734375,40.52734375,46.38671875
1771279851.6596563,32.2265625,41.50390625,33.69140625,38.57421875,51.7578125
1771279851.6635625,25.390625,35.64453125,35.64453125,20.5078125,37.109375
1771279851.6674688,8.30078125,36.1328125,32.71484375,2.9296875,17.08984375
1771279851.671375,11.71875,47.36328125,30.2734375,20.5078125,20.99609375
1771279851.6752813,29.296875,60.05859375,37.109375,30.2734375,33.203125
1771279851.6791875,16.11328125,53.22265625,40.0390625,-2.44140625,47.8515625
1771279851.6830938,13.18359375,41.50390625,32.71484375,-4.8828125,54.6875
1771279851.685125,-0.9765625,53.22265625,35.64453125,1.46484375,66.40625
1771279851.6890314,-4.8828125,73.73046875,40.52734375,-12.6953125,37.109375
1771279851.6929376,10.7421875,67.3828125,38.57421875,-23.4375,-2.44140625
1771279851.6968439,-15.13671875,52.734375,35.15625,-22.94921875,-7.8125
1771279851.70075,-19.04296875,61.5234375,35.64453125,-12.20703125,13.671875
1771279851.7046564,-3.90625,82.51953125,35.64453125,-8.30078125,54.19921875
1771279851.7085626,-9.765625,85.9375,44.43359375,-4.39453125,57.6171875
1771279851.7124689,-44.43359375,77.63671875,62.01171875,-29.296875,32.2265625
1771279851.716375,-54.6875,69.3359375,66.89453125,-46.38671875,62.98828125
1771279851.7202814,-35.64453125,82.51953125,60.05859375,-37.109375,36.1328125
1771279851.7241876,-45.41015625,113.28125,65.4296875,-46.875,25.87890625
1771279851.7280939,-72.265625,99.12109375,72.265625,-70.80078125,54.19921875
1771279851.730125,-103.02734375,92.28515625,81.0546875,-83.0078125,18.5546875
1771279851.7340312,-99.12109375,121.58203125,91.796875,-83.49609375,59.5703125
1771279851.7379375,-96.6796875,136.23046875,86.42578125,-89.84375,80.078125
1771279851.7418437,-116.69921875,117.1875,86.42578125,-97.65625,16.11328125
1771279851.74575,-135.25390625,104.00390625,90.8203125,-120.60546875,62.5
1771279851.7496562,-141.11328125,119.140625,85.9375,-135.7421875,93.26171875
1771279851.7535625,-136.71875,143.5546875,86.42578125,-127.44140625,24.4140625
1771279851.7574687,-136.23046875,140.625,87.890625,-120.1171875,24.90234375
1771279851.761375,-143.06640625,110.83984375,78.61328125,-105.95703125,-29.78515625
1771279851.7652812,-134.765625,120.60546875,73.2421875,-104.00390625,-0.9765625
1771279851.7691875,-88.8671875,147.4609375,71.77734375,-96.19140625,36.62109375
1771279851.7730937,-59.5703125,140.13671875,67.87109375,-87.40234375,43.9453125
1771279851.775125,-78.61328125,115.72265625,62.5,-96.19140625,27.83203125
1771279851.7790313,-71.77734375,91.30859375,64.94140625,-50.78125,7.32421875
1771279851.7829375,-21.97265625,100.09765625,63.96484375,-5.37109375,50.29296875
1771279851.7868438,3.41796875,99.609375,48.33984375,-5.37109375,28.3203125
1771279851.79075,0.0,67.3828125,38.57421875,-3.90625,36.62109375
1771279851.7946563,17.08984375,50.29296875,40.52734375,29.78515625,31.73828125
1771279851.7985625,52.24609375,65.4296875,41.9921875,71.2890625,-2.44140625
1771279851.8024688,82.51953125,72.265625,33.69140625,94.23828125,14.6484375
1771279851.806375,98.6328125,29.296875,21.97265625,100.5859375,44.43359375
1771279851.8102813,105.46875,13.671875,18.5546875,107.421875,-28.3203125
1771279851.8141875,121.58203125,34.66796875,19.04296875,133.30078125,-1.46484375
1771279851.8180938,143.5546875,28.80859375,17.08984375,161.62109375,69.82421875
1771279851.821125,154.296875,9.765625,14.6484375,167.48046875,2.44140625
1771279851.8250313,130.859375,-0.9765625,12.20703125,147.4609375,40.52734375
1771279851.8289375,145.5078125,-1.953125,10.7421875,158.69140625,68.359375
1771279851.8328438,175.29296875,6.8359375,12.6953125,196.2890625,-2.9296875
1771279851.83675,163.57421875,2.9296875,14.6484375,181.640625,7.8125
1771279851.8406563,151.85546875,-21.97265625,6.8359375,152.34375,26.85546875
1771279851.8445625,150.390625,-23.92578125,1.953125,162.109375,-40.0390625
1771279851.8484688,179.19921875,-16.6015625,5.37109375,176.26953125,-35.64453125
1771279851.852375,187.01171875,-8.30078125,11.71875,186.5234375,19.04296875
1771279851.8562813,172.36328125,3.90625,15.625,180.17578125,15.625
1771279851.8601875,158.203125,-7.8125,11.23046875,164.55078125,25.87890625
1771279851.8640938,155.76171875,-6.34765625,9.27734375,163.57421875,61.5234375
1771279851.865125,164.0625,9.765625,8.7890625,166.9921875,45.8984375
1771279851.8690312,156.25,-0.9765625,10.7421875,163.0859375,29.296875
1771279851.8729374,146.484375,-24.90234375,8.30078125,146.484375,-8.7890625
1771279851.8768437,138.18359375,-11.23046875,9.27734375,147.4609375,-22.94921875
1771279851.88075,155.76171875,24.4140625,19.53125,155.76171875,35.15625
1771279851.8846562,152.83203125,15.13671875,20.01953125,145.01953125,41.015625
1771279851.8885624,127.9296875,-22.94921875,12.6953125,129.8828125,-2.44140625
1771279851.8924687,132.8125,-22.4609375,14.6484375,131.8359375,6.8359375
1771279851.896375,151.85546875,17.08984375,22.4609375,147.4609375,55.6640625
1771279851.9002812,141.6015625,24.90234375,21.97265625,146.97265625,56.15234375
1771279851.9041874,113.28125,-2.9296875,18.5546875,117.1875,59.08203125
1771279851.9080937,114.2578125,-5.859375,15.13671875,107.421875,25.87890625
1771279851.910125,132.32421875,27.34375,20.99609375,120.1171875,15.13671875
1771279851.9140313,115.72265625,38.57421875,23.4375,115.234375,40.52734375
1771279851.9179375,87.890625,17.578125,16.6015625,99.609375,75.68359375
1771279851.9218438,82.03125,0.0,16.11328125,90.8203125,67.87109375
1771279851.92575,91.30859375,13.18359375,20.01953125,97.16796875,-21.484375
1771279851.9296563,107.91015625,25.390625,21.97265625,104.98046875,-22.94921875
1771279851.9335625,104.00390625,3.41796875,22.94921875,96.19140625,44.43359375
1771279851.9374688,87.890625,-12.6953125,27.83203125,87.40234375,41.015625
1771279851.941375,83.0078125,14.16015625,29.78515625,79.58984375,33.203125
1771279851.9452813,82.51953125,31.25,31.25,84.9609375,42.48046875
1771279851.9491875,97.16796875,24.90234375,32.2265625,94.23828125,41.015625
1771279851.9530938,102.05078125,4.8828125,22.94921875,96.19140625,63.96484375
1771279851.956125,85.9375,3.41796875,26.85546875,92.7734375,51.7578125
1771279851.9600313,74.70703125,17.578125,35.15625,82.03125,49.31640625
1771279851.9639375,79.1015625,16.6015625,34.1796875,93.26171875,37.109375
1771279851.9678438,66.40625,5.37109375,38.57421875,89.35546875,42.48046875
1771279851.97175,63.4765625,4.39453125,43.45703125,84.9609375,15.13671875
1771279851.9756563,80.078125,8.7890625,46.38671875,91.30859375,21.97265625
1771279851.9795625,96.19140625,4.8828125,56.15234375,91.30859375,36.1328125
1771279851.9834688,76.66015625,5.859375,59.5703125,93.75,14.6484375
1771279851.987375,52.24609375,-6.8359375,49.8046875,85.44921875,3.41796875
1771279851.9912813,61.03515625,-3.41796875,47.8515625,74.21875,8.7890625
1771279851.9951875,62.01171875,11.71875,58.10546875,86.9140625,44.43359375
1771279851.9990938,52.24609375,11.23046875,57.12890625,87.890625,56.15234375
1771279852.003125,46.875,-4.8828125,47.8515625,74.70703125,58.59375
1771279852.0070312,43.45703125,-6.34765625,41.9921875,78.125,40.52734375
1771279852.0109375,63.96484375,9.27734375,39.0625,86.42578125,29.78515625
1771279852.0148437,70.80078125,11.23046875,38.0859375,79.58984375,5.37109375
1771279852.01875,46.875,-5.859375,40.52734375,58.10546875,15.13671875
1771279852.0226562,46.875,-17.578125,40.52734375,54.6875,35.15625
1771279852.0265625,64.453125,8.7890625,41.50390625,76.171875,45.8984375
1771279852.0304687,77.63671875,36.1328125,47.36328125,84.47265625,21.484375
1771279852.034375,65.91796875,19.53125,40.0390625,69.3359375,-5.37109375
1771279852.0382812,54.19921875,8.7890625,34.66796875,60.05859375,33.203125
1771279852.0421875,73.2421875,24.4140625,31.25,66.40625,57.6171875
1771279852.0460937,86.42578125,38.57421875,30.76171875,72.75390625,41.9921875
1771279852.060125,68.359375,20.5078125,32.71484375,62.98828125,44.43359375
1771279852.0640314,46.38671875,-0.48828125,32.2265625,56.15234375,35.64453125
1771279852.0679376,46.38671875,19.53125,37.109375,55.17578125,52.24609375
1771279852.0718439,74.70703125,39.55078125,41.015625,66.40625,68.84765625
1771279852.07575,70.3125,25.87890625,40.52734375,74.21875,29.78515625
1771279852.0796564,43.45703125,-6.34765625,35.64453125,60.546875,34.1796875
1771279852.0835626,42.96875,10.7421875,34.66796875,56.640625,-17.08984375
1771279852.0874689,63.4765625,46.38671875,40.52734375,62.5,-8.30078125
1771279852.091375,65.91796875,31.73828125,41.50390625,69.3359375,52.24609375
1771279852.0952814,58.10546875,11.71875,39.0625,55.6640625,88.8671875
1771279852.0991876,56.15234375,11.23046875,35.15625,49.31640625,40.0390625
1771279852.1030939,61.03515625,33.69140625,32.71484375,72.75390625,12.20703125
1771279852.105125,75.68359375,41.50390625,34.66796875,80.078125,69.3359375
1771279852.1090312,58.59375,21.484375,31.73828125,54.19921875,55.6640625
1771279852.1129375,32.71484375,14.6484375,31.73828125,51.26953125,6.34765625
1771279852.1168437,47.36328125,32.71484375,35.15625,68.84765625,13.18359375
1771279852.12075,61.5234375,41.50390625,32.71484375,66.89453125,43.45703125
1771279852.1246562,57.6171875,18.5546875,32.71484375,58.10546875,58.59375
1771279852.1285625,58.10546875,-2.9296875,36.62109375,65.4296875,55.17578125
1771279852.1324687,62.98828125,22.94921875,30.2734375,74.70703125,-10.25390625
1771279852.136375,63.4765625,53.22265625,27.83203125,59.08203125,-39.55078125
1771279852.1402812,43.9453125,46.38671875,29.78515625,41.50390625,-36.1328125
1771279852.1441875,17.578125,54.19921875,26.3671875,14.6484375,51.26953125
1771279852.1480937,14.6484375,50.78125,23.4375,5.859375,66.89453125
1771279852.150125,34.1796875,61.03515625,21.484375,11.71875,11.23046875
1771279852.1540313,27.34375,83.984375,20.5078125,-7.32421875,68.359375
1771279852.1579375,12.20703125,64.94140625,19.53125,-13.18359375,10.7421875
1771279852.1618438,13.18359375,48.33984375,16.6015625,-8.7890625,4.8828125
1771279852.16575,17.08984375,74.21875,14.6484375,-6.8359375,69.3359375
1771279852.1696563,27.83203125,81.54296875,17.08984375,0.9765625,50.29296875
1771279852.1735625,38.57421875,62.01171875,11.23046875,5.37109375,5.859375
1771279852.1774688,26.85546875,50.78125,9.765625,-3.41796875,40.52734375
1771279852.181375,31.25,47.36328125,13.671875,3.41796875,37.59765625
1771279852.1852813,47.36328125,71.77734375,20.01953125,21.97265625,5.859375
1771279852.1891875,39.0625,64.94140625,21.484375,17.578125,3.90625
1771279852.1930938,32.2265625,29.78515625,14.16015625,6.8359375,-31.25
1771279852.196125,46.875,37.109375,18.06640625,23.92578125,-4.8828125
1771279852.2000313,51.26953125,72.265625,28.80859375,42.48046875,46.875
1771279852.2039375,34.1796875,65.4296875,27.34375,42.48046875,65.91796875
1771279852.2078438,29.296875,40.52734375,21.484375,35.64453125,11.23046875
1771279852.21175,35.64453125,48.33984375,23.92578125,33.69140625,9.765625
1771279852.2156563,59.08203125,59.5703125,31.25,52.24609375,42.96875
1771279852.2195625,53.22265625,52.734375,33.69140625,50.78125,41.9921875
1771279852.2234688,28.80859375,28.80859375,30.2734375,25.390625,62.5
1771279852.227375,27.83203125,25.390625,30.2734375,21.484375,36.62109375
1771279852.2312813,34.1796875,59.5703125,33.69140625,39.0625,37.109375
1771279852.2351875,45.41015625,61.03515625,33.203125,49.31640625,39.55078125
1771279852.2390938,41.9921875,35.64453125,36.1328125,43.9453125,-7.32421875
1771279852.240125,32.2265625,34.1796875,36.62109375,38.0859375,2.44140625
1771279852.2440312,46.875,48.33984375,32.71484375,35.15625,20.01953125
1771279852.2479374,64.453125,50.29296875,32.2265625,44.921875,58.59375
1771279852.2518437,55.17578125,30.2734375,30.76171875,44.43359375,64.94140625
1771279852.25575,33.69140625,19.04296875,27.83203125,32.2265625,39.55078125
1771279852.2596562,36.62109375,29.78515625,31.73828125,41.9921875,62.01171875
1771279852.2635624,57.6171875,45.41015625,39.0625,51.7578125,68.359375
1771279852.2674687,51.26953125,39.0625,31.73828125,44.43359375,44.43359375
1771279852.271375,23.4375,37.109375,35.64453125,33.203125,25.390625
1771279852.2752812,31.25,45.8984375,42.48046875,38.57421875,42.96875
1771279852.2791874,53.22265625,50.29296875,31.73828125,53.7109375,52.734375
1771279852.2830937,64.94140625,47.8515625,26.3671875,52.24609375,26.3671875
1771279852.286125,49.8046875,39.55078125,27.34375,27.83203125,32.71484375
1771279852.2900312,26.3671875,25.390625,26.85546875,25.87890625,70.3125
1771279852.2939374,51.7578125,32.2265625,29.78515625,50.78125,69.82421875
1771279852.2978437,70.3125,56.640625,36.1328125,54.19921875,59.5703125
1771279852.30175,50.78125,41.015625,29.78515625,36.62109375,22.94921875
1771279852.3056562,36.1328125,14.6484375,26.85546875,27.34375,41.015625
1771279852.3095624,39.0625,16.11328125,36.62109375,41.9921875,63.96484375
1771279852.3134687,38.0859375,37.109375,35.15625,48.828125,56.15234375
1771279852.317375,36.62109375,47.8515625,27.34375,34.1796875,60.05859375
1771279852.3212812,25.87890625,23.4375,27.34375,20.01953125,6.34765625
1771279852.3251874,32.71484375,24.4140625,33.203125,31.73828125,19.53125
1771279852.3290937,57.12890625,54.19921875,38.57421875,58.59375,34.1796875
1771279852.331125,56.640625,58.59375,33.69140625,51.7578125,12.20703125
1771279852.3350313,33.203125,27.34375,30.76171875,41.50390625,6.8359375
1771279852.3389375,20.5078125,20.5078125,32.71484375,39.55078125,12.20703125
1771279852.3428438,39.0625,44.43359375,36.62109375,40.0390625,14.6484375
1771279852.34675,54.6875,53.22265625,37.59765625,42.48046875,15.13671875
1771279852.3506563,41.9921875,29.296875,35.15625,34.66796875,35.15625
1771279852.3545625,23.92578125,7.8125,32.2265625,29.296875,30.2734375
1771279852.3584688,38.57421875,46.38671875,37.109375,42.48046875,27.34375
1771279852.362375,57.6171875,66.40625,36.1328125,48.828125,30.76171875
1771279852.3662813,49.8046875,35.15625,29.296875,35.15625,9.765625
1771279852.3701875,24.90234375,18.5546875,36.62109375,24.4140625,1.953125
1771279852.3740938,22.4609375,26.3671875,42.96875,30.76171875,36.62109375
1771279852.390125,43.9453125,46.875,38.57421875,45.41015625,17.08984375
1771279852.3940313,59.5703125,42.96875,24.90234375,49.31640625,-5.859375
1771279852.3979375,65.91796875,13.18359375,29.296875,62.98828125,-0.48828125
1771279852.4018438,58.59375,21.484375,47.36328125,64.94140625,18.06640625
1771279852.40575,47.8515625,54.6875,49.8046875,63.96484375,62.98828125
1771279852.4096563,22.94921875,39.0625,46.38671875,40.52734375,72.265625
1771279852.4135625,-4.8828125,15.13671875,42.48046875,16.11328125,12.6953125
1771279852.4174688,-20.5078125,16.6015625,49.31640625,12.20703125,-29.296875
1771279852.421375,-17.578125,25.87890625,55.6640625,2.44140625,-16.11328125
1771279852.4252813,-8.30078125,30.2734375,54.6875,11.23046875,39.0625
1771279852.4291875,-13.671875,20.01953125,53.7109375,-2.9296875,62.5
1771279852.4330938,-11.71875,21.484375,52.24609375,-6.34765625,68.84765625
1771279852.436125,-8.30078125,28.80859375,57.12890625,8.7890625,95.703125
1771279852.4400313,5.859375,29.296875,55.6640625,21.484375,33.69140625
1771279852.4439375,13.18359375,17.08984375,51.26953125,29.78515625,1.46484375
1771279852.4478438,-7.8125,-4.8828125,48.828125,22.94921875,-31.73828125
1771279852.45175,-0.48828125,-0.48828125,49.8046875,34.66796875,12.20703125
1771279852.4556563,32.71484375,14.6484375,51.7578125,44.921875,81.0546875
1771279852.4595625,33.69140625,20.01953125,55.17578125,46.875,80.56640625
1771279852.4634688,27.34375,19.04296875,55.17578125,35.15625,98.6328125
1771279852.467375,35.15625,8.7890625,49.31640625,39.0625,61.03515625
1771279852.4712813,33.203125,6.8359375,46.875,57.12890625,69.3359375
1771279852.4751875,22.4609375,24.90234375,45.8984375,48.33984375,48.33984375
1771279852.4790938,6.8359375,17.08984375,40.0390625,36.1328125,17.578125
1771279852.481125,8.7890625,6.34765625,37.109375,34.1796875,37.109375
1771279852.4850314,31.73828125,29.78515625,44.43359375,41.50390625,22.94921875
1771279852.4889376,57.6171875,46.38671875,44.921875,45.8984375,31.25
1771279852.4928439,52.734375,32.71484375,42.96875,49.8046875,22.94921875
1771279852.49675,45.41015625,17.578125,42.48046875,46.38671875,39.0625
1771279852.5006564,53.22265625,24.4140625,40.52734375,40.52734375,34.1796875
1771279852.5045626,59.08203125,43.45703125,42.96875,50.78125,-9.27734375
1771279852.5084689,52.24609375,42.96875,45.8984375,46.38671875,39.55078125
1771279852.512375,25.390625,2.44140625,32.2265625,30.2734375,77.1484375
1771279852.5162814,23.92578125,9.765625,30.2734375,34.1796875,30.2734375
1771279852.5201876,53.22265625,51.26953125,42.48046875,59.5703125,5.37109375
1771279852.5240939,62.5,35.64453125,41.9921875,48.828125,-21.97265625
1771279852.525125,39.55078125,12.6953125,41.9921875,32.2265625,0.0
1771279852.5290313,27.83203125,24.90234375,43.45703125,41.015625,15.13671875
1771279852.5329375,38.0859375,49.31640625,45.41015625,44.43359375,11.71875
1771279852.5368438,40.52734375,41.9921875,43.45703125,42.96875,30.76171875
1771279852.54075,23.4375,17.578125,41.50390625,40.0390625,6.34765625
1771279852.5446563,20.99609375,11.23046875,41.9921875,34.66796875,8.30078125
1771279852.5485625,45.8984375,35.15625,38.57421875,37.109375,35.64453125
1771279852.5524688,56.15234375,43.9453125,39.0625,47.8515625,41.015625
1771279852.556375,36.1328125,20.5078125,37.59765625,40.0390625,-4.39453125
1771279852.5602813,11.23046875,27.83203125,33.203125,17.578125,-8.30078125
1771279852.5641875,20.01953125,39.0625,37.109375,41.50390625,-11.71875
1771279852.5680938,27.83203125,48.828125,45.8984375,62.98828125,42.48046875
1771279852.571125,21.97265625,43.45703125,41.015625,30.2734375,73.2421875
1771279852.5750313,7.8125,17.08984375,38.0859375,10.7421875,16.11328125
1771279852.5789375,0.48828125,22.94921875,42.96875,12.6953125,24.90234375
1771279852.5828438,25.87890625,35.64453125,45.8984375,32.2265625,43.9453125
1771279852.58675,25.87890625,33.69140625,42.96875,36.62109375,59.5703125
1771279852.5906563,7.8125,21.484375,38.57421875,15.625,55.17578125
1771279852.5945625,9.765625,31.25,38.0859375,13.18359375,16.6015625
1771279852.5984688,24.90234375,40.52734375,33.203125,26.3671875,23.4375
1771279852.602375,31.73828125,37.59765625,35.64453125,27.34375,2.9296875
1771279852.6062813,17.08984375,45.41015625,40.0390625,8.7890625,-17.578125
1771279852.6101875,16.6015625,16.11328125,44.43359375,13.671875,30.2734375
1771279852.6140938,43.45703125,14.6484375,45.8984375,50.78125,22.94921875
1771279852.615125,37.59765625,62.98828125,41.50390625,44.921875,42.48046875
1771279852.6190312,-17.578125,68.84765625,41.50390625,-8.7890625,76.66015625
1771279852.6229374,-59.5703125,36.62109375,48.33984375,-47.8515625,51.26953125
1771279852.6268437,-57.12890625,44.921875,47.36328125,-71.77734375,66.40625
1771279852.63075,-72.265625,86.42578125,46.38671875,-92.28515625,23.4375
1771279852.6346562,-126.953125,84.9609375,52.24609375,-124.0234375,-19.53125
1771279852.6385624,-158.203125,64.453125,51.26953125,-151.85546875,12.20703125
1771279852.6424687,-164.0625,70.80078125,61.03515625,-163.57421875,61.5234375
1771279852.646375,-175.78125,112.79296875,74.21875,-187.01171875,60.546875
1771279852.6502812,-188.4765625,138.18359375,75.1953125,-212.40234375,39.0625
1771279852.6541874,-224.609375,116.69921875,65.4296875,-247.0703125,72.265625
1771279852.6580937,-231.93359375,112.3046875,55.6640625,-255.859375,74.21875
1771279852.660125,-214.84375,149.90234375,62.01171875,-250.0,25.390625
1771279852.6640313,-235.83984375,172.8515625,68.84765625,-278.80859375,22.4609375
1771279852.6679375,-254.8828125,162.59765625,63.4765625,-305.17578125,39.0625
1771279852.6718438,-272.4609375,162.109375,66.40625,-309.08203125,11.71875
1771279852.67575,-271.484375,184.5703125,68.359375,-299.8046875,7.8125
1771279852.6796563,-254.8828125,184.5703125,66.40625,-294.43359375,51.26953125
1771279852.6835625,-251.46484375,130.859375,53.22265625,-285.15625,46.875
1771279852.6874688,-250.48828125,129.8828125,47.8515625,-288.57421875,39.0625
1771279852.691375,-224.609375,171.38671875,55.6640625,-282.2265625,33.203125
1771279852.6952813,-190.4296875,181.15234375,53.22265625,-234.375,44.43359375
1771279852.6991875,-198.73046875,173.33984375,41.9921875,-228.515625,94.7265625
1771279852.7030938,-187.5,138.18359375,34.1796875,-208.49609375,40.0390625
1771279852.706125,-151.85546875,126.46484375,29.296875,-183.10546875,-7.8125
1771279852.7100313,-120.60546875,142.08984375,13.671875,-163.0859375,59.08203125
1771279852.7139375,-94.7265625,122.55859375,9.27734375,-117.1875,90.33203125
1771279852.7178438,-95.703125,88.37890625,11.23046875,-112.3046875,52.734375
1771279852.72175,-81.0546875,73.2421875,6.34765625,-98.14453125,41.015625
1771279852.7256563,-35.64453125,65.4296875,8.7890625,-54.6875,38.0859375
1771279852.7295625,0.0,61.03515625,8.30078125,-26.3671875,76.66015625
1771279852.7334688,5.859375,57.12890625,4.8828125,-15.13671875,42.96875
1771279852.737375,0.0,33.203125,4.8828125,-8.7890625,10.25390625
1771279852.7412813,18.5546875,22.4609375,1.46484375,18.06640625,39.55078125
1771279852.7451875,45.8984375,36.1328125,-2.44140625,48.33984375,18.06640625
1771279852.7490938,60.05859375,24.90234375,-5.37109375,51.7578125,-5.37109375
1771279852.765125,52.24609375,-5.37109375,-11.71875,45.8984375,-38.0859375
1771279852.7690313,61.5234375,-1.953125,-5.859375,58.59375,-21.97265625
1771279852.7729375,86.42578125,21.484375,4.39453125,76.171875,-1.46484375
1771279852.7768438,94.7265625,21.97265625,3.90625,75.1953125,66.89453125
1771279852.78075,88.37890625,-6.34765625,3.41796875,70.80078125,101.5625
1771279852.7846563,79.1015625,-26.85546875,10.25390625,77.1484375,29.78515625
1771279852.7885625,82.51953125,-9.27734375,8.7890625,87.890625,4.39453125
1771279852.7924688,89.35546875,14.16015625,8.30078125,86.9140625,9.27734375
1771279852.796375,77.1484375,-6.34765625,11.23046875,89.35546875,33.203125
1771279852.8002813,75.1953125,-18.06640625,4.8828125,87.40234375,58.59375
1771279852.8041875,90.8203125,-6.34765625,6.34765625,83.984375,20.99609375
1771279852.8080938,95.703125,5.859375,16.11328125,103.515625,11.23046875
1771279852.810125,85.44921875,-1.953125,12.20703125,92.28515625,22.94921875
1771279852.8140314,74.21875,-20.99609375,10.7421875,73.2421875,15.13671875
1771279852.8179376,82.51953125,-4.8828125,18.06640625,82.51953125,35.64453125
1771279852.8218439,103.515625,14.6484375,19.04296875,96.6796875,33.69140625
1771279852.82575,113.76953125,3.41796875,17.08984375,97.16796875,40.52734375
1771279852.8296564,100.09765625,-20.01953125,17.08984375,82.03125,37.109375
1771279852.8335626,98.14453125,-5.859375,20.99609375,92.28515625,37.109375
1771279852.8374689,115.234375,34.1796875,22.94921875,108.88671875,19.04296875
1771279852.841375,111.328125,16.6015625,20.99609375,96.6796875,9.27734375
1771279852.8452814,89.84375,-24.4140625,21.484375,83.984375,-2.44140625
1771279852.8491876,77.1484375,-5.37109375,19.53125,88.8671875,5.859375
1771279852.8530939,99.12109375,25.390625,19.04296875,105.95703125,57.12890625
1771279852.856125,127.44140625,24.90234375,23.92578125,108.88671875,44.43359375
1771279852.8600314,91.30859375,4.8828125,23.4375,91.30859375,42.48046875
1771279852.8639376,58.10546875,-1.953125,19.04296875,84.9609375,28.80859375
1771279852.8678439,84.9609375,11.71875,22.94921875,96.6796875,61.5234375
1771279852.87175,105.46875,17.578125,25.390625,105.46875,66.40625
1771279852.8756564,84.9609375,4.39453125,23.4375,96.19140625,16.6015625
1771279852.8795626,69.82421875,1.953125,30.2734375,82.51953125,8.7890625
1771279852.8834689,81.54296875,20.99609375,36.1328125,86.42578125,29.78515625
1771279852.887375,92.7734375,21.97265625,30.2734375,94.23828125,33.69140625
1771279852.8912814,89.84375,17.578125,30.2734375,97.16796875,6.8359375
1771279852.8951876,78.61328125,13.671875,30.2734375,82.51953125,15.625
1771279852.8990939,71.77734375,4.8828125,28.80859375,68.359375,17.08984375
1771279852.900125,82.03125,17.578125,27.83203125,76.66015625,6.34765625
1771279852.9040313,81.54296875,29.296875,28.3203125,78.61328125,-10.25390625
1771279852.9079375,59.08203125,14.16015625,29.296875,76.66015625,27.83203125
1771279852.9118438,71.2890625,-3.90625,29.296875,84.9609375,61.03515625
1771279852.91575,85.9375,9.765625,29.78515625,80.078125,43.45703125
1771279852.9196563,78.125,35.64453125,26.85546875,69.3359375,21.97265625
1771279852.9235625,67.3828125,24.4140625,22.4609375,68.359375,-16.11328125
1771279852.9274688,54.19921875,4.39453125,20.5078125,65.91796875,-1.46484375
1771279852.931375,67.87109375,12.6953125,26.85546875,65.4296875,17.08984375
1771279852.9352813,89.84375,44.921875,31.25,72.75390625,23.4375
1771279852.9391875,83.49609375,34.66796875,23.4375,72.75390625,31.25
1771279852.9430938,61.5234375,2.9296875,16.11328125,63.96484375,20.5078125
1771279852.945125,70.80078125,18.5546875,21.97265625,72.265625,56.640625
1771279852.9490314,83.49609375,46.875,33.69140625,83.0078125,82.51953125
1771279852.9529376,72.75390625,36.1328125,32.2265625,75.68359375,77.1484375
1771279852.9568439,49.31640625,16.11328125,25.390625,55.17578125,38.57421875
1771279852.96075,39.55078125,12.6953125,24.4140625,44.921875,25.390625
1771279852.9646564,57.12890625,21.484375,28.80859375,62.5,33.203125
1771279852.9685626,72.75390625,31.73828125,26.85546875,69.3359375,30.2734375
1771279852.9724689,59.08203125,5.37109375,24.4140625,56.15234375,16.11328125
1771279852.976375,47.36328125,3.90625,32.2265625,52.734375,43.9453125
1771279852.9802814,61.5234375,44.921875,34.66796875,62.5,76.66015625
1771279852.9841876,73.73046875,50.29296875,35.64453125,74.70703125,54.6875
1771279852.9880939,58.10546875,32.71484375,35.64453125,63.4765625,81.0546875
1771279852.990125,40.0390625,15.13671875,26.3671875,43.45703125,65.91796875
1771279852.9940312,40.0390625,23.92578125,29.296875,43.45703125,58.59375
1771279852.9979374,51.7578125,32.71484375,35.15625,56.15234375,62.01171875
1771279853.0018437,58.10546875,27.34375,35.15625,56.15234375,38.57421875
1771279853.00575,49.8046875,24.4140625,34.1796875,39.55078125,32.71484375
1771279853.0096562,47.36328125,20.5078125,30.76171875,41.50390625,36.1328125
1771279853.0135624,57.6171875,23.4375,32.71484375,55.17578125,15.625
1771279853.0174687,54.19921875,23.4375,34.1796875,51.26953125,49.8046875
1771279853.021375,33.203125,20.5078125,32.2265625,54.19921875,36.1328125
1771279853.0252812,42.96875,31.73828125,32.71484375,50.78125,-17.08984375
1771279853.0291874,59.5703125,39.0625,30.2734375,45.41015625,-11.23046875
1771279853.0330937,49.31640625,39.55078125,29.296875,49.8046875,-11.71875
1771279853.035125,43.9453125,36.1328125,35.64453125,45.41015625,22.4609375
1771279853.0390313,45.8984375,20.01953125,37.109375,53.7109375,13.671875
1771279853.0429375,55.6640625,22.4609375,28.80859375,65.91796875,-8.7890625
1771279853.0468438,65.91796875,38.0859375,28.80859375,76.171875,24.90234375
1771279853.05075,48.33984375,36.62109375,37.59765625,51.7578125,29.78515625
1771279853.0546563,27.34375,19.04296875,33.203125,32.71484375,23.92578125
1771279853.0585625,45.41015625,26.3671875,28.3203125,49.31640625,20.01953125
1771279853.0624688,61.03515625,51.26953125,36.1328125,58.59375,20.01953125
1771279853.066375,52.734375,44.43359375,32.2265625,57.6171875,9.765625
1771279853.0702813,39.55078125,21.97265625,24.90234375,43.9453125,68.359375
1771279853.0741875,53.7109375,10.7421875,24.4140625,40.0390625,58.59375
1771279853.0780938,68.84765625,35.64453125,29.296875,54.19921875,7.32421875
1771279853.080125,70.3125,49.8046875,33.69140625,62.01171875,32.71484375
1771279853.0840313,53.22265625,28.3203125,25.87890625,41.015625,39.55078125
1771279853.0879376,45.8984375,29.78515625,23.4375,33.69140625,67.87109375
1771279853.0918438,66.40625,47.36328125,29.296875,53.22265625,87.40234375
1771279853.09575,63.4765625,58.10546875,32.2265625,55.6640625,70.80078125
1771279853.0996563,43.9453125,29.78515625,26.3671875,44.43359375,64.94140625
1771279853.1035626,47.36328125,3.41796875,24.90234375,40.0390625,54.6875
1771279853.1074688,57.6171875,35.15625,30.2734375,43.45703125,33.203125
1771279853.111375,65.4296875,56.15234375,31.25,59.5703125,26.85546875
1771279853.1152813,57.12890625,41.50390625,31.73828125,56.640625,33.69140625
1771279853.1191876,41.50390625,20.99609375,30.76171875,40.52734375,40.52734375
1771279853.1230938,41.9921875,23.4375,33.203125,42.96875,32.71484375
1771279853.125125,60.05859375,44.921875,30.2734375,50.78125,24.4140625
1771279853.1290312,55.17578125,37.109375,28.80859375,48.828125,41.9921875
1771279853.1329374,22.94921875,21.97265625,34.1796875,31.25,86.42578125
1771279853.1368437,20.01953125,30.76171875,30.2734375,33.69140625,85.9375
1771279853.14075,47.36328125,45.41015625,26.85546875,61.5234375,62.5
1771279853.1446562,50.29296875,29.78515625,23.92578125,58.59375,6.34765625
1771279853.1485624,38.0859375,14.6484375,27.83203125,33.69140625,-7.32421875
1771279853.1524687,37.109375,30.2734375,36.1328125,36.1328125,29.78515625
1771279853.156375,51.7578125,46.875,36.1328125,44.921875,31.73828125
1771279853.1602812,62.5,50.29296875,33.203125,46.875,63.96484375
1771279853.1641874,44.921875,31.73828125,33.69140625,39.55078125,67.3828125
1771279853.1680937,30.76171875,24.90234375,36.62109375,35.15625,20.5078125
1771279853.185125,43.45703125,39.55078125,35.64453125,45.41015625,-26.85546875
1771279853.1890314,52.24609375,46.38671875,32.2265625,48.828125,11.71875
1771279853.1929376,44.43359375,40.0390625,32.2265625,37.109375,55.17578125
1771279853.1968439,32.71484375,29.78515625,30.2734375,30.76171875,23.4375
1771279853.20075,43.9453125,33.203125,32.71484375,36.62109375,54.6875
1771279853.2046564,74.70703125,26.85546875,33.203125,42.96875,69.3359375
1771279853.2085626,65.4296875,40.0390625,29.78515625,34.1796875,49.8046875
1771279853.2124689,24.4140625,45.41015625,33.69140625,23.4375,37.109375
1771279853.216375,21.484375,23.92578125,33.69140625,25.390625,-6.34765625
1771279853.2202814,42.96875,35.64453125,30.76171875,43.45703125,-20.01953125
1771279853.2241876,33.203125,49.8046875,34.66796875,48.828125,9.765625
1771279853.2280939,10.25390625,29.78515625,30.2734375,32.71484375,12.20703125
1771279853.230125,16.11328125,15.13671875,20.99609375,28.80859375,-45.41015625
1771279853.2340312,32.2265625,33.69140625,24.4140625,34.66796875,-40.52734375
1771279853.2379375,40.52734375,48.33984375,30.2734375,43.9453125,-27.83203125
1771279853.2418437,34.1796875,40.52734375,36.62109375,42.48046875,22.4609375
1771279853.24575,23.4375,34.1796875,41.9921875,38.0859375,93.75
1771279853.2496562,25.87890625,33.203125,38.57421875,32.2265625,81.0546875
1771279853.2535625,39.55078125,36.62109375,31.73828125,36.62109375,26.3671875
1771279853.2574687,46.875,37.109375,31.25,35.64453125,41.9921875
1771279853.261375,32.2265625,12.20703125,30.76171875,25.87890625,50.29296875
1771279853.2652812,30.76171875,14.6484375,33.69140625,30.76171875,46.38671875
1771279853.2691875,49.8046875,56.640625,37.59765625,38.0859375,32.71484375
1771279853.2730937,48.33984375,57.12890625,37.109375,41.015625,0.48828125
1771279853.275125,31.73828125,36.1328125,40.0390625,32.2265625,15.13671875
1771279853.2790313,28.3203125,34.1796875,40.52734375,25.87890625,5.859375
1771279853.2829375,38.57421875,48.828125,36.1328125,34.66796875,21.484375
1771279853.2868438,44.921875,48.33984375,36.1328125,38.57421875,18.06640625
1771279853.29075,33.203125,29.296875,32.2265625,26.85546875,-29.296875
1771279853.2946563,24.4140625,20.5078125,30.76171875,24.4140625,6.34765625
1771279853.2985625,28.3203125,38.57421875,36.62109375,37.59765625,51.26953125
1771279853.3024688,41.50390625,56.640625,39.0625,45.41015625,51.26953125
1771279853.306375,37.109375,34.66796875,37.59765625,40.52734375,42.96875
1771279853.3102813,18.5546875,25.87890625,38.57421875,30.2734375,25.390625
1771279853.3141875,30.2734375,41.9921875,45.8984375,32.71484375,-9.27734375
1771279853.3180938,49.8046875,51.7578125,42.96875,44.921875,35.64453125
1771279853.320125,42.96875,43.45703125,30.76171875,51.26953125,64.94140625
1771279853.3240314,28.3203125,23.92578125,29.296875,32.71484375,-19.04296875
1771279853.3279376,23.4375,24.90234375,34.66796875,26.3671875,-27.34375
1771279853.3318439,34.1796875,53.22265625,43.45703125,50.29296875,3.41796875
1771279853.33575,36.62109375,56.640625,43.9453125,51.26953125,5.859375
1771279853.3396564,19.53125,20.01953125,37.109375,32.71484375,14.16015625
1771279853.3435626,15.625,18.06640625,34.1796875,28.3203125,56.15234375
1771279853.3474689,30.2734375,28.3203125,34.66796875,35.64453125,79.58984375
1771279853.351375,46.38671875,37.59765625,37.109375,36.1328125,28.80859375
1771279853.3552814,43.9453125,46.38671875,41.015625,37.109375,26.3671875
1771279853.3591876,39.55078125,24.90234375,41.015625,38.57421875,16.6015625
1771279853.3630939,45.41015625,34.1796875,36.62109375,24.90234375,-36.62109375
1771279853.365125,51.7578125,63.4765625,38.0859375,38.57421875,26.3671875
1771279853.3690312,42.96875,56.15234375,37.109375,38.0859375,60.05859375
1771279853.3729374,30.2734375,26.3671875,32.71484375,18.06640625,26.3671875
1771279853.3768437,38.0859375,28.80859375,32.71484375,22.4609375,64.453125
1771279853.38075,45.8984375,50.78125,33.203125,29.78515625,72.265625
1771279853.3846562,39.0625,42.96875,26.85546875,25.87890625,46.38671875
1771279853.3885624,37.59765625,22.94921875,22.94921875,13.671875,49.31640625
1771279853.3924687,30.76171875,26.3671875,34.1796875,20.99609375,28.3203125
1771279853.396375,34.1796875,67.3828125,41.50390625,38.57421875,18.06640625
1771279853.4002812,39.55078125,69.3359375,34.66796875,36.62109375,-4.39453125
1771279853.4041874,22.94921875,31.73828125,31.25,23.4375,7.8125
1771279853.4080937,14.16015625,25.87890625,34.66796875,18.5546875,85.44921875
1771279853.411125,41.50390625,38.0859375,31.73828125,37.109375,21.97265625
1771279853.4150312,69.82421875,44.43359375,24.90234375,50.29296875,-13.671875
1771279853.4189374,37.59765625,37.109375,30.76171875,30.76171875,35.64453125
1771279853.4228437,1.46484375,30.2734375,39.0625,15.13671875,33.69140625
1771279853.42675,15.625,35.64453125,42.96875,32.2265625,56.640625
1771279853.4306562,43.45703125,38.57421875,45.8984375,56.15234375,56.15234375
1771279853.4345624,48.33984375,20.01953125,41.015625,51.7578125,20.5078125
1771279853.4384687,31.25,9.27734375,36.1328125,41.50390625,16.11328125
1771279853.442375,38.57421875,35.64453125,38.57421875,54.6875,10.7421875
1771279853.4462812,70.3125,49.31640625,40.52734375,74.21875,0.0
1771279853.4501874,80.078125,40.0390625,37.59765625,73.73046875,38.57421875
1771279853.4540937,63.96484375,18.5546875,35.15625,66.40625,2.9296875
1771279853.455125,62.01171875,19.04296875,41.9921875,76.171875,17.578125
1771279853.4590313,83.984375,29.296875,44.43359375,103.515625,55.17578125
1771279853.4629376,101.07421875,22.4609375,41.50390625,114.74609375,44.921875
1771279853.4668438,97.16796875,7.32421875,47.36328125,107.421875,58.10546875
1771279853.47075,89.35546875,-2.44140625,49.31640625,112.79296875,3.41796875
1771279853.4746563,112.3046875,3.90625,46.875,125.48828125,-5.859375
1771279853.4785626,127.9296875,10.7421875,49.31640625,141.11328125,46.875
1771279853.4824688,117.67578125,18.5546875,45.41015625,137.20703125,104.00390625
1771279853.486375,106.93359375,10.7421875,45.41015625,123.046875,77.63671875
1771279853.4902813,126.953125,13.18359375,48.33984375,140.13671875,8.30078125
1771279853.4941876,151.3671875,32.71484375,44.43359375,153.80859375,17.08984375
1771279853.4980938,125.48828125,22.94921875,42.48046875,147.94921875,11.23046875
1771279853.515125,107.421875,14.6484375,48.828125,142.08984375,26.3671875
