timestamps,TP9,AF7,AF8,TP10,Right AUX
1771706553.167125,32.2265625,52.734375,41.015625,39.55078125,23.92578125
1771706553.1710312,30.76171875,39.55078125,35.64453125,74.21875,28.3203125
1771706553.1749375,28.3203125,34.1796875,46.38671875,59.5703125,7.8125
1771706553.1788437,21.484375,37.109375,42.48046875,13.671875,25.87890625
1771706553.18275,37.59765625,39.0625,33.69140625,20.01953125,38.0859375
1771706553.1866562,48.33984375,34.66796875,39.0625,71.2890625,20.01953125
1771706553.1905625,22.94921875,39.0625,45.41015625,72.75390625,29.296875
1771706553.1944687,4.8828125,40.0390625,41.50390625,15.625,44.43359375
1771706553.198375,7.8125,27.83203125,40.52734375,-7.32421875,33.69140625
1771706553.2022812,18.06640625,28.80859375,43.45703125,45.8984375,49.8046875
1771706553.2061875,30.76171875,37.59765625,48.33984375,79.1015625,18.06640625
1771706553.2100937,16.6015625,31.73828125,51.7578125,24.90234375,-0.48828125
1771706553.213125,15.13671875,38.0859375,48.33984375,-2.44140625,10.7421875
1771706553.2170312,31.25,41.9921875,46.875,39.0625,17.08984375
1771706553.2209375,26.3671875,32.2265625,41.50390625,66.40625,18.5546875
1771706553.2248437,24.4140625,39.0625,41.50390625,38.57421875,44.43359375
1771706553.22875,24.90234375,39.55078125,47.36328125,4.8828125,10.25390625
1771706553.2326562,29.296875,39.55078125,41.50390625,26.3671875,9.27734375
1771706553.2365625,35.15625,37.109375,32.71484375,67.3828125,26.3671875
1771706553.2404687,36.1328125,35.64453125,31.73828125,57.6171875,35.64453125
1771706553.244375,39.55078125,34.1796875,40.52734375,15.625,19.04296875
1771706553.2482812,35.64453125,34.1796875,39.55078125,17.08984375,27.34375
1771706553.2521875,41.9921875,43.9453125,35.15625,69.82421875,100.5859375
1771706553.2560937,51.26953125,58.59375,38.0859375,86.9140625,53.22265625
1771706553.258125,43.45703125,54.6875,38.0859375,40.52734375,33.203125
1771706553.2620313,38.57421875,40.52734375,42.96875,23.4375,68.84765625
1771706553.2659376,38.57421875,40.0390625,43.9453125,61.03515625,44.43359375
1771706553.2698438,32.71484375,37.109375,38.0859375,86.9140625,13.671875
1771706553.27375,39.0625,39.55078125,46.38671875,58.10546875,68.84765625
1771706553.2776563,33.203125,39.0625,41.9921875,20.01953125,93.26171875
1771706553.2815626,33.203125,36.62109375,36.62109375,43.9453125,81.54296875
1771706553.2854688,42.48046875,39.55078125,41.50390625,76.66015625,86.9140625
1771706553.289375,28.3203125,37.59765625,36.1328125,51.7578125,28.80859375
1771706553.2932813,19.04296875,33.69140625,32.71484375,11.23046875,63.4765625
1771706553.2971876,35.64453125,53.22265625,44.43359375,30.2734375,112.79296875
1771706553.3010938,41.015625,55.17578125,40.0390625,70.3125,22.4609375
1771706553.318125,27.34375,42.96875,34.1796875,63.4765625,12.6953125
1771706553.3220313,32.2265625,48.33984375,35.64453125,20.5078125,37.109375
1771706553.3259375,44.921875,51.26953125,35.15625,16.6015625,-11.23046875
1771706553.3298438,38.57421875,43.45703125,36.1328125,60.05859375,18.5546875
1771706553.33375,29.78515625,38.57421875,28.80859375,72.265625,52.24609375
1771706553.3376563,34.66796875,44.43359375,30.2734375,35.64453125,47.8515625
1771706553.3415625,34.66796875,43.45703125,32.71484375,11.23046875,52.24609375
1771706553.3454688,33.203125,41.015625,31.73828125,47.8515625,22.4609375
1771706553.349375,34.1796875,46.875,36.1328125,87.40234375,14.6484375
1771706553.3532813,34.1796875,49.8046875,46.38671875,58.10546875,7.8125
1771706553.3571875,32.71484375,43.9453125,40.0390625,21.97265625,15.625
1771706553.3610938,29.296875,26.3671875,33.203125,39.55078125,35.15625
1771706553.378125,27.34375,29.296875,40.0390625,78.61328125,10.7421875
1771706553.3820312,27.34375,39.0625,45.41015625,65.4296875,49.8046875
1771706553.3859375,27.83203125,42.96875,47.36328125,29.296875,86.42578125
1771706553.3898437,24.4140625,45.41015625,40.0390625,37.59765625,38.0859375
1771706553.39375,17.578125,40.52734375,38.57421875,74.21875,10.7421875
1771706553.3976562,19.53125,38.57421875,38.0859375,70.3125,2.44140625
1771706553.4015625,12.6953125,38.0859375,38.0859375,17.08984375,12.20703125
1771706553.4054687,19.04296875,44.43359375,43.45703125,6.8359375,45.8984375
1771706553.409375,27.34375,44.921875,46.38671875,47.8515625,60.546875
1771706553.4132812,24.90234375,51.26953125,46.38671875,67.3828125,67.3828125
1771706553.4171875,17.08984375,53.22265625,41.9921875,22.4609375,65.4296875
1771706553.4210937,4.39453125,36.62109375,34.1796875,-15.13671875,42.48046875
1771706553.424125,7.8125,35.64453125,31.73828125,22.94921875,2.44140625
1771706553.4280312,20.99609375,41.015625,36.1328125,62.01171875,-7.8125
1771706553.4319375,21.97265625,41.50390625,41.50390625,32.2265625,19.53125
1771706553.4358437,17.578125,40.0390625,42.96875,-8.7890625,21.97265625
1771706553.43975,18.5546875,39.0625,44.43359375,16.11328125,-0.9765625
1771706553.4436562,20.01953125,44.921875,42.96875,60.05859375,13.18359375
1771706553.4475625,23.92578125,54.19921875,43.45703125,46.875,49.31640625
1771706553.4514687,9.765625,41.015625,39.0625,-7.8125,73.2421875
1771706553.455375,8.7890625,37.109375,41.50390625,-4.8828125,62.98828125
1771706553.4592812,11.71875,31.73828125,43.9453125,42.96875,40.0390625
1771706553.4631875,7.32421875,27.34375,37.59765625,48.33984375,70.80078125
1771706553.4670937,7.8125,41.015625,34.66796875,8.7890625,70.80078125
1771706553.498125,19.04296875,46.38671875,37.109375,-7.32421875,71.77734375
1771706553.5020313,30.76171875,48.828125,37.59765625,30.2734375,73.2421875
1771706553.5059376,30.2734375,49.8046875,39.0625,56.15234375,33.69140625
1771706553.5098438,21.97265625,38.57421875,39.0625,18.5546875,46.38671875
1771706553.51375,20.01953125,40.0390625,34.1796875,-10.7421875,33.69140625
1771706553.5176563,31.25,51.26953125,34.66796875,24.4140625,48.828125
1771706553.5215626,25.390625,39.0625,32.2265625,52.734375,39.55078125
1771706553.5254688,17.08984375,41.9921875,35.15625,29.78515625,3.41796875
1771706553.529375,19.53125,48.828125,42.48046875,-4.39453125,-14.6484375
1771706553.5332813,20.01953125,44.43359375,37.109375,6.8359375,10.25390625
1771706553.5371876,22.94921875,41.015625,33.69140625,47.36328125,22.94921875
1771706553.5410938,21.97265625,35.15625,30.76171875,39.55078125,14.6484375
1771706553.543125,13.18359375,28.3203125,31.73828125,-8.30078125,42.48046875
1771706553.5470312,13.18359375,31.73828125,35.15625,-11.71875,12.6953125
1771706553.5509374,21.484375,38.0859375,36.62109375,33.69140625,14.6484375
1771706553.5548437,20.5078125,43.45703125,41.50390625,51.7578125,32.2265625
1771706553.55875,16.6015625,47.36328125,36.62109375,8.7890625,9.27734375
1771706553.5626562,22.94921875,53.7109375,38.0859375,-12.6953125,12.6953125
1771706553.5665624,26.85546875,47.36328125,38.0859375,27.34375,-25.390625
1771706553.5704687,21.484375,33.203125,24.90234375,51.7578125,40.52734375
1771706553.574375,20.99609375,36.62109375,24.4140625,15.625,63.96484375
1771706553.5782812,18.06640625,30.76171875,24.4140625,-24.4140625,11.71875
1771706553.5821874,28.3203125,39.0625,38.57421875,10.7421875,36.1328125
1771706553.5860937,28.3203125,46.38671875,50.78125,48.33984375,39.55078125
1771706553.588125,18.5546875,36.1328125,37.59765625,12.20703125,-2.44140625
1771706553.5920312,14.6484375,31.25,34.66796875,-26.85546875,45.41015625
1771706553.5959375,7.32421875,28.80859375,35.15625,-15.13671875,48.828125
1771706553.5998437,19.04296875,43.45703125,34.66796875,31.73828125,-11.71875
1771706553.60375,25.390625,43.9453125,42.96875,33.69140625,1.46484375
1771706553.6076562,11.23046875,29.296875,36.62109375,-19.04296875,51.26953125
1771706553.6115625,14.6484375,38.0859375,34.1796875,-21.97265625,81.0546875
1771706553.6154687,25.390625,41.50390625,40.52734375,24.90234375,21.484375
1771706553.619375,21.484375,38.0859375,36.1328125,37.109375,-14.6484375
1771706553.6232812,10.7421875,37.109375,36.1328125,-10.25390625,59.08203125
1771706553.6271875,5.37109375,31.73828125,36.62109375,-41.015625,32.2265625
1771706553.6310937,12.6953125,30.76171875,34.66796875,0.48828125,14.6484375
1771706553.648125,15.625,31.73828125,34.66796875,29.78515625,60.546875
1771706553.6520312,10.25390625,31.25,40.52734375,-3.90625,42.48046875
1771706553.6559374,19.53125,48.828125,41.015625,-33.69140625,11.23046875
1771706553.6598437,28.80859375,52.24609375,32.71484375,-13.18359375,7.32421875
1771706553.66375,21.484375,30.2734375,32.71484375,23.4375,4.39453125
1771706553.6676562,16.11328125,24.90234375,36.62109375,11.71875,-25.390625
1771706553.6715624,9.27734375,25.87890625,27.34375,-32.71484375,59.08203125
1771706553.6754687,15.13671875,29.78515625,32.71484375,-30.2734375,65.91796875
1771706553.679375,22.94921875,38.57421875,42.48046875,15.625,-7.8125
1771706553.6832812,25.390625,42.96875,37.109375,22.4609375,24.90234375
1771706553.6871874,20.99609375,40.52734375,31.73828125,-22.94921875,4.39453125
1771706553.6910937,21.484375,41.9921875,26.3671875,-39.55078125,-35.15625
1771706553.694125,24.90234375,37.59765625,27.83203125,1.953125,2.44140625
1771706553.6980312,23.92578125,33.69140625,32.71484375,28.3203125,6.34765625
1771706553.7019374,24.4140625,43.9453125,34.1796875,-0.9765625,15.13671875
1771706553.7058437,19.04296875,41.015625,34.66796875,-34.66796875,39.55078125
1771706553.70975,19.53125,30.2734375,38.57421875,-1.46484375,2.9296875
1771706553.7136562,27.34375,41.9921875,42.48046875,43.9453125,-6.8359375
1771706553.7175624,15.13671875,38.0859375,35.64453125,5.37109375,59.08203125
1771706553.7214687,6.8359375,32.71484375,30.76171875,-39.55078125,39.0625
1771706553.725375,23.92578125,37.59765625,30.2734375,-15.13671875,2.44140625
1771706553.7292812,30.2734375,37.59765625,27.83203125,27.34375,48.33984375
1771706553.7331874,20.5078125,37.59765625,21.484375,14.6484375,46.38671875
1771706553.7370937,22.94921875,40.52734375,25.87890625,-22.4609375,38.57421875
1771706553.753125,30.2734375,35.64453125,31.73828125,-16.11328125,45.8984375
1771706553.7570312,33.203125,42.96875,33.203125,34.1796875,31.73828125
1771706553.7609375,36.1328125,54.19921875,36.62109375,43.45703125,29.296875
1771706553.7648437,26.85546875,40.0390625,31.25,-18.5546875,25.87890625
1771706553.76875,25.87890625,33.203125,25.390625,-37.59765625,2.9296875
1771706553.7726562,35.64453125,30.76171875,22.4609375,13.18359375,-23.4375
1771706553.7765625,43.45703125,34.1796875,24.90234375,47.36328125,-88.37890625
1771706553.7804687,34.66796875,43.9453125,29.78515625,8.7890625,-84.9609375
1771706553.784375,14.16015625,41.015625,31.25,-39.0625,-27.83203125
1771706553.7882812,20.01953125,36.1328125,30.76171875,-1.46484375,30.76171875
1771706553.7921875,32.71484375,35.15625,32.71484375,42.48046875,35.64453125
1771706553.7960937,24.4140625,35.15625,33.203125,12.6953125,20.5078125
1771706553.799125,20.5078125,34.66796875,33.203125,-33.203125,52.734375
1771706553.8030312,25.87890625,35.64453125,31.25,-20.5078125,33.203125
1771706553.8069375,35.64453125,44.921875,29.296875,36.62109375,76.171875
1771706553.8108437,31.73828125,43.45703125,35.15625,33.203125,100.09765625
1771706553.81475,28.3203125,38.57421875,35.64453125,-14.6484375,54.6875
1771706553.8186562,33.203125,46.38671875,35.64453125,-5.859375,50.29296875
1771706553.8225625,45.8984375,52.24609375,41.015625,44.921875,22.94921875
1771706553.8264687,37.109375,37.59765625,38.0859375,56.640625,29.78515625
1771706553.830375,20.5078125,34.1796875,37.59765625,11.71875,42.48046875
1771706553.8342812,19.53125,34.66796875,35.64453125,-16.6015625,83.984375
1771706553.8381875,18.5546875,33.69140625,24.90234375,18.5546875,58.10546875
1771706553.8420937,20.99609375,38.57421875,23.4375,50.29296875,0.9765625
1771706553.842125,13.18359375,37.59765625,28.80859375,15.625,25.87890625
1771706553.8460312,7.32421875,36.1328125,29.78515625,-18.06640625,10.7421875
1771706553.8499374,20.01953125,34.66796875,29.78515625,16.6015625,38.57421875
1771706553.8538437,26.85546875,37.109375,33.69140625,61.03515625,39.55078125
1771706553.85775,24.4140625,39.0625,36.1328125,38.0859375,39.0625
1771706553.8616562,23.4375,39.0625,29.296875,-14.6484375,33.203125
1771706553.8655624,29.296875,52.734375,29.78515625,-5.37109375,17.578125
1771706553.8694687,32.2265625,46.875,29.78515625,42.96875,6.8359375
1771706553.873375,20.5078125,32.2265625,25.390625,38.0859375,-19.04296875
1771706553.8772812,14.6484375,28.3203125,27.34375,-11.23046875,-22.94921875
1771706553.8811874,22.4609375,30.76171875,29.78515625,-12.20703125,27.83203125
1771706553.8850937,30.76171875,38.0859375,40.0390625,46.875,65.4296875
1771706553.888125,25.87890625,36.62109375,45.41015625,66.40625,83.984375
1771706553.8920312,16.11328125,37.59765625,36.1328125,15.13671875,62.5
1771706553.8959374,12.20703125,38.57421875,36.1328125,-9.27734375,7.32421875
1771706553.8998437,16.6015625,40.52734375,36.1328125,29.78515625,6.8359375
1771706553.90375,25.390625,37.109375,36.1328125,58.59375,50.29296875
1771706553.9076562,20.01953125,32.71484375,36.1328125,22.94921875,97.16796875
1771706553.9115624,15.13671875,36.62109375,36.1328125,-13.18359375,16.6015625
1771706553.9154687,25.390625,48.828125,34.66796875,18.5546875,-14.6484375
1771706553.919375,31.73828125,46.38671875,36.62109375,63.4765625,-3.90625
1771706553.9232812,22.4609375,37.59765625,36.1328125,43.45703125,19.53125
1771706553.9271874,18.06640625,38.0859375,33.203125,-8.30078125,59.5703125
1771706553.9310937,22.94921875,36.1328125,31.73828125,0.0,48.33984375
1771706553.948125,20.01953125,33.69140625,29.296875,43.45703125,52.734375
1771706553.9520311,17.08984375,32.71484375,34.1796875,42.96875,52.734375
1771706553.9559374,11.71875,37.109375,35.15625,0.48828125,57.12890625
1771706553.9598436,14.6484375,43.45703125,35.15625,-15.625,45.8984375
1771706553.96375,29.78515625,42.48046875,40.0390625,25.390625,54.19921875
1771706553.9676561,30.76171875,41.50390625,41.9921875,50.78125,11.23046875
1771706553.9715624,23.4375,44.43359375,39.0625,9.27734375,-26.85546875
1771706553.9754686,19.53125,45.41015625,37.59765625,-23.4375,41.50390625
1771706553.979375,22.94921875,40.0390625,42.96875,11.71875,53.22265625
1771706553.9832811,23.4375,51.7578125,45.8984375,51.7578125,21.97265625
1771706553.9871874,10.25390625,53.22265625,38.0859375,26.3671875,16.11328125
1771706553.9910936,2.9296875,37.109375,31.25,-19.53125,62.01171875
1771706553.993125,8.7890625,40.0390625,31.73828125,-2.44140625,68.359375
1771706553.9970312,7.32421875,39.0625,40.52734375,39.55078125,77.63671875
1771706554.0009375,-5.859375,36.62109375,42.96875,20.99609375,32.2265625
1771706554.0048437,-8.7890625,40.0390625,51.26953125,-28.3203125,-48.33984375
1771706554.00875,-5.859375,49.8046875,61.03515625,-26.3671875,-18.5546875
1771706554.0126562,-7.32421875,50.78125,55.17578125,16.11328125,56.640625
1771706554.0165625,-12.20703125,49.8046875,55.6640625,23.92578125,34.1796875
1771706554.0204687,-22.4609375,56.640625,58.59375,-26.3671875,30.76171875
1771706554.024375,-31.25,51.26953125,53.22265625,-59.08203125,68.84765625
1771706554.0282812,-23.92578125,53.7109375,57.12890625,-16.6015625,45.41015625
1771706554.0321875,-1.46484375,62.98828125,69.82421875,29.78515625,46.875
1771706554.0360937,-16.11328125,66.89453125,71.2890625,-19.04296875,-16.11328125
1771706553.998125,-56.640625,70.3125,79.1015625,-86.42578125,-7.8125
1771706554.0020313,-69.3359375,69.3359375,90.8203125,-64.94140625,77.1484375
1771706554.0059376,-82.03125,62.98828125,100.5859375,-31.73828125,100.09765625
1771706554.0098438,-102.5390625,57.6171875,113.76953125,-71.77734375,65.4296875
1771706554.01375,-128.90625,62.5,129.8828125,-137.20703125,10.7421875
1771706554.0176563,-160.15625,61.03515625,143.06640625,-149.90234375,62.01171875
1771706554.0215626,-160.64453125,55.17578125,156.25,-101.07421875,70.3125
1771706554.0254688,-175.29296875,64.453125,158.203125,-119.62890625,66.40625
1771706554.029375,-203.125,57.6171875,156.25,-194.82421875,54.19921875
1771706554.0332813,-207.03125,48.33984375,167.48046875,-193.84765625,7.8125
1771706554.0371876,-203.61328125,46.875,167.96875,-147.4609375,32.71484375
1771706554.0410938,-187.98828125,49.31640625,177.734375,-118.65234375,64.453125
1771706554.008125,-196.2890625,41.9921875,174.8046875,-169.43359375,64.94140625
1771706554.0120313,-196.2890625,32.71484375,165.0390625,-193.359375,30.76171875
1771706554.0159376,-172.8515625,30.2734375,168.45703125,-128.90625,27.83203125
1771706554.0198438,-165.52734375,37.109375,168.45703125,-98.14453125,11.23046875
1771706554.02375,-172.8515625,31.25,155.76171875,-131.34765625,6.8359375
1771706554.0276563,-157.2265625,24.90234375,144.53125,-147.94921875,48.828125
1771706554.0315626,-124.51171875,27.83203125,143.06640625,-103.02734375,3.41796875
1771706554.0354688,-89.84375,40.0390625,136.71875,-40.52734375,-12.20703125
1771706554.039375,-87.40234375,42.48046875,126.46484375,-43.9453125,24.90234375
1771706554.0432813,-98.6328125,17.578125,110.83984375,-79.1015625,52.734375
1771706554.0471876,-65.91796875,12.20703125,96.6796875,-41.015625,65.4296875
1771706554.0510938,-43.9453125,15.13671875,93.26171875,26.85546875,48.828125
1771706554.022125,-38.57421875,15.13671875,87.890625,38.57421875,47.8515625
1771706554.0260313,-24.4140625,15.13671875,74.21875,14.16015625,41.9921875
1771706554.0299375,-16.11328125,9.765625,58.10546875,10.25390625,69.82421875
1771706554.0338438,4.39453125,7.8125,47.36328125,66.40625,71.77734375
1771706554.03775,28.3203125,20.5078125,40.52734375,108.3984375,41.50390625
1771706554.0416563,39.55078125,30.2734375,27.34375,74.21875,27.83203125
1771706554.0455625,50.78125,12.20703125,12.6953125,50.29296875,31.73828125
1771706554.0494688,62.98828125,6.34765625,5.37109375,90.8203125,32.2265625
1771706554.053375,79.58984375,17.08984375,-0.9765625,131.34765625,35.64453125
1771706554.0572813,83.984375,20.5078125,-8.30078125,112.79296875,12.6953125
1771706554.0611875,89.35546875,18.06640625,-12.6953125,84.47265625,6.8359375
1771706554.0650938,105.46875,19.04296875,-16.11328125,116.69921875,85.44921875
1771706554.068125,109.375,23.4375,-15.625,156.25,63.96484375
1771706554.0720313,107.421875,22.4609375,-16.6015625,137.6953125,28.80859375
1771706554.0759375,105.95703125,21.97265625,-19.53125,98.6328125,62.5
1771706554.0798438,113.28125,16.6015625,-17.08984375,103.02734375,66.89453125
1771706554.08375,125.9765625,29.296875,-11.71875,155.2734375,18.5546875
1771706554.0876563,122.55859375,28.3203125,-16.11328125,161.1328125,2.44140625
1771706554.0915625,109.375,10.7421875,-24.4140625,102.5390625,20.01953125
1771706554.0954688,110.83984375,14.6484375,-26.3671875,83.0078125,-7.8125
1771706554.099375,115.234375,23.4375,-22.4609375,132.32421875,5.859375
1771706554.1032813,114.74609375,22.4609375,-23.92578125,149.4140625,19.53125
1771706554.1071875,111.328125,21.484375,-20.99609375,100.09765625,-45.8984375
1771706554.1110938,104.00390625,22.4609375,-13.18359375,70.3125,26.85546875
1771706554.127125,111.81640625,25.87890625,-14.16015625,105.95703125,45.41015625
1771706554.1310313,119.62890625,33.69140625,-18.06640625,142.08984375,30.2734375
1771706554.1349375,104.4921875,22.94921875,-20.01953125,107.91015625,86.42578125
1771706554.1388438,94.7265625,9.27734375,-19.04296875,58.59375,28.80859375
1771706554.14275,104.00390625,11.23046875,-13.671875,76.171875,-6.34765625
1771706554.1466563,104.00390625,20.5078125,-12.20703125,120.1171875,21.97265625
1771706554.1505625,95.703125,24.90234375,-10.7421875,114.74609375,27.83203125
1771706554.1544688,96.19140625,26.85546875,-10.7421875,67.3828125,56.640625
1771706554.158375,100.09765625,25.87890625,-12.20703125,64.94140625,94.7265625
1771706554.1622813,115.72265625,34.1796875,-2.44140625,115.72265625,50.29296875
1771706554.1661875,109.86328125,36.1328125,6.34765625,125.0,1.953125
1771706554.1700938,95.703125,25.390625,4.39453125,77.1484375,-17.08984375
1771706554.173125,91.30859375,20.01953125,-1.953125,51.7578125,25.87890625
1771706554.1770313,97.16796875,30.76171875,2.9296875,96.19140625,12.20703125
1771706554.1809375,106.4453125,43.45703125,10.7421875,131.34765625,-3.41796875
1771706554.1848438,94.7265625,32.2265625,9.27734375,94.23828125,31.73828125
1771706554.18875,85.9375,22.94921875,6.8359375,57.6171875,22.94921875
1771706554.1926563,93.26171875,20.01953125,8.30078125,84.47265625,28.3203125
1771706554.1965625,94.7265625,24.90234375,10.7421875,125.48828125,2.9296875
1771706554.2004688,90.8203125,27.83203125,16.6015625,104.00390625,6.8359375
1771706554.204375,78.61328125,21.484375,12.6953125,55.17578125,30.76171875
1771706554.2082813,80.078125,28.3203125,9.27734375,68.359375,-8.7890625
1771706554.2121875,90.8203125,39.55078125,11.71875,115.234375,6.34765625
1771706554.2160938,81.54296875,35.64453125,10.25390625,112.79296875,39.0625
1771706554.218125,71.77734375,26.3671875,5.37109375,59.08203125,8.7890625
1771706554.2220314,81.54296875,37.59765625,6.34765625,51.7578125,22.94921875
1771706554.2259376,86.42578125,47.8515625,12.6953125,94.7265625,74.70703125
1771706554.2298439,74.70703125,33.203125,18.06640625,105.95703125,35.64453125
1771706554.23375,63.96484375,27.34375,13.671875,60.546875,15.13671875
1771706554.2376564,61.03515625,30.2734375,7.8125,33.203125,46.875
1771706554.2415626,70.80078125,38.57421875,14.16015625,74.70703125,29.296875
1771706554.2454689,66.89453125,40.52734375,18.5546875,101.5625,29.296875
1771706554.249375,50.78125,37.109375,19.04296875,66.89453125,72.265625
1771706554.2532814,47.8515625,31.73828125,15.625,29.296875,42.96875
1771706554.2571876,50.29296875,20.01953125,12.20703125,56.15234375,10.25390625
1771706554.2610939,58.10546875,28.3203125,16.11328125,97.16796875,-26.85546875
1771706554.263125,59.5703125,40.52734375,32.71484375,81.0546875,-19.53125
1771706554.2670312,55.6640625,52.24609375,29.296875,40.0390625,1.953125
1771706554.2709374,52.24609375,48.33984375,12.6953125,35.64453125,37.59765625
1771706554.2748437,52.734375,28.3203125,13.671875,67.87109375,66.40625
1771706554.27875,45.41015625,31.25,18.06640625,74.21875,34.1796875
1771706554.2826562,38.57421875,32.2265625,16.6015625,37.109375,41.015625
1771706554.2865624,41.9921875,33.203125,20.01953125,24.90234375,87.890625
1771706554.2904687,52.24609375,37.109375,26.85546875,69.3359375,46.38671875
1771706554.294375,54.19921875,38.0859375,27.83203125,81.54296875,16.6015625
1771706554.2982812,41.9921875,39.0625,24.4140625,33.203125,86.9140625
1771706554.3021874,30.76171875,37.109375,17.08984375,1.46484375,39.0625
1771706554.3060937,29.296875,34.1796875,15.13671875,33.203125,19.04296875
1771706554.324125,41.50390625,33.203125,21.97265625,73.73046875,35.64453125
1771706554.3280313,47.8515625,40.0390625,27.34375,53.22265625,57.6171875
1771706554.3319376,42.48046875,43.45703125,31.25,18.06640625,21.97265625
1771706554.3358438,38.0859375,34.66796875,26.3671875,26.3671875,11.71875
1771706554.33975,40.52734375,31.73828125,25.87890625,65.4296875,46.875
1771706554.3436563,42.96875,20.5078125,23.92578125,58.59375,33.203125
1771706554.3475626,41.50390625,25.87890625,30.2734375,18.06640625,40.0390625
1771706554.3514688,21.484375,36.62109375,34.1796875,1.953125,12.6953125
1771706554.355375,14.6484375,30.76171875,26.3671875,34.66796875,21.97265625
1771706554.3592813,20.5078125,28.80859375,29.78515625,50.29296875,79.58984375
1771706554.3631876,21.97265625,31.73828125,34.66796875,10.7421875,45.41015625
1771706554.3670938,32.2265625,33.203125,34.66796875,3.90625,49.8046875
1771706554.353125,40.0390625,41.50390625,36.62109375,50.78125,77.1484375
1771706554.3570313,39.55078125,40.52734375,37.109375,77.1484375,53.7109375
1771706554.3609376,32.2265625,28.3203125,29.78515625,37.109375,41.9921875
1771706554.3648438,32.2265625,29.296875,31.25,8.30078125,8.30078125
1771706554.36875,37.109375,32.71484375,35.64453125,41.015625,6.34765625
1771706554.3726563,40.52734375,30.2734375,30.2734375,75.1953125,48.828125
1771706554.3765626,36.1328125,29.296875,27.34375,45.8984375,60.546875
1771706554.3804688,34.1796875,39.0625,27.83203125,4.39453125,46.875
1771706554.384375,41.50390625,40.0390625,22.94921875,22.94921875,14.16015625
1771706554.3882813,45.8984375,31.25,29.296875,69.82421875,52.24609375
1771706554.3921876,44.43359375,34.1796875,38.57421875,63.4765625,7.8125
1771706554.3960938,36.62109375,39.0625,33.69140625,3.41796875,-2.9296875
1771706554.398125,35.15625,37.109375,28.80859375,-12.6953125,45.41015625
1771706554.4020312,48.828125,30.2734375,33.69140625,40.0390625,10.7421875
1771706554.4059374,55.17578125,45.8984375,41.9921875,59.5703125,36.62109375
1771706554.4098437,38.57421875,54.19921875,34.66796875,14.6484375,47.8515625
1771706554.41375,36.1328125,31.73828125,24.4140625,-5.859375,84.47265625
1771706554.4176562,38.57421875,29.78515625,22.4609375,34.66796875,108.3984375
1771706554.4215624,30.2734375,28.80859375,22.94921875,57.12890625,51.26953125
1771706554.4254687,23.92578125,27.34375,31.73828125,20.01953125,47.8515625
1771706554.429375,22.94921875,34.66796875,31.73828125,-16.6015625,39.0625
1771706554.4332812,25.87890625,38.57421875,27.83203125,11.71875,32.71484375
1771706554.4371874,26.3671875,41.015625,32.2265625,58.59375,33.69140625
1771706554.4410937,26.85546875,40.52734375,39.0625,35.15625,30.76171875
1771706554.443125,23.4375,31.73828125,36.62109375,-11.71875,35.15625
1771706554.4470313,23.4375,28.80859375,33.203125,7.32421875,59.08203125
1771706554.4509375,30.2734375,40.52734375,30.2734375,53.22265625,101.07421875
1771706554.4548438,22.94921875,35.64453125,26.85546875,41.50390625,103.02734375
1771706554.45875,11.71875,24.90234375,20.99609375,-12.20703125,73.2421875
1771706554.4626563,30.76171875,32.2265625,23.4375,-14.6484375,12.6953125
1771706554.4665625,40.52734375,36.1328125,27.83203125,30.76171875,-0.9765625
1771706554.4704688,27.83203125,39.55078125,27.34375,39.55078125,16.11328125
1771706554.474375,32.2265625,45.41015625,37.59765625,9.27734375,12.20703125
1771706554.4782813,35.15625,33.69140625,35.64453125,-12.6953125,6.8359375
1771706554.4821875,36.62109375,28.3203125,27.34375,17.08984375,25.390625
1771706554.4860938,38.57421875,37.109375,28.3203125,54.6875,84.9609375
1771706554.494125,29.78515625,35.64453125,31.73828125,23.4375,76.171875
1771706554.4980311,19.53125,37.59765625,28.3203125,-13.671875,32.2265625
1771706554.5019374,30.76171875,50.78125,29.296875,5.37109375,41.015625
1771706554.5058436,37.109375,39.55078125,34.1796875,42.96875,17.578125
1771706554.50975,28.80859375,29.296875,29.78515625,26.85546875,-0.48828125
1771706554.5136561,29.78515625,34.1796875,29.78515625,-19.04296875,12.20703125
1771706554.5175624,37.109375,32.2265625,35.15625,-9.765625,5.859375
1771706554.5214686,34.66796875,34.1796875,29.78515625,39.55078125,6.34765625
1771706554.525375,31.73828125,44.43359375,26.85546875,46.38671875,20.5078125
1771706554.5292811,31.73828125,46.38671875,29.296875,4.8828125,11.23046875
1771706554.5331874,34.1796875,36.1328125,25.390625,-11.71875,-27.83203125
1771706554.5370936,28.3203125,37.59765625,21.484375,33.69140625,19.53125
1771706554.548125,26.85546875,34.1796875,33.203125,58.10546875,32.2265625
1771706554.5520313,20.99609375,27.83203125,37.109375,11.23046875,4.39453125
1771706554.5559375,7.32421875,25.87890625,28.3203125,-18.06640625,62.01171875
1771706554.5598438,17.08984375,34.1796875,29.78515625,20.5078125,74.70703125
1771706554.56375,17.578125,40.0390625,30.76171875,49.31640625,103.02734375
1771706554.5676563,15.13671875,36.1328125,30.76171875,14.6484375,58.59375
1771706554.5715625,10.25390625,34.66796875,23.92578125,-30.76171875,8.30078125
1771706554.5754688,11.23046875,38.57421875,26.85546875,-4.39453125,26.85546875
1771706554.579375,23.92578125,38.57421875,34.66796875,41.9921875,61.5234375
1771706554.5832813,23.92578125,39.0625,28.80859375,29.296875,50.29296875
1771706554.5871875,20.99609375,48.33984375,28.80859375,-9.765625,38.57421875
1771706554.5910938,22.94921875,45.41015625,30.2734375,-7.32421875,52.24609375
1771706554.593125,28.3203125,32.2265625,29.296875,34.66796875,55.6640625
1771706554.5970314,29.296875,26.85546875,34.1796875,36.62109375,35.64453125
1771706554.6009376,21.97265625,29.296875,36.1328125,-11.23046875,-18.06640625
1771706554.6048439,15.625,26.3671875,26.3671875,-28.80859375,-1.46484375
1771706554.60875,29.78515625,34.66796875,35.15625,20.5078125,55.17578125
1771706554.6126564,26.3671875,37.109375,38.0859375,47.36328125,55.17578125
1771706554.6165626,11.23046875,32.2265625,28.80859375,3.90625,22.4609375
1771706554.6204689,18.5546875,45.41015625,32.2265625,-25.87890625,22.4609375
1771706554.624375,24.4140625,48.33984375,28.3203125,8.7890625,15.13671875
1771706554.6282814,33.69140625,51.7578125,33.203125,51.7578125,9.765625
1771706554.6321876,29.78515625,39.0625,32.71484375,25.390625,40.0390625
1771706554.6360939,22.94921875,29.78515625,26.3671875,-13.671875,34.1796875
1771706554.638125,29.78515625,36.1328125,29.296875,8.30078125,25.87890625
1771706554.6420312,35.64453125,35.15625,32.71484375,51.26953125,27.83203125
1771706554.6459374,32.71484375,36.1328125,32.2265625,43.9453125,1.953125
1771706554.6498437,30.76171875,35.64453125,34.66796875,7.32421875,20.01953125
1771706554.65375,33.69140625,36.1328125,37.59765625,8.30078125,48.828125
1771706554.6576562,30.2734375,36.1328125,38.0859375,44.921875,35.64453125
1771706554.6615624,26.3671875,35.64453125,40.0390625,56.640625,23.92578125
1771706554.6654687,29.78515625,47.8515625,40.52734375,21.97265625,41.015625
1771706554.669375,26.3671875,43.45703125,29.78515625,-3.41796875,8.7890625
1771706554.6732812,24.4140625,34.66796875,23.92578125,31.25,-1.953125
1771706554.6771874,29.78515625,34.66796875,29.296875,67.3828125,47.8515625
1771706554.6810937,29.296875,30.2734375,26.3671875,31.73828125,29.78515625
1771706554.683125,18.5546875,37.109375,26.85546875,-4.8828125,0.0
1771706554.6870313,21.97265625,43.9453125,35.15625,30.2734375,8.7890625
1771706554.6909375,30.2734375,46.38671875,35.64453125,70.80078125,20.5078125
1771706554.6948438,27.34375,47.36328125,40.0390625,42.96875,27.34375
1771706554.69875,13.671875,38.57421875,32.71484375,-2.44140625,24.4140625
1771706554.7026563,21.484375,36.62109375,28.80859375,15.625,39.0625
1771706554.7065625,32.2265625,36.1328125,32.2265625,62.5,34.66796875
1771706554.7104688,23.92578125,33.69140625,28.80859375,53.22265625,56.15234375
1771706554.714375,21.97265625,35.64453125,28.80859375,2.44140625,51.26953125
1771706554.7182813,28.80859375,39.0625,41.015625,-0.9765625,-22.94921875
1771706554.7221875,36.62109375,40.52734375,37.109375,42.48046875,65.91796875
1771706554.7260938,30.76171875,34.66796875,29.78515625,53.22265625,101.07421875
1771706554.727125,18.06640625,38.57421875,36.1328125,11.23046875,6.34765625
1771706554.7310312,15.13671875,40.52734375,34.1796875,-12.6953125,6.8359375
1771706554.7349374,23.92578125,26.85546875,34.66796875,23.92578125,41.9921875
1771706554.7388437,14.16015625,28.80859375,35.64453125,53.22265625,46.875
1771706554.74275,2.44140625,36.62109375,39.55078125,27.34375,69.3359375
1771706554.7466562,8.7890625,34.66796875,40.52734375,-10.25390625,88.37890625
1771706554.7505624,11.23046875,28.3203125,28.80859375,5.37109375,96.6796875
1771706554.7544687,16.11328125,29.78515625,28.80859375,46.875,72.75390625
1771706554.758375,12.20703125,29.78515625,34.1796875,28.80859375,47.36328125
1771706554.7622812,16.6015625,39.55078125,36.62109375,-10.7421875,41.015625
1771706554.7661874,20.5078125,42.96875,34.66796875,-4.39453125,7.32421875
1771706554.7700937,26.3671875,35.15625,33.203125,40.52734375,23.92578125
1771706554.772125,32.71484375,34.66796875,33.203125,45.41015625,50.29296875
1771706554.7760313,25.87890625,29.296875,27.83203125,-3.90625,43.9453125
1771706554.7799375,22.4609375,26.85546875,29.296875,-16.6015625,54.19921875
1771706554.7838438,23.92578125,27.83203125,32.2265625,30.2734375,-18.06640625
1771706554.78775,26.85546875,34.66796875,33.203125,55.6640625,-41.50390625
1771706554.7916563,22.94921875,42.96875,34.66796875,12.6953125,1.46484375
1771706554.7955625,16.6015625,38.0859375,33.69140625,-18.5546875,-7.8125
1771706554.7994688,20.5078125,36.1328125,33.203125,20.5078125,-27.34375
1771706554.803375,20.99609375,36.1328125,32.71484375,54.6875,4.39453125
1771706554.8072813,18.06640625,40.52734375,36.62109375,25.390625,60.546875
1771706554.8111875,20.01953125,48.828125,36.62109375,-14.16015625,30.2734375
1771706554.8150938,20.01953125,36.1328125,26.3671875,-1.953125,25.390625
1771706554.819125,21.484375,30.2734375,27.34375,43.9453125,-4.8828125
1771706554.8230312,30.2734375,41.9921875,26.85546875,45.8984375,-0.48828125
1771706554.8269374,33.203125,53.7109375,24.90234375,2.9296875,17.578125
1771706554.8308437,20.99609375,54.19921875,29.78515625,-7.32421875,-40.52734375
1771706554.83475,19.53125,41.015625,31.73828125,26.3671875,17.08984375
1771706554.8386562,27.83203125,33.69140625,33.69140625,46.875,61.03515625
1771706554.8425624,20.5078125,36.1328125,32.2265625,8.30078125,32.71484375
1771706554.8464687,11.23046875,30.76171875,36.1328125,-15.625,49.8046875
1771706554.850375,18.5546875,35.64453125,44.921875,29.78515625,93.75
1771706554.8542812,25.87890625,50.78125,43.9453125,58.10546875,69.3359375
1771706554.8581874,18.5546875,44.43359375,39.55078125,20.99609375,16.11328125
1771706554.8620937,15.13671875,31.73828125,33.69140625,-16.6015625,4.39453125
1771706554.878125,22.4609375,33.203125,26.85546875,15.625,43.45703125
1771706554.8820312,27.83203125,41.015625,29.78515625,55.17578125,61.03515625
1771706554.8859375,24.90234375,41.9921875,33.69140625,29.78515625,12.20703125
1771706554.8898437,27.34375,35.64453125,33.203125,-10.7421875,-12.20703125
1771706554.89375,38.0859375,40.0390625,30.76171875,6.8359375,15.625
1771706554.8976562,41.50390625,43.9453125,41.9921875,52.24609375,2.44140625
1771706554.9015625,30.76171875,35.64453125,40.52734375,44.921875,62.5
1771706554.9054687,23.4375,32.2265625,31.25,-3.41796875,100.5859375
1771706554.909375,22.94921875,33.69140625,29.78515625,-14.16015625,50.29296875
1771706554.9132812,28.3203125,35.64453125,32.2265625,25.390625,7.32421875
1771706554.9171875,25.87890625,50.29296875,34.66796875,38.0859375,33.203125
1771706554.9210937,9.765625,43.45703125,35.64453125,-1.953125,63.4765625
1771706554.923125,12.20703125,34.1796875,39.55078125,-21.97265625,-18.5546875
1771706554.9270313,23.4375,38.0859375,32.71484375,22.94921875,-36.1328125
1771706554.9309375,30.2734375,37.109375,26.3671875,55.17578125,-26.85546875
1771706554.9348438,32.71484375,41.50390625,32.71484375,20.01953125,-8.30078125
1771706554.93875,35.64453125,41.50390625,38.0859375,-11.23046875,2.44140625
1771706554.9426563,40.52734375,39.0625,31.73828125,22.4609375,-3.41796875
1771706554.9465625,44.43359375,42.48046875,27.34375,63.4765625,-2.44140625
1771706554.9504688,42.48046875,43.9453125,35.64453125,39.0625,2.9296875
1771706554.954375,25.390625,40.52734375,33.203125,-5.37109375,29.296875
1771706554.9582813,19.04296875,40.0390625,27.34375,4.8828125,21.97265625
1771706554.9621875,28.3203125,31.25,27.83203125,43.45703125,67.3828125
1771706554.9660938,31.73828125,43.9453125,31.25,52.24609375,75.68359375
1771706554.968125,24.4140625,55.6640625,29.78515625,12.20703125,-0.9765625
1771706554.9720314,22.4609375,36.62109375,32.71484375,-7.8125,37.109375
1771706554.9759376,27.83203125,37.109375,40.0390625,34.66796875,31.73828125
1771706554.9798439,28.3203125,42.48046875,33.69140625,53.7109375,20.01953125
1771706554.98375,23.4375,37.109375,31.73828125,4.8828125,32.71484375
1771706554.9876564,21.97265625,37.109375,28.3203125,-27.34375,30.76171875
1771706554.9915626,28.3203125,41.015625,29.296875,13.671875,94.23828125
1771706554.9954689,31.25,41.015625,36.62109375,51.7578125,53.22265625
1771706554.999375,20.01953125,34.1796875,32.2265625,17.578125,-12.6953125
1771706555.0032814,11.71875,35.64453125,26.85546875,-26.3671875,54.19921875
1771706555.0071876,26.3671875,42.96875,34.66796875,5.37109375,66.89453125
1771706555.0110939,23.4375,36.62109375,34.66796875,46.875,33.69140625
1771706555.013125,12.6953125,41.50390625,32.2265625,28.3203125,30.76171875
1771706555.0170312,17.08984375,51.26953125,40.0390625,-11.23046875,19.04296875
1771706555.0209374,15.625,41.50390625,36.62109375,-7.8125,43.9453125
1771706555.0248437,19.04296875,38.57421875,31.25,40.52734375,43.45703125
1771706555.02875,22.94921875,40.52734375,31.25,45.8984375,51.7578125
1771706555.0326562,15.625,38.57421875,30.2734375,-2.44140625,41.9921875
1771706555.0365624,15.13671875,37.109375,37.59765625,-11.23046875,5.859375
1771706555.0404687,21.97265625,43.45703125,39.55078125,31.25,30.2734375
1771706555.044375,29.78515625,32.71484375,36.1328125,62.5,51.7578125
1771706555.0482812,37.59765625,12.20703125,32.2265625,45.41015625,13.18359375
1771706555.0521874,40.0390625,28.3203125,27.83203125,18.5546875,6.34765625
1771706555.0560937,38.57421875,47.8515625,20.99609375,27.34375,57.6171875
1771706555.058125,31.25,53.7109375,15.625,33.203125,39.0625
1771706555.0620313,20.99609375,61.5234375,12.6953125,3.90625,15.625
1771706555.0659375,19.53125,62.01171875,3.90625,-33.69140625,-17.578125
1771706555.0698438,30.2734375,59.08203125,13.18359375,-16.6015625,2.9296875
1771706555.07375,30.2734375,61.03515625,12.20703125,26.85546875,65.91796875
1771706555.0776563,18.5546875,64.453125,-2.44140625,6.8359375,44.43359375
1771706555.0815625,14.16015625,67.3828125,-5.859375,-43.45703125,8.7890625
1771706555.0854688,16.11328125,62.5,-6.34765625,-41.50390625,31.25
1771706555.089375,31.73828125,65.4296875,-0.9765625,17.08984375,45.8984375
1771706555.0932813,28.80859375,63.4765625,-4.39453125,27.83203125,29.78515625
1771706555.0971875,17.578125,54.19921875,-0.9765625,-18.5546875,38.0859375
1771706555.1010938,33.203125,57.6171875,8.30078125,-30.76171875,15.625
1771706555.103125,30.76171875,52.734375,0.0,11.23046875,0.48828125
1771706555.1070313,24.90234375,52.24609375,4.8828125,41.9921875,45.8984375
1771706555.1109376,30.76171875,47.8515625,11.23046875,10.25390625,21.97265625
1771706555.1148438,28.80859375,45.8984375,14.6484375,-15.625,7.32421875
1771706555.11875,30.76171875,43.45703125,19.04296875,17.578125,1.46484375
1771706555.1226563,39.0625,53.22265625,22.4609375,56.15234375,16.11328125
1771706555.1265626,37.109375,56.640625,19.04296875,28.80859375,51.7578125
1771706555.1304688,26.85546875,43.9453125,13.671875,-27.34375,96.6796875
1771706555.134375,26.85546875,45.41015625,15.625,-19.53125,79.1015625
1771706555.1382813,29.78515625,38.57421875,12.20703125,26.85546875,33.203125
1771706555.1421876,30.76171875,42.96875,9.27734375,25.390625,46.38671875
1771706555.1460938,30.2734375,54.6875,20.01953125,-17.08984375,14.6484375
1771706555.149125,32.71484375,50.29296875,19.04296875,-26.3671875,13.671875
1771706555.1530313,35.15625,45.8984375,19.53125,23.4375,82.03125
1771706555.1569376,32.2265625,45.41015625,23.4375,45.8984375,45.41015625
1771706555.1608438,34.1796875,55.6640625,17.08984375,-0.9765625,-16.11328125
1771706555.16475,39.55078125,50.29296875,21.97265625,-20.01953125,16.6015625
1771706555.1686563,34.66796875,39.0625,23.92578125,20.01953125,21.97265625
1771706555.1725626,34.1796875,44.43359375,12.6953125,44.43359375,7.32421875
1771706555.1764688,33.203125,44.43359375,10.25390625,10.25390625,13.18359375
1771706555.180375,26.85546875,40.0390625,19.04296875,-22.94921875,25.87890625
1771706555.1842813,31.73828125,43.9453125,22.4609375,10.7421875,59.5703125
1771706555.1881876,41.015625,47.8515625,30.76171875,55.17578125,29.78515625
1771706555.1920938,38.57421875,46.38671875,31.25,34.1796875,56.15234375
1771706555.193125,38.57421875,48.828125,27.83203125,-7.32421875,84.47265625
1771706555.1970313,43.9453125,37.59765625,25.87890625,-2.9296875,48.33984375
1771706555.2009375,46.875,33.69140625,26.3671875,40.0390625,34.66796875
1771706555.2048438,44.43359375,39.0625,27.34375,44.43359375,-1.953125
1771706555.20875,40.0390625,39.0625,30.2734375,2.44140625,-33.203125
1771706555.2126563,34.66796875,39.0625,33.203125,-6.8359375,4.39453125
1771706555.2165625,37.59765625,42.96875,25.87890625,34.1796875,39.55078125
1771706555.2204688,46.875,57.6171875,26.3671875,56.15234375,34.66796875
1771706555.224375,28.80859375,48.828125,25.87890625,11.23046875,52.734375
1771706555.2282813,16.6015625,33.203125,15.625,-18.06640625,64.453125
1771706555.2321875,37.109375,31.25,20.5078125,36.62109375,24.4140625
1771706555.2360938,51.7578125,34.66796875,26.85546875,76.171875,48.828125
1771706555.253125,39.0625,43.45703125,24.4140625,30.76171875,75.68359375
1771706555.2570312,23.92578125,51.7578125,31.73828125,-18.5546875,86.42578125
1771706555.2609375,23.4375,48.828125,33.69140625,2.44140625,46.875
1771706555.2648437,36.1328125,44.921875,32.71484375,54.19921875,22.94921875
1771706555.26875,35.64453125,41.015625,35.15625,43.9453125,67.87109375
1771706555.2726562,36.1328125,39.55078125,38.0859375,-1.46484375,23.92578125
1771706555.2765625,45.41015625,46.875,40.0390625,5.859375,9.27734375
1771706555.2804687,32.71484375,39.55078125,34.66796875,45.41015625,40.0390625
1771706555.284375,19.04296875,37.109375,33.69140625,44.921875,84.9609375
1771706555.2882812,11.71875,35.64453125,29.296875,-7.32421875,108.88671875
1771706555.2921875,5.859375,35.64453125,23.4375,-26.3671875,42.96875
1771706555.2960937,8.7890625,34.1796875,27.34375,21.484375,38.0859375
1771706555.298125,17.578125,32.71484375,30.2734375,47.8515625,95.21484375
1771706555.3020313,15.625,36.62109375,33.203125,9.765625,70.3125
1771706555.3059375,19.53125,41.50390625,27.34375,-17.08984375,62.98828125
1771706555.3098438,38.57421875,58.59375,31.73828125,31.25,87.890625
1771706555.31375,33.203125,53.7109375,28.80859375,62.5,27.83203125
1771706555.3176563,28.3203125,35.64453125,21.97265625,24.90234375,10.7421875
1771706555.3215625,28.3203125,35.15625,26.3671875,-12.20703125,4.8828125
1771706555.3254688,20.5078125,40.52734375,28.3203125,13.18359375,23.92578125
1771706555.329375,24.4140625,42.96875,31.73828125,63.4765625,28.80859375
1771706555.3332813,24.90234375,33.203125,32.2265625,48.33984375,0.0
1771706555.3371875,25.390625,42.48046875,35.64453125,4.39453125,50.29296875
1771706555.3410938,33.69140625,52.24609375,40.0390625,8.7890625,82.51953125
1771706555.343125,38.57421875,46.875,27.83203125,51.26953125,47.8515625
1771706555.3470314,38.0859375,47.8515625,24.4140625,62.5,6.8359375
1771706555.3509376,30.76171875,40.0390625,32.71484375,14.16015625,-5.37109375
1771706555.3548439,28.80859375,37.109375,28.80859375,-8.7890625,10.25390625
1771706555.35875,23.4375,37.59765625,25.87890625,25.390625,65.91796875
1771706555.3626564,20.99609375,34.1796875,31.25,51.26953125,51.26953125
1771706555.3665626,18.06640625,34.1796875,31.73828125,16.6015625,39.0625
1771706555.3704689,12.6953125,38.57421875,21.97265625,-20.5078125,77.63671875
1771706555.374375,17.578125,34.66796875,21.484375,12.6953125,77.1484375
1771706555.3782814,23.92578125,47.36328125,31.25,57.6171875,43.45703125
1771706555.3821876,13.671875,49.31640625,31.73828125,31.73828125,13.671875
1771706555.3860939,13.671875,38.0859375,30.2734375,-16.11328125,31.73828125
1771706555.388125,28.3203125,42.96875,29.296875,1.46484375,50.78125
1771706555.3920312,25.390625,33.203125,28.3203125,42.48046875,16.6015625
1771706555.3959374,29.78515625,35.15625,38.0859375,38.57421875,23.4375
1771706555.3998437,29.296875,36.1328125,36.62109375,-3.41796875,41.015625
1771706555.40375,22.94921875,30.76171875,29.78515625,-5.859375,31.25
1771706555.4076562,30.76171875,41.50390625,31.25,44.921875,11.71875
1771706555.4115624,25.87890625,37.109375,29.296875,52.734375,51.7578125
1771706555.4154687,22.94921875,45.41015625,34.66796875,11.71875,41.9921875
1771706555.419375,23.92578125,51.26953125,33.203125,-10.7421875,32.2265625
1771706555.4232812,15.625,34.1796875,26.85546875,17.578125,59.5703125
1771706555.4271874,17.578125,33.203125,31.73828125,46.875,34.1796875
1771706555.4310937,21.484375,36.1328125,30.2734375,13.671875,-3.41796875
1771706555.434125,24.4140625,34.1796875,29.296875,-21.484375,-7.32421875
1771706555.4380312,24.90234375,40.52734375,31.25,6.8359375,69.82421875
1771706555.4419374,25.87890625,42.96875,31.25,52.734375,67.87109375
1771706555.4458437,24.4140625,32.71484375,31.25,31.25,-9.765625
1771706555.44975,24.4140625,41.50390625,40.52734375,-12.6953125,-46.38671875
1771706555.4536562,23.92578125,41.50390625,37.109375,-6.8359375,16.11328125
1771706555.4575624,20.01953125,33.69140625,26.85546875,32.71484375,53.7109375
1771706555.4614687,10.25390625,37.59765625,24.90234375,28.3203125,27.83203125
1771706555.465375,11.23046875,31.25,25.87890625,-18.06640625,19.04296875
1771706555.4692812,15.13671875,33.203125,30.76171875,-20.5078125,29.296875
1771706555.4731874,16.11328125,42.96875,33.69140625,27.83203125,31.25
1771706555.4770937,11.71875,37.109375,36.62109375,45.8984375,12.6953125
1771706555.478125,-1.953125,29.78515625,34.1796875,-1.46484375,18.06640625
1771706555.4820313,-1.46484375,18.06640625,31.73828125,-23.92578125,29.296875
1771706555.4859376,23.4375,24.90234375,37.59765625,35.15625,4.8828125
1771706555.4898438,38.57421875,44.43359375,35.64453125,64.94140625,49.8046875
1771706555.49375,12.20703125,42.48046875,21.97265625,-0.9765625,61.03515625
1771706555.4976563,-3.41796875,46.875,22.94921875,-46.38671875,15.13671875
1771706555.5015626,1.953125,38.57421875,25.390625,-22.94921875,38.0859375
1771706555.5054688,8.30078125,35.15625,23.92578125,15.13671875,43.45703125
1771706555.509375,11.23046875,42.48046875,27.34375,6.34765625,61.5234375
1771706555.5132813,14.16015625,38.57421875,33.203125,-29.78515625,19.53125
1771706555.5171876,27.34375,47.36328125,40.0390625,-9.27734375,32.2265625
1771706555.5210938,30.76171875,53.22265625,39.0625,39.0625,40.0390625
1771706555.523125,27.83203125,36.62109375,30.76171875,40.52734375,8.30078125
1771706555.5270312,24.4140625,39.0625,25.87890625,1.953125,45.8984375
1771706555.5309374,18.5546875,45.8984375,21.97265625,-10.25390625,34.1796875
1771706555.5348437,26.85546875,43.9453125,28.3203125,36.62109375,52.24609375
1771706555.53875,27.83203125,40.52734375,32.71484375,61.5234375,80.078125
1771706555.5426562,18.06640625,42.48046875,35.15625,20.99609375,43.9453125
1771706555.5465624,19.04296875,39.0625,37.109375,-12.20703125,-8.7890625
1771706555.5504687,15.625,33.203125,27.34375,17.578125,-28.80859375
1771706555.554375,20.5078125,50.78125,29.78515625,61.03515625,25.390625
1771706555.5582812,21.97265625,49.8046875,29.78515625,35.15625,52.734375
1771706555.5621874,17.08984375,32.2265625,25.87890625,-11.71875,44.921875
1771706555.5660937,23.4375,33.69140625,25.87890625,14.6484375,42.96875
1771706555.568125,31.25,34.1796875,33.69140625,63.4765625,24.4140625
1771706555.5720313,25.390625,31.25,36.1328125,50.29296875,17.08984375
1771706555.5759375,17.578125,29.78515625,28.80859375,2.9296875,32.2265625
1771706555.5798438,12.20703125,27.83203125,30.76171875,0.48828125,52.734375
1771706555.58375,10.25390625,24.90234375,33.203125,44.921875,35.15625
1771706555.5876563,21.97265625,37.59765625,39.55078125,65.91796875,30.2734375
1771706555.5915625,18.5546875,36.1328125,38.57421875,27.83203125,70.3125
1771706555.5954688,18.06640625,23.92578125,28.3203125,4.39453125,67.87109375
1771706555.599375,30.76171875,32.71484375,31.73828125,46.875,36.62109375
1771706555.6032813,30.2734375,24.90234375,37.59765625,76.171875,23.92578125
1771706555.6071875,19.53125,18.5546875,32.71484375,38.0859375,25.87890625
1771706555.6110938,18.5546875,33.69140625,35.15625,1.46484375,10.7421875
1771706555.628125,28.3203125,41.015625,45.41015625,38.0859375,6.34765625
1771706555.6320312,40.52734375,48.33984375,45.41015625,81.0546875,37.109375
1771706555.6359375,36.1328125,56.15234375,39.55078125,54.6875,16.6015625
1771706555.6398437,19.04296875,43.45703125,32.71484375,4.39453125,21.97265625
1771706555.64375,24.90234375,36.1328125,26.85546875,17.08984375,44.921875
1771706555.6476562,21.484375,33.69140625,23.4375,56.640625,-22.94921875
1771706555.6515625,12.20703125,36.62109375,27.83203125,46.875,14.16015625
1771706555.6554687,13.18359375,41.015625,31.73828125,7.32421875,103.02734375
1771706555.659375,20.01953125,45.8984375,29.296875,8.7890625,83.984375
1771706555.6632812,23.4375,50.78125,32.2265625,57.12890625,39.0625
1771706555.6671875,28.3203125,52.24609375,39.0625,77.1484375,3.41796875
1771706555.6710937,19.53125,53.22265625,37.109375,28.80859375,61.5234375
1771706555.673125,8.30078125,32.71484375,27.34375,-12.6953125,79.58984375
1771706555.6770313,20.5078125,20.5078125,32.71484375,28.3203125,48.828125
1771706555.6809375,28.3203125,34.66796875,39.0625,64.453125,30.2734375
1771706555.6848438,21.484375,40.0390625,34.66796875,32.2265625,2.9296875
1771706555.68875,21.484375,41.015625,32.2265625,1.953125,25.390625
1771706555.6926563,23.4375,41.9921875,31.25,30.76171875,50.78125
1771706555.6965625,23.4375,38.0859375,32.2265625,75.68359375,1.953125
1771706555.7004688,21.484375,39.55078125,37.109375,62.5,12.6953125
1771706555.704375,21.97265625,43.9453125,41.9921875,14.6484375,73.2421875
1771706555.7082813,24.4140625,28.80859375,36.62109375,16.11328125,75.68359375
1771706555.7121875,19.53125,28.80859375,34.66796875,62.01171875,50.29296875
1771706555.7160938,20.01953125,33.69140625,36.62109375,65.4296875,74.21875
1771706555.719125,24.90234375,26.3671875,32.2265625,21.484375,27.83203125
1771706555.7230313,25.87890625,26.3671875,30.76171875,5.859375,14.6484375
1771706555.7269375,27.83203125,28.3203125,31.25,41.015625,62.5
1771706555.7308438,30.2734375,34.1796875,32.71484375,62.98828125,78.125
1771706555.73475,29.78515625,41.50390625,42.96875,28.80859375,71.77734375
1771706555.7386563,29.78515625,41.015625,40.0390625,2.9296875,68.359375
1771706555.7425625,31.73828125,35.15625,34.1796875,38.57421875,11.71875
1771706555.7464688,31.73828125,31.25,37.109375,76.66015625,21.97265625
1771706555.750375,32.2265625,22.4609375,38.0859375,56.15234375,57.6171875
1771706555.7542813,41.015625,20.99609375,35.15625,26.3671875,75.1953125
1771706555.7581875,44.43359375,49.8046875,27.83203125,30.2734375,20.01953125
1771706555.7620938,31.73828125,61.5234375,27.83203125,49.8046875,15.625
1771706555.763125,17.08984375,53.7109375,27.34375,28.80859375,70.80078125
1771706555.7670312,0.0,53.7109375,17.578125,-24.4140625,46.38671875
1771706555.7709374,-9.765625,39.0625,18.5546875,-26.85546875,29.296875
1771706555.7748437,5.37109375,39.55078125,18.5546875,15.13671875,25.390625
1771706555.77875,15.13671875,49.31640625,21.484375,25.87890625,-18.06640625
1771706555.7826562,-1.953125,50.29296875,25.390625,-13.671875,-64.453125
1771706555.7865624,1.953125,44.921875,23.92578125,-29.296875,-12.20703125
1771706555.7904687,18.5546875,43.45703125,24.4140625,19.04296875,9.27734375
1771706555.794375,18.06640625,40.52734375,26.3671875,39.0625,48.828125
1771706555.7982812,16.6015625,51.26953125,33.203125,3.90625,91.30859375
1771706555.8021874,14.16015625,49.31640625,28.3203125,-15.625,58.59375
1771706555.8060937,17.08984375,40.0390625,20.99609375,19.53125,53.7109375
1771706555.808125,29.296875,47.8515625,24.4140625,59.5703125,30.76171875
1771706555.8120313,29.296875,44.43359375,27.34375,32.71484375,24.4140625
1771706555.8159375,25.87890625,41.015625,38.0859375,-1.953125,35.15625
1771706555.8198438,24.90234375,33.69140625,39.0625,16.6015625,22.4609375
1771706555.82375,20.5078125,31.25,25.390625,50.78125,-2.9296875
1771706555.8276563,21.97265625,42.96875,33.203125,46.38671875,32.2265625
1771706555.8315625,29.78515625,61.03515625,38.0859375,13.18359375,34.66796875
1771706555.8354688,36.62109375,53.7109375,32.71484375,8.7890625,44.921875
1771706555.839375,36.62109375,38.0859375,35.15625,47.8515625,63.96484375
1771706555.8432813,31.73828125,39.0625,31.25,57.6171875,-0.48828125
1771706555.8471875,33.69140625,37.109375,33.203125,15.13671875,-14.6484375
1771706555.8510938,30.2734375,37.109375,36.1328125,-1.953125,-24.90234375
1771706555.860125,28.3203125,39.0625,27.83203125,36.62109375,-48.828125
1771706555.8640313,29.296875,42.96875,30.76171875,64.94140625,4.39453125
1771706555.8679376,26.85546875,41.015625,37.109375,33.203125,11.71875
1771706555.8718438,22.94921875,48.828125,38.57421875,-0.9765625,18.5546875
1771706555.87575,20.99609375,52.24609375,35.15625,26.85546875,34.66796875
1771706555.8796563,21.484375,33.69140625,33.69140625,68.84765625,-2.9296875
1771706555.8835626,12.6953125,26.3671875,35.15625,44.43359375,29.296875
1771706555.8874688,13.18359375,30.2734375,37.109375,-4.8828125,63.4765625
1771706555.891375,20.01953125,35.15625,36.1328125,9.27734375,70.80078125
1771706555.8952813,17.578125,33.69140625,24.90234375,51.7578125,52.734375
1771706555.8991876,32.71484375,47.36328125,28.80859375,54.6875,50.78125
1771706555.9030938,36.62109375,48.828125,29.78515625,16.11328125,14.6484375
1771706555.898125,29.296875,36.62109375,28.80859375,1.46484375,-13.18359375
1771706555.9020312,32.71484375,37.109375,30.76171875,44.43359375,44.43359375
1771706555.9059374,41.015625,47.8515625,35.64453125,72.75390625,53.22265625
1771706555.9098437,33.203125,45.41015625,30.76171875,23.92578125,27.83203125
1771706555.91375,21.484375,34.1796875,22.94921875,-9.27734375,26.3671875
1771706555.9176562,32.71484375,38.0859375,27.34375,31.25,18.06640625
1771706555.9215624,38.0859375,35.15625,30.2734375,62.01171875,-28.80859375
1771706555.9254687,36.1328125,32.71484375,36.1328125,25.87890625,-32.71484375
1771706555.929375,25.87890625,37.109375,37.59765625,-13.18359375,6.34765625
1771706555.9332812,25.390625,40.52734375,29.296875,19.04296875,18.06640625
1771706555.9371874,33.69140625,34.1796875,31.25,63.4765625,-3.41796875
1771706555.9410937,22.4609375,32.2265625,32.71484375,40.0390625,36.62109375
1771706555.944125,22.94921875,42.48046875,30.76171875,-6.8359375,85.9375
1771706555.9480312,25.87890625,55.6640625,39.55078125,5.37109375,12.6953125
1771706555.9519374,16.11328125,41.9921875,37.109375,48.828125,42.48046875
1771706555.9558437,17.578125,32.2265625,30.76171875,55.17578125,90.33203125
1771706555.95975,14.16015625,36.1328125,32.71484375,10.7421875,70.3125
1771706555.9636562,13.18359375,34.66796875,33.203125,-14.16015625,41.015625
1771706555.9675624,25.390625,40.52734375,41.9921875,29.78515625,32.71484375
1771706555.9714687,28.3203125,41.9921875,45.41015625,57.6171875,7.32421875
1771706555.975375,14.6484375,41.015625,38.0859375,20.01953125,-15.13671875
1771706555.9792812,14.6484375,48.33984375,35.15625,-6.34765625,-3.90625
1771706555.9831874,18.06640625,49.31640625,38.57421875,25.87890625,26.85546875
1771706555.9870937,20.01953125,42.96875,46.38671875,60.05859375,46.875
1771706556.003125,12.6953125,41.015625,47.8515625,27.34375,76.171875
1771706556.0070312,11.23046875,57.6171875,49.31640625,-15.625,87.890625
1771706556.0109375,2.44140625,52.24609375,41.9921875,-9.27734375,47.36328125
1771706556.0148437,1.953125,30.2734375,46.38671875,29.296875,40.52734375
1771706556.01875,16.11328125,41.9921875,62.98828125,39.0625,25.87890625
1771706556.0226562,-4.8828125,50.78125,57.12890625,-21.484375,37.109375
1771706556.0265625,-19.04296875,52.24609375,52.734375,-34.1796875,29.78515625
1771706556.0304687,-21.97265625,57.6171875,68.359375,5.37109375,20.99609375
1771706556.034375,-38.57421875,58.59375,79.1015625,0.9765625,14.16015625
1771706556.0382812,-47.8515625,59.08203125,70.3125,-44.43359375,23.4375
1771706556.0421875,-49.8046875,65.91796875,68.84765625,-64.453125,39.0625
1771706556.0460937,-51.26953125,74.21875,83.49609375,-34.1796875,-7.8125
1771706556.048125,-71.2890625,78.61328125,90.33203125,-27.34375,-0.48828125
1771706556.0520313,-87.40234375,81.0546875,88.8671875,-74.21875,31.73828125
1771706556.0559375,-89.84375,83.0078125,86.9140625,-114.74609375,-3.90625
1771706556.0598438,-98.14453125,85.44921875,98.14453125,-96.6796875,36.1328125
1771706556.06375,-114.2578125,99.12109375,109.375,-68.84765625,23.92578125
1771706556.0676563,-130.859375,95.21484375,95.703125,-105.46875,-3.90625
1771706556.0715625,-134.27734375,87.40234375,98.6328125,-157.2265625,37.59765625
1771706556.0754688,-137.20703125,88.8671875,103.02734375,-148.92578125,39.0625
1771706556.079375,-146.97265625,82.03125,102.5390625,-114.74609375,18.06640625
1771706556.0832813,-153.3203125,75.68359375,105.95703125,-125.48828125,29.296875
1771706556.0871875,-154.296875,84.9609375,100.5859375,-175.78125,6.8359375
1771706556.0910938,-147.4609375,93.26171875,103.02734375,-181.640625,13.671875
1771706556.093125,-140.13671875,97.16796875,108.3984375,-132.8125,59.08203125
1771706556.0970314,-140.13671875,95.21484375,111.328125,-115.234375,57.12890625
1771706556.1009376,-143.06640625,83.0078125,108.3984375,-152.83203125,53.22265625
1771706556.1048439,-132.8125,82.51953125,107.421875,-167.48046875,55.6640625
1771706556.10875,-118.1640625,95.703125,101.07421875,-119.62890625,33.203125
1771706556.1126564,-111.81640625,95.703125,92.28515625,-88.37890625,22.94921875
1771706556.1165626,-102.05078125,94.23828125,99.609375,-114.2578125,61.5234375
1771706556.1204689,-101.5625,81.0546875,102.05078125,-139.16015625,64.453125
1771706556.124375,-98.14453125,72.265625,86.42578125,-105.95703125,57.12890625
1771706556.1282814,-99.12109375,73.2421875,79.58984375,-69.82421875,60.546875
1771706556.1321876,-101.07421875,67.3828125,84.9609375,-84.9609375,65.4296875
1771706556.1360939,-82.51953125,65.4296875,80.56640625,-106.93359375,23.4375
1771706556.138125,-47.8515625,64.94140625,76.171875,-67.3828125,15.625
1771706556.1420312,-27.34375,67.87109375,75.1953125,-2.44140625,16.6015625
1771706556.1459374,-34.1796875,65.91796875,62.5,-2.9296875,-24.4140625
1771706556.1498437,-30.2734375,68.84765625,49.31640625,-46.38671875,36.62109375
1771706556.15375,-7.8125,62.98828125,39.55078125,-35.15625,89.35546875
1771706556.1576562,17.578125,69.3359375,40.52734375,31.73828125,41.9921875
1771706556.1615624,24.4140625,70.80078125,35.64453125,53.22265625,29.296875
1771706556.1654687,20.5078125,56.15234375,25.87890625,12.20703125,85.44921875
1771706556.169375,36.1328125,61.03515625,28.80859375,0.48828125,77.1484375
1771706556.1732812,57.6171875,50.29296875,20.99609375,52.734375,56.15234375
1771706556.1771874,66.89453125,42.96875,12.6953125,95.703125,45.8984375
1771706556.1810937,76.171875,48.33984375,8.7890625,79.58984375,5.859375
1771706556.183125,90.33203125,43.9453125,7.8125,59.08203125,37.109375
1771706556.1870313,96.19140625,47.36328125,6.8359375,88.8671875,46.38671875
1771706556.1909375,124.51171875,53.22265625,-2.44140625,143.06640625,43.45703125
1771706556.1948438,142.08984375,37.109375,-1.46484375,148.92578125,48.828125
1771706556.19875,139.6484375,42.96875,-2.44140625,113.28125,11.71875
1771706556.2026563,146.97265625,44.921875,-11.71875,119.140625,15.625
1771706556.2065625,160.64453125,23.92578125,-6.34765625,183.10546875,40.52734375
1771706556.2104688,170.41015625,25.87890625,-13.18359375,194.3359375,17.08984375
1771706556.214375,167.96875,36.62109375,-24.4140625,140.625,-22.94921875
1771706556.2182813,171.38671875,31.73828125,-20.5078125,135.25390625,20.5078125
1771706556.2221875,177.734375,21.97265625,-16.11328125,174.8046875,34.1796875
1771706556.2260938,185.05859375,24.90234375,-20.99609375,189.94140625,6.8359375
1771706556.228125,190.91796875,32.2265625,-20.99609375,156.73828125,4.8828125
1771706556.2320313,191.40625,33.69140625,-17.08984375,138.18359375,6.8359375
1771706556.2359376,194.3359375,20.5078125,-19.53125,182.6171875,45.8984375
1771706556.2398438,199.21875,23.92578125,-19.53125,220.21484375,61.5234375
1771706556.24375,194.3359375,25.87890625,-18.5546875,190.91796875,47.36328125
1771706556.2476563,190.91796875,13.18359375,-19.04296875,158.69140625,71.77734375
1771706556.2515626,193.84765625,8.7890625,-16.11328125,179.19921875,127.44140625
1771706556.2554688,197.75390625,19.04296875,-12.6953125,214.84375,83.984375
1771706556.259375,188.4765625,22.4609375,-8.7890625,201.66015625,0.48828125
1771706556.2632813,170.8984375,14.16015625,-6.8359375,156.73828125,64.453125
1771706556.2671876,174.8046875,20.01953125,-9.765625,157.2265625,104.4921875
1771706556.2710938,173.33984375,20.5078125,-8.7890625,189.453125,27.34375
1771706556.274125,163.57421875,14.16015625,-5.859375,189.94140625,41.015625
1771706556.2780313,157.71484375,12.6953125,-5.859375,145.99609375,69.3359375
1771706556.2819376,156.73828125,20.01953125,0.0,127.44140625,31.73828125
1771706556.2858438,153.80859375,22.94921875,7.32421875,163.57421875,16.11328125
1771706556.28975,139.16015625,18.06640625,6.8359375,185.05859375,21.484375
1771706556.2936563,133.7890625,20.5078125,6.8359375,144.04296875,26.3671875
1771706556.2975626,132.32421875,22.4609375,2.44140625,106.4453125,19.53125
1771706556.3014688,129.39453125,18.5546875,5.37109375,136.71875,14.16015625
1771706556.305375,130.859375,24.90234375,13.671875,178.7109375,25.87890625
1771706556.3092813,123.53515625,20.99609375,15.625,148.4375,-0.9765625
1771706556.3131876,111.328125,9.765625,9.27734375,91.30859375,13.671875
1771706556.3170938,114.2578125,17.578125,9.27734375,101.5625,45.41015625
1771706556.318125,117.1875,21.484375,19.53125,146.97265625,71.2890625
1771706556.3220313,107.421875,18.5546875,19.04296875,136.23046875,46.38671875
1771706556.3259375,104.4921875,23.4375,14.16015625,87.890625,14.6484375
1771706556.3298438,114.2578125,27.34375,9.765625,83.984375,40.52734375
1771706556.33375,117.1875,22.94921875,6.34765625,127.9296875,43.45703125
1771706556.3376563,113.28125,23.92578125,13.671875,139.16015625,86.9140625
1771706556.3415625,110.3515625,25.87890625,18.5546875,87.40234375,83.0078125
1771706556.3454688,105.46875,30.2734375,20.5078125,58.10546875,16.11328125
1771706556.349375,99.12109375,37.59765625,17.578125,92.7734375,52.24609375
1771706556.3532813,101.07421875,34.1796875,21.484375,125.0,32.2265625
1771706556.3571875,99.12109375,32.71484375,28.3203125,91.30859375,29.78515625
1771706556.3610938,86.42578125,34.1796875,18.06640625,47.36328125,26.3671875
1771706556.378125,78.125,26.85546875,13.18359375,71.77734375,21.97265625
1771706556.3820312,79.58984375,25.390625,11.71875,113.28125,64.94140625
1771706556.3859375,79.1015625,27.34375,15.625,97.16796875,11.23046875
1771706556.3898437,75.1953125,30.76171875,24.4140625,53.22265625,-11.23046875
1771706556.39375,76.66015625,28.3203125,23.4375,55.17578125,25.87890625
1771706556.3976562,80.56640625,30.76171875,27.34375,97.65625,54.19921875
1771706556.4015625,75.68359375,37.109375,33.203125,95.703125,48.33984375
1771706556.4054687,62.01171875,33.203125,26.3671875,46.875,0.48828125
1771706556.409375,66.89453125,44.43359375,23.92578125,44.43359375,8.30078125
1771706556.4132812,70.80078125,46.875,21.484375,87.890625,30.76171875
1771706556.4171875,62.01171875,29.78515625,18.5546875,95.703125,63.4765625
1771706556.4210937,60.546875,21.97265625,22.4609375,53.7109375,56.640625
1771706556.423125,59.5703125,20.99609375,21.484375,32.2265625,1.46484375
1771706556.4270313,59.5703125,25.390625,21.97265625,69.82421875,4.39453125
1771706556.4309375,67.3828125,30.76171875,29.78515625,109.86328125,15.625
1771706556.4348438,66.89453125,35.15625,32.2265625,80.078125,50.29296875
1771706556.43875,61.5234375,41.9921875,34.66796875,32.71484375,14.6484375
1771706556.4426563,63.96484375,38.0859375,36.1328125,56.640625,-16.6015625
1771706556.4465625,62.01171875,38.57421875,28.3203125,95.21484375,25.87890625
1771706556.4504688,53.7109375,37.109375,26.85546875,73.2421875,31.25
1771706556.454375,48.828125,23.92578125,25.390625,26.85546875,30.76171875
1771706556.4582813,51.26953125,28.3203125,21.97265625,27.34375,20.99609375
1771706556.4621875,58.10546875,33.203125,25.87890625,71.2890625,-20.99609375
1771706556.4660938,62.5,36.62109375,30.76171875,81.0546875,-11.71875
1771706556.468125,50.29296875,36.62109375,21.484375,31.73828125,6.34765625
1771706556.4720314,45.8984375,33.203125,21.484375,13.18359375,44.921875
1771706556.4759376,56.15234375,32.71484375,34.66796875,63.4765625,101.07421875
1771706556.4798439,52.24609375,27.83203125,30.2734375,83.0078125,27.34375
1771706556.48375,46.38671875,32.71484375,28.3203125,44.43359375,43.9453125
1771706556.4876564,41.50390625,36.62109375,32.71484375,14.16015625,69.82421875
1771706556.4915626,41.50390625,34.66796875,27.34375,42.96875,14.16015625
1771706556.4954689,56.15234375,52.24609375,40.0390625,93.75,20.01953125
1771706556.499375,45.41015625,46.38671875,39.55078125,55.6640625,-10.7421875
1771706556.5032814,24.4140625,28.3203125,22.4609375,-1.953125,26.85546875
1771706556.5071876,29.78515625,33.69140625,31.73828125,23.92578125,71.2890625
1771706556.5110939,37.59765625,38.0859375,40.52734375,71.77734375,33.69140625
1771706556.513125,51.26953125,45.41015625,33.203125,73.2421875,33.69140625
1771706556.5170312,53.7109375,37.109375,38.57421875,43.9453125,71.77734375
1771706556.5209374,39.55078125,35.64453125,55.6640625,33.69140625,82.51953125
1771706556.5248437,38.57421875,56.15234375,58.10546875,60.546875,3.41796875
1771706556.52875,20.5078125,57.12890625,56.640625,51.7578125,-0.9765625
1771706556.5326562,-23.92578125,39.0625,57.6171875,-26.3671875,29.296875
1771706556.5365624,-49.31640625,32.71484375,57.6171875,-74.21875,15.13671875
1771706556.5404687,-38.57421875,41.50390625,61.5234375,-20.5078125,62.01171875
1771706556.544375,-46.38671875,47.36328125,77.63671875,5.859375,69.3359375
1771706556.5482812,-77.1484375,41.9921875,83.0078125,-65.91796875,-1.46484375
1771706556.5521874,-83.0078125,43.45703125,84.9609375,-103.515625,26.85546875
1771706556.5560937,-104.4921875,40.0390625,92.7734375,-86.9140625,32.71484375
1771706556.573125,-125.48828125,42.96875,92.7734375,-80.078125,28.80859375
1771706556.5770311,-132.8125,49.31640625,105.46875,-111.328125,23.92578125
1771706556.5809374,-148.92578125,46.38671875,111.328125,-163.0859375,-42.96875
1771706556.5848436,-166.015625,42.96875,106.93359375,-170.8984375,-9.27734375
1771706556.58875,-187.5,47.8515625,112.79296875,-138.18359375,83.49609375
1771706556.5926561,-199.21875,54.19921875,118.65234375,-148.4375,102.05078125
1771706556.5965624,-198.73046875,49.31640625,120.60546875,-195.3125,87.40234375
1771706556.6004686,-208.49609375,45.8984375,125.0,-212.890625,7.8125
1771706556.604375,-218.26171875,42.96875,122.0703125,-183.59375,-23.92578125
1771706556.6082811,-210.44921875,39.55078125,124.51171875,-156.73828125,20.99609375
1771706556.6121874,-201.171875,46.875,130.859375,-184.08203125,20.99609375
1771706556.6160936,-208.0078125,37.109375,122.0703125,-223.14453125,10.25390625
1771706556.603125,-208.49609375,20.99609375,117.67578125,-184.08203125,4.39453125
1771706556.6070313,-194.3359375,25.390625,125.9765625,-135.25390625,18.06640625
1771706556.6109376,-186.5234375,30.2734375,131.8359375,-159.66796875,28.3203125
1771706556.6148438,-170.8984375,31.73828125,119.62890625,-177.24609375,16.11328125
1771706556.61875,-143.06640625,33.203125,115.234375,-124.51171875,21.97265625
1771706556.6226563,-136.71875,35.15625,111.81640625,-75.68359375,0.0
1771706556.6265626,-137.20703125,37.59765625,91.796875,-99.12109375,-15.13671875
1771706556.6304688,-119.62890625,32.71484375,81.54296875,-130.37109375,4.8828125
1771706556.634375,-103.02734375,32.2265625,79.1015625,-107.421875,30.2734375
1771706556.6382813,-88.8671875,34.66796875,69.82421875,-46.38671875,62.01171875
1771706556.6421876,-62.98828125,30.76171875,65.91796875,-9.27734375,24.90234375
1771706556.6460938,-41.9921875,31.73828125,60.05859375,-34.66796875,-17.08984375
1771706556.648125,-36.1328125,25.390625,43.9453125,-45.41015625,-4.8828125
1771706556.6520312,-24.90234375,29.78515625,41.9921875,0.9765625,20.5078125
1771706556.6559374,-1.46484375,29.78515625,30.2734375,37.59765625,52.734375
1771706556.6598437,13.671875,26.3671875,21.484375,21.484375,23.92578125
1771706556.66375,14.6484375,32.71484375,17.578125,-3.90625,-6.34765625
1771706556.6676562,21.484375,31.73828125,6.8359375,32.71484375,26.3671875
1771706556.6715624,43.45703125,17.578125,2.44140625,83.984375,32.71484375
1771706556.6754687,62.98828125,17.08984375,-1.46484375,65.91796875,20.99609375
1771706556.679375,63.96484375,24.4140625,-5.859375,28.3203125,49.31640625
1771706556.6832812,71.2890625,25.390625,-1.953125,60.546875,38.57421875
1771706556.6871874,75.1953125,26.3671875,1.953125,116.2109375,18.06640625
1771706556.6910937,62.01171875,14.16015625,-4.8828125,98.14453125,43.9453125
1771706556.693125,71.2890625,26.3671875,1.46484375,68.84765625,22.4609375
1771706556.6970313,76.171875,31.25,-7.8125,75.68359375,-16.11328125
1771706556.7009375,75.1953125,10.7421875,-12.6953125,115.234375,3.90625
1771706556.7048438,83.49609375,10.25390625,0.9765625,136.23046875,47.8515625
1771706556.70875,76.171875,9.765625,-8.7890625,85.9375,44.921875
1771706556.7126563,79.58984375,13.671875,-13.671875,68.84765625,-14.6484375
1771706556.7165625,101.07421875,22.4609375,0.9765625,114.2578125,-3.41796875
1771706556.7204688,101.07421875,27.83203125,10.25390625,138.18359375,27.83203125
1771706556.724375,81.54296875,16.6015625,0.9765625,94.23828125,12.6953125
1771706556.7282813,82.51953125,9.27734375,-4.8828125,60.546875,3.90625
1771706556.7321875,95.703125,17.08984375,-0.48828125,93.75,-20.99609375
1771706556.7360938,105.95703125,28.80859375,3.41796875,133.7890625,7.8125
1771706556.739125,99.609375,29.78515625,0.0,106.4453125,10.25390625
1771706556.7430313,85.44921875,17.08984375,0.48828125,58.10546875,0.9765625
1771706556.7469375,87.40234375,17.578125,10.25390625,78.61328125,38.57421875
1771706556.7508438,99.12109375,20.99609375,5.37109375,126.46484375,55.17578125
1771706556.75475,93.75,21.97265625,-1.46484375,117.1875,-15.13671875
1771706556.7586563,81.54296875,22.94921875,3.41796875,70.3125,11.71875
1771706556.7625625,86.9140625,22.94921875,4.39453125,66.89453125,61.03515625
1771706556.7664688,92.7734375,21.484375,7.8125,113.76953125,15.13671875
1771706556.770375,91.30859375,24.90234375,13.671875,131.8359375,45.8984375
1771706556.7742813,83.49609375,27.34375,12.6953125,86.9140625,32.71484375
1771706556.7781875,80.56640625,35.15625,16.11328125,64.453125,37.109375
1771706556.7820938,85.44921875,31.73828125,12.20703125,103.515625,70.3125
1771706556.798125,79.1015625,17.08984375,4.8828125,124.51171875,38.57421875
1771706556.8020313,72.75390625,25.87890625,8.30078125,87.40234375,12.20703125
1771706556.8059375,70.80078125,26.85546875,11.23046875,55.17578125,0.48828125
1771706556.8098438,66.40625,21.97265625,7.8125,76.171875,19.53125
1771706556.81375,74.21875,22.94921875,11.23046875,112.3046875,-11.71875
1771706556.8176563,74.21875,30.76171875,17.08984375,91.796875,-41.015625
1771706556.8215625,72.75390625,28.80859375,21.484375,48.828125,20.99609375
1771706556.8254688,83.0078125,28.3203125,23.92578125,64.453125,44.43359375
1771706556.829375,85.9375,38.57421875,16.11328125,111.328125,78.125
1771706556.8332813,80.078125,28.80859375,7.8125,104.4921875,49.31640625
1771706556.8371875,77.1484375,27.34375,7.8125,51.7578125,41.015625
1771706556.8410938,73.2421875,32.2265625,14.6484375,47.36328125,52.734375
1771706556.843125,72.75390625,34.66796875,20.5078125,90.8203125,46.38671875
1771706556.8470314,63.96484375,32.71484375,16.11328125,99.12109375,63.96484375
1771706556.8509376,56.15234375,34.66796875,16.11328125,54.6875,44.921875
1771706556.8548439,58.10546875,37.109375,20.99609375,31.25,79.58984375
1771706556.85875,58.10546875,34.66796875,14.16015625,68.359375,47.8515625
1771706556.8626564,58.59375,37.109375,13.671875,102.5390625,-9.765625
1771706556.8665626,57.6171875,43.9453125,17.08984375,68.359375,21.484375
1771706556.8704689,50.29296875,35.15625,16.6015625,23.92578125,22.4609375
1771706556.874375,57.12890625,24.4140625,29.78515625,52.24609375,21.97265625
1771706556.8782814,65.4296875,29.78515625,29.296875,94.23828125,55.6640625
1771706556.8821876,55.17578125,31.25,17.578125,72.75390625,82.03125
1771706556.8860939,45.41015625,33.69140625,23.4375,30.76171875,59.5703125
1771706556.887125,43.9453125,45.8984375,20.01953125,34.66796875,20.99609375
1771706556.8910313,46.38671875,40.0390625,24.90234375,76.66015625,63.4765625
1771706556.8949375,37.59765625,31.73828125,37.109375,73.2421875,46.38671875
1771706556.8988438,24.90234375,32.71484375,32.71484375,18.06640625,-23.4375
1771706556.90275,26.3671875,29.78515625,36.1328125,6.34765625,5.859375
1771706556.9066563,25.87890625,31.25,34.66796875,49.31640625,22.4609375
1771706556.9105625,20.01953125,32.2265625,29.296875,62.01171875,47.36328125
1771706556.9144688,13.671875,39.0625,40.52734375,25.390625,63.4765625
1771706556.918375,16.6015625,47.36328125,50.29296875,1.953125,62.5
1771706556.9222813,15.625,48.828125,54.19921875,27.34375,30.2734375
1771706556.9261875,11.23046875,31.25,55.6640625,65.91796875,-0.9765625
1771706556.9300938,21.484375,34.66796875,51.26953125,47.36328125,20.5078125
1771706556.933125,9.765625,68.359375,41.9921875,-20.01953125,59.5703125
1771706556.9370313,-31.25,76.66015625,39.55078125,-48.33984375,65.4296875
1771706556.9409375,-47.8515625,70.80078125,59.5703125,-24.90234375,45.8984375
1771706556.9448438,-58.10546875,80.56640625,66.40625,-52.734375,42.96875
1771706556.94875,-86.42578125,84.47265625,61.03515625,-128.41796875,32.2265625
1771706556.9526563,-112.3046875,94.23828125,62.01171875,-153.80859375,43.9453125
1771706556.9565625,-128.41796875,100.09765625,62.5,-125.9765625,35.64453125
1771706556.9604688,-144.04296875,97.16796875,62.98828125,-129.8828125,12.6953125
1771706556.964375,-168.45703125,107.91015625,61.5234375,-199.21875,32.2265625
1771706556.9682813,-185.05859375,102.05078125,66.40625,-229.4921875,60.546875
1771706556.9721875,-189.94140625,97.65625,77.63671875,-186.5234375,32.71484375
1771706556.9760938,-209.9609375,112.3046875,83.0078125,-177.24609375,22.94921875
1771706556.978125,-234.375,113.28125,75.68359375,-233.88671875,36.62109375
1771706556.9820313,-229.00390625,117.67578125,78.125,-263.671875,40.52734375
1771706556.9859376,-204.58984375,121.09375,84.9609375,-222.16796875,40.52734375
1771706556.9898438,-197.75390625,121.58203125,80.56640625,-178.7109375,57.12890625
1771706556.99375,-213.37890625,119.140625,71.2890625,-206.54296875,73.73046875
1771706556.9976563,-205.078125,120.60546875,65.91796875,-237.3046875,35.64453125
1771706557.0015626,-190.4296875,117.1875,62.01171875,-213.8671875,47.36328125
1771706557.0054688,-184.08203125,113.28125,54.19921875,-179.6875,112.79296875
1771706557.009375,-168.9453125,116.69921875,62.01171875,-169.921875,113.28125
1771706557.0132813,-157.71484375,115.234375,59.08203125,-197.265625,72.75390625
1771706557.0171876,-147.94921875,116.2109375,40.0390625,-204.58984375,25.87890625
1771706557.0210938,-131.34765625,107.91015625,33.203125,-148.92578125,32.71484375
1771706557.023125,-112.79296875,110.3515625,30.76171875,-110.3515625,59.5703125
1771706557.0270312,-108.88671875,110.83984375,25.390625,-144.04296875,-10.25390625
1771706557.0309374,-103.02734375,91.796875,19.04296875,-148.92578125,10.25390625
1771706557.0348437,-80.078125,88.37890625,11.71875,-91.30859375,82.51953125
1771706557.03875,-49.31640625,92.28515625,5.37109375,-38.0859375,76.66015625
1771706557.0426562,-29.78515625,86.9140625,-2.44140625,-44.921875,101.5625
1771706557.0465624,-16.6015625,82.03125,-9.765625,-76.171875,79.58984375
1771706557.0504687,22.94921875,88.37890625,-8.7890625,-32.71484375,49.31640625
1771706557.054375,37.109375,78.125,-13.671875,43.45703125,76.171875
1771706557.0582812,16.6015625,56.640625,-15.625,41.015625,3.41796875
1771706557.0621874,15.13671875,54.6875,-18.06640625,-7.8125,14.6484375
1771706557.0660937,28.80859375,47.36328125,-28.80859375,5.37109375,71.77734375
1771706557.068125,41.9921875,44.921875,-27.83203125,68.359375,12.6953125
1771706557.0720313,53.7109375,40.52734375,-22.4609375,83.984375,3.41796875
1771706557.0759375,57.6171875,26.85546875,-24.90234375,42.48046875,23.4375
1771706557.0798438,63.4765625,27.34375,-27.34375,36.1328125,46.875
1771706557.08375,76.66015625,28.80859375,-23.92578125,93.75,20.5078125
1771706557.0876563,85.9375,28.3203125,-25.390625,118.1640625,31.25
1771706557.0915625,90.8203125,24.4140625,-22.4609375,77.1484375,58.59375
1771706557.0954688,100.5859375,12.6953125,-19.53125,58.10546875,31.73828125
1771706557.099375,119.62890625,11.71875,-19.53125,105.46875,15.625
1771706557.1032813,126.953125,22.94921875,-10.25390625,151.3671875,35.64453125
1771706557.1071875,124.51171875,21.97265625,-8.30078125,128.41796875,21.97265625
1771706557.1110938,123.53515625,13.671875,-16.11328125,90.8203125,-34.66796875
1771706557.115125,129.39453125,19.53125,-8.7890625,114.74609375,-14.16015625
1771706557.1190312,129.8828125,18.06640625,-5.859375,148.4375,29.78515625
1771706557.1229374,119.62890625,5.859375,-8.7890625,127.9296875,9.27734375
1771706557.1268437,116.69921875,0.9765625,-8.30078125,86.42578125,-27.34375
1771706557.13075,116.69921875,-1.46484375,-10.25390625,81.54296875,-14.6484375
1771706557.1346562,120.60546875,0.9765625,-5.37109375,123.046875,32.71484375
1771706557.1385624,123.046875,6.8359375,0.0,134.765625,29.296875
1771706557.1424687,110.83984375,5.859375,0.48828125,85.44921875,45.41015625
1771706557.146375,102.05078125,0.9765625,-2.44140625,66.89453125,27.83203125
1771706557.1502812,107.91015625,9.765625,5.37109375,115.72265625,-10.25390625
1771706557.1541874,104.00390625,17.08984375,14.6484375,139.16015625,0.9765625
1771706557.1580937,87.890625,11.23046875,4.8828125,97.16796875,13.671875
1771706557.173125,81.0546875,9.27734375,2.9296875,71.2890625,20.01953125
1771706557.1770313,86.9140625,8.30078125,6.34765625,102.5390625,0.48828125
1771706557.1809375,88.8671875,4.8828125,6.8359375,133.7890625,49.8046875
1771706557.1848438,82.51953125,9.27734375,3.90625,107.91015625,100.5859375
1771706557.18875,82.51953125,10.25390625,4.39453125,66.89453125,44.921875
1771706557.1926563,90.8203125,9.27734375,8.7890625,88.8671875,36.1328125
1771706557.1965625,97.16796875,15.625,8.30078125,136.23046875,76.171875
1771706557.2004688,96.6796875,14.6484375,14.16015625,122.55859375,41.50390625
1771706557.204375,87.40234375,11.71875,19.04296875,80.56640625,-4.8828125
1771706557.2082813,86.42578125,5.859375,14.16015625,78.125,-49.8046875
1771706557.2121875,92.7734375,13.18359375,14.6484375,115.72265625,-24.4140625
1771706557.2160938,88.37890625,22.94921875,13.671875,129.8828125,50.78125
1771706557.218125,84.9609375,14.6484375,12.6953125,87.40234375,46.38671875
1771706557.2220314,93.75,12.20703125,15.13671875,72.75390625,28.80859375
1771706557.2259376,108.3984375,22.94921875,18.06640625,121.09375,60.05859375
1771706557.2298439,114.2578125,23.4375,19.04296875,141.11328125,60.05859375
1771706557.23375,106.4453125,15.13671875,22.4609375,105.95703125,61.03515625
1771706557.2376564,107.421875,25.390625,20.99609375,78.61328125,42.48046875
1771706557.2415626,110.3515625,35.15625,18.06640625,104.4921875,83.0078125
1771706557.2454689,96.19140625,21.97265625,14.6484375,129.39453125,102.05078125
1771706557.249375,88.37890625,13.671875,10.7421875,99.12109375,64.94140625
1771706557.2532814,83.984375,18.5546875,12.20703125,55.17578125,72.265625
1771706557.2571876,85.9375,19.53125,15.13671875,68.84765625,81.0546875
1771706557.2610939,84.9609375,18.06640625,15.13671875,115.72265625,63.4765625
1771706557.263125,83.984375,21.97265625,17.08984375,112.3046875,56.640625
1771706557.2670312,80.078125,28.3203125,20.01953125,67.3828125,-4.39453125
1771706557.2709374,82.51953125,28.3203125,21.484375,59.08203125,7.32421875
1771706557.2748437,86.9140625,21.97265625,25.390625,108.3984375,30.76171875
1771706557.27875,78.125,20.01953125,25.87890625,122.0703125,0.0
1771706557.2826562,72.265625,18.5546875,24.4140625,77.63671875,8.30078125
1771706557.2865624,67.87109375,15.13671875,21.484375,57.12890625,13.18359375
1771706557.2904687,69.3359375,19.04296875,27.34375,91.30859375,40.0390625
1771706557.294375,76.66015625,23.4375,32.2265625,116.69921875,84.47265625
1771706557.2982812,64.94140625,24.90234375,23.4375,75.68359375,80.56640625
1771706557.3021874,55.6640625,26.85546875,26.3671875,44.43359375,50.29296875
1771706557.3060937,67.87109375,31.25,35.15625,81.54296875,25.87890625
1771706557.308125,63.96484375,27.34375,28.3203125,107.91015625,4.8828125
1771706557.3120313,48.828125,20.01953125,21.97265625,79.58984375,0.0
1771706557.3159375,59.08203125,33.203125,28.3203125,45.41015625,16.11328125
1771706557.3198438,59.5703125,36.1328125,32.71484375,51.7578125,21.484375
1771706557.32375,49.8046875,24.90234375,31.73828125,89.35546875,13.671875
1771706557.3276563,52.24609375,31.73828125,29.78515625,89.84375,23.4375
1771706557.3315625,48.828125,35.64453125,33.69140625,43.9453125,27.83203125
1771706557.3354688,41.9921875,34.66796875,39.55078125,23.4375,-14.16015625
1771706557.339375,38.0859375,42.96875,42.48046875,53.7109375,50.78125
1771706557.3432813,31.25,46.38671875,43.9453125,68.359375,135.7421875
1771706557.3471875,19.04296875,46.38671875,38.0859375,25.390625,101.5625
1771706557.3510938,0.48828125,49.8046875,36.62109375,-14.16015625,40.52734375
1771706557.354125,-5.859375,51.7578125,41.015625,14.6484375,54.6875
1771706557.3580313,-5.37109375,58.10546875,48.33984375,38.57421875,42.96875
1771706557.3619375,-3.41796875,52.734375,42.96875,7.32421875,31.73828125
1771706557.3658438,3.90625,51.26953125,43.9453125,-11.71875,29.296875
1771706557.36975,-22.4609375,60.546875,62.98828125,-8.7890625,6.34765625
1771706557.3736563,-62.5,70.80078125,67.3828125,-11.71875,34.1796875
1771706557.3775625,-84.9609375,71.77734375,64.94140625,-48.33984375,33.203125
1771706557.3814688,-116.69921875,77.63671875,62.01171875,-118.65234375,-24.4140625
1771706557.385375,-147.4609375,89.35546875,69.3359375,-143.06640625,-53.7109375
1771706557.3892813,-167.96875,90.8203125,81.54296875,-117.67578125,25.390625
1771706557.3931875,-185.05859375,88.8671875,88.8671875,-127.44140625,87.890625
1771706557.3970938,-220.21484375,92.28515625,95.703125,-206.0546875,70.3125
1771706557.399125,-245.1171875,92.28515625,96.19140625,-247.55859375,43.9453125
1771706557.4030313,-250.0,93.75,109.86328125,-210.9375,4.39453125
1771706557.4069376,-260.7421875,100.09765625,120.1171875,-199.21875,57.12890625
1771706557.4108438,-270.99609375,92.28515625,121.58203125,-241.2109375,77.63671875
1771706557.41475,-290.52734375,75.1953125,125.48828125,-285.64453125,55.17578125
1771706557.4186563,-271.97265625,72.75390625,123.046875,-243.65234375,45.41015625
1771706557.4225626,-259.27734375,75.68359375,126.46484375,-196.77734375,13.18359375
1771706557.4264688,-268.5546875,72.265625,126.953125,-223.14453125,25.87890625
1771706557.430375,-255.859375,62.01171875,117.1875,-244.140625,12.20703125
1771706557.4342813,-241.69921875,54.19921875,112.79296875,-222.16796875,-35.15625
1771706557.4381876,-206.54296875,68.84765625,106.4453125,-159.66796875,-32.71484375
1771706557.4420938,-190.4296875,78.125,99.609375,-148.4375,23.92578125
1771706557.443125,-193.359375,56.15234375,89.35546875,-189.453125,28.80859375
1771706557.4470313,-165.0390625,38.57421875,77.1484375,-171.38671875,-0.48828125
1771706557.4509375,-139.16015625,30.2734375,71.77734375,-114.2578125,51.26953125
1771706557.4548438,-121.09375,29.296875,64.453125,-78.61328125,93.75
1771706557.45875,-118.65234375,27.34375,51.7578125,-108.3984375,44.43359375
1771706557.4626563,-114.74609375,13.671875,44.43359375,-125.0,62.5
1771706557.4665625,-77.63671875,13.671875,43.9453125,-54.6875,70.3125
1771706557.4704688,-52.734375,22.4609375,38.57421875,-13.671875,36.1328125
1771706557.474375,-52.24609375,17.578125,30.76171875,-40.52734375,50.29296875
1771706557.4782813,-33.69140625,8.7890625,25.390625,-46.38671875,63.96484375
1771706557.4821875,-7.32421875,2.9296875,20.01953125,4.8828125,53.22265625
1771706557.4860938,2.9296875,-10.7421875,19.04296875,50.29296875,29.78515625
1771706557.503125,6.34765625,-20.5078125,14.16015625,39.55078125,84.9609375
1771706557.5070312,27.83203125,-3.41796875,9.765625,23.4375,104.98046875
1771706557.5109375,48.828125,0.0,9.765625,45.8984375,69.82421875
1771706557.5148437,58.59375,-9.27734375,10.25390625,94.7265625,21.484375
1771706557.51875,62.5,-11.23046875,0.0,103.02734375,87.40234375
1771706557.5226562,63.4765625,-14.16015625,-3.41796875,65.91796875,87.40234375
1771706557.5265625,76.66015625,-14.6484375,4.39453125,67.3828125,27.34375
1771706557.5304687,91.30859375,-0.9765625,4.39453125,122.55859375,63.4765625
1771706557.534375,97.16796875,-0.48828125,0.0,150.87890625,23.92578125
1771706557.5382812,100.5859375,-12.20703125,3.41796875,116.69921875,44.43359375
1771706557.5421875,94.23828125,-8.7890625,8.30078125,88.37890625,67.87109375
1771706557.5460937,110.3515625,-1.953125,8.7890625,126.953125,89.35546875
1771706557.548125,116.69921875,-2.44140625,7.32421875,156.73828125,39.55078125
1771706557.5520313,103.02734375,-8.30078125,5.859375,120.60546875,14.16015625
1771706557.5559375,105.46875,0.9765625,11.23046875,95.703125,72.75390625
1771706557.5598438,113.76953125,9.765625,18.5546875,132.32421875,62.5
1771706557.56375,118.1640625,-2.44140625,11.71875,161.1328125,49.31640625
1771706557.5676563,116.69921875,-4.39453125,4.8828125,135.7421875,21.97265625
1771706557.5715625,105.46875,1.46484375,4.8828125,92.28515625,-20.99609375
1771706557.5754688,101.07421875,-1.953125,7.32421875,98.14453125,-18.5546875
1771706557.579375,102.5390625,-5.859375,12.20703125,142.08984375,27.34375
1771706557.5832813,105.46875,4.39453125,9.765625,140.625,36.62109375
1771706557.5871875,104.00390625,5.859375,4.8828125,86.42578125,36.62109375
1771706557.5910938,107.421875,10.25390625,7.32421875,77.1484375,20.99609375
1771706557.593125,121.09375,15.625,8.30078125,125.0,-22.94921875
1771706557.5970314,125.0,20.99609375,11.71875,149.90234375,11.23046875
1771706557.6009376,114.74609375,18.06640625,10.25390625,114.2578125,56.15234375
1771706557.6048439,108.3984375,13.18359375,6.8359375,83.984375,0.9765625
1771706557.60875,112.3046875,21.484375,15.13671875,118.65234375,32.71484375
1771706557.6126564,122.55859375,32.2265625,23.92578125,157.71484375,124.51171875
1771706557.6165626,118.1640625,26.85546875,12.20703125,121.58203125,20.5078125
1771706557.6204689,107.421875,13.671875,5.37109375,80.078125,-11.23046875
1771706557.624375,121.09375,26.3671875,13.671875,106.4453125,36.1328125
1771706557.6282814,109.375,26.85546875,13.18359375,134.765625,83.0078125
1771706557.6321876,89.84375,13.18359375,14.16015625,115.72265625,63.96484375
1771706557.6360939,86.9140625,14.6484375,17.578125,77.63671875,4.39453125
1771706557.638125,93.26171875,18.5546875,14.16015625,83.49609375,2.44140625
1771706557.6420312,107.421875,26.85546875,16.6015625,121.09375,23.92578125
1771706557.6459374,106.4453125,33.69140625,20.5078125,128.41796875,39.55078125
1771706557.6498437,102.5390625,35.15625,23.4375,87.40234375,37.109375
1771706557.65375,98.14453125,29.78515625,20.99609375,67.87109375,43.9453125
1771706557.6576562,99.12109375,9.27734375,19.04296875,112.3046875,28.3203125
1771706557.6615624,107.91015625,4.8828125,28.80859375,137.6953125,39.0625
1771706557.6654687,96.19140625,24.90234375,27.83203125,102.5390625,17.578125
1771706557.669375,87.40234375,31.25,17.578125,68.359375,28.80859375
1771706557.6732812,96.19140625,33.69140625,19.53125,94.23828125,19.04296875
1771706557.6771874,89.84375,35.15625,20.01953125,126.953125,1.46484375
1771706557.6810937,84.47265625,34.66796875,22.4609375,103.515625,37.59765625
1771706557.683125,93.26171875,46.875,26.85546875,71.2890625,-26.85546875
1771706557.6870313,88.37890625,38.57421875,18.06640625,85.44921875,-23.4375
1771706557.6909375,78.125,24.90234375,20.5078125,115.234375,8.7890625
1771706557.6948438,77.63671875,28.3203125,21.97265625,101.07421875,7.32421875
1771706557.69875,70.80078125,26.85546875,20.01953125,59.5703125,-19.53125
1771706557.7026563,71.2890625,27.83203125,29.296875,66.89453125,17.578125
1771706557.7065625,73.73046875,29.78515625,29.296875,104.4921875,65.4296875
1771706557.7104688,63.96484375,28.3203125,20.01953125,100.09765625,-1.953125
1771706557.714375,59.08203125,29.296875,19.04296875,60.546875,4.39453125
1771706557.7182813,60.05859375,36.62109375,20.01953125,48.33984375,103.515625
1771706557.7221875,70.3125,40.52734375,22.4609375,88.8671875,100.5859375
1771706557.7260938,70.80078125,38.0859375,23.4375,108.88671875,33.203125
1771706557.727125,59.5703125,31.73828125,23.92578125,70.80078125,19.53125
1771706557.7310312,59.08203125,32.2265625,26.3671875,41.015625,23.4375
1771706557.7349374,73.73046875,44.921875,34.1796875,77.1484375,29.296875
1771706557.7388437,79.1015625,48.828125,30.2734375,108.3984375,42.48046875
1771706557.74275,61.5234375,33.203125,22.4609375,76.66015625,41.9921875
1771706557.7466562,55.6640625,30.2734375,19.53125,38.57421875,49.8046875
1771706557.7505624,59.08203125,32.71484375,19.53125,55.17578125,44.921875
1771706557.7544687,69.3359375,41.50390625,32.2265625,99.609375,53.7109375
1771706557.758375,70.3125,49.31640625,42.48046875,94.7265625,50.78125
1771706557.7622812,50.29296875,41.9921875,37.109375,48.33984375,-4.39453125
1771706557.7661874,47.8515625,38.57421875,29.296875,38.0859375,37.109375
1771706557.7700937,50.78125,42.96875,31.73828125,70.80078125,96.19140625
1771706557.773125,42.48046875,45.41015625,38.0859375,81.54296875,86.9140625
1771706557.7770312,30.76171875,44.43359375,34.66796875,37.59765625,59.5703125
1771706557.7809374,23.92578125,43.45703125,37.109375,5.37109375,17.578125
1771706557.7848437,26.85546875,57.6171875,41.015625,36.1328125,32.71484375
1771706557.78875,23.92578125,66.40625,41.9921875,57.6171875,40.0390625
1771706557.7926562,-1.46484375,47.36328125,38.0859375,12.20703125,17.578125
1771706557.7965624,-3.41796875,41.9921875,43.9453125,-23.4375,27.34375
1771706557.8004687,-1.46484375,49.31640625,50.78125,-7.8125,42.96875
1771706557.804375,-11.71875,55.6640625,48.33984375,20.01953125,51.7578125
1771706557.8082812,-19.53125,60.546875,47.8515625,-2.9296875,55.6640625
1771706557.8121874,-23.4375,53.22265625,46.38671875,-41.9921875,17.08984375
1771706557.8160937,-11.23046875,53.7109375,51.7578125,-24.4140625,-20.01953125
1771706557.818125,-33.203125,69.82421875,54.19921875,-10.7421875,36.62109375
1771706557.8220313,-69.82421875,83.984375,53.7109375,-37.109375,58.59375
1771706557.8259375,-84.47265625,89.84375,67.3828125,-82.51953125,41.015625
1771706557.8298438,-119.140625,83.49609375,70.80078125,-123.046875,31.25
1771706557.83375,-143.06640625,83.49609375,58.59375,-111.81640625,29.78515625
1771706557.8376563,-137.6953125,93.75,65.91796875,-93.26171875,54.19921875
1771706557.8415625,-142.578125,98.14453125,76.66015625,-137.20703125,63.4765625
1771706557.8454688,-167.96875,102.05078125,77.63671875,-184.5703125,35.64453125
1771706557.849375,-181.15234375,108.88671875,87.40234375,-170.41015625,54.19921875
1771706557.8532813,-182.12890625,108.88671875,95.703125,-148.92578125,57.12890625
1771706557.8571875,-187.5,109.86328125,92.7734375,-178.22265625,29.78515625
1771706557.8610938,-204.58984375,100.09765625,85.44921875,-226.5625,61.03515625
1771706557.878125,-208.984375,98.14453125,84.9609375,-210.9375,-1.46484375
1771706557.8820312,-188.96484375,105.95703125,95.21484375,-154.78515625,-7.32421875
1771706557.8859375,-184.08203125,96.19140625,87.40234375,-156.25,15.13671875
1771706557.8898437,-191.89453125,77.1484375,76.66015625,-191.40625,12.20703125
1771706557.89375,-172.8515625,75.68359375,75.1953125,-177.24609375,61.5234375
1771706557.8976562,-152.83203125,92.7734375,64.94140625,-132.8125,59.08203125
1771706557.9015625,-144.53125,96.6796875,60.546875,-120.1171875,34.66796875
1771706557.9054687,-126.953125,83.984375,62.5,-132.8125,21.97265625
1771706557.909375,-120.1171875,48.828125,59.5703125,-131.8359375,10.7421875
1771706557.9132812,-89.35546875,49.8046875,48.33984375,-83.0078125,-20.99609375
1771706557.9171875,-70.80078125,68.84765625,28.3203125,-48.828125,35.64453125
1771706557.9210937,-76.171875,62.01171875,18.06640625,-70.3125,76.171875
1771706557.923125,-53.7109375,45.8984375,12.20703125,-76.66015625,53.7109375
1771706557.9270313,-32.71484375,40.52734375,11.23046875,-26.85546875,31.25
1771706557.9309375,-26.3671875,44.921875,10.25390625,9.765625,47.36328125
1771706557.9348438,-18.5546875,41.50390625,6.34765625,-3.90625,89.35546875
1771706557.93875,-13.671875,30.76171875,-2.44140625,-25.390625,68.359375
1771706557.9426563,13.18359375,24.90234375,-1.953125,16.11328125,59.08203125
1771706557.9465625,45.41015625,21.484375,0.0,70.80078125,86.9140625
1771706557.9504688,45.41015625,22.94921875,0.9765625,69.3359375,73.73046875
1771706557.954375,47.36328125,32.2265625,2.44140625,45.8984375,44.921875
1771706557.9582813,57.6171875,7.32421875,-6.34765625,46.875,4.39453125
1771706557.9621875,73.2421875,-0.9765625,-2.9296875,94.7265625,-15.13671875
1771706557.9660938,88.8671875,13.671875,1.953125,121.09375,9.27734375
1771706557.968125,84.47265625,15.13671875,-2.44140625,91.30859375,-8.30078125
1771706557.9720314,82.03125,12.20703125,-3.90625,80.56640625,11.23046875
1771706557.9759376,93.26171875,10.7421875,-4.39453125,119.62890625,87.890625
1771706557.9798439,106.4453125,14.16015625,-1.46484375,144.04296875,89.35546875
1771706557.98375,107.91015625,13.671875,-0.9765625,114.2578125,46.38671875
1771706557.9876564,101.07421875,12.6953125,1.46484375,86.9140625,50.78125
1771706557.9915626,105.46875,11.71875,4.39453125,122.0703125,84.47265625
1771706557.9954689,113.28125,9.765625,6.34765625,153.80859375,80.56640625
1771706557.999375,109.86328125,13.671875,6.34765625,130.859375,63.4765625
1771706558.0032814,102.05078125,5.859375,4.39453125,101.07421875,55.6640625
1771706558.0071876,115.234375,15.13671875,9.765625,131.8359375,71.2890625
1771706558.0110939,126.46484375,36.1328125,16.11328125,177.24609375,49.31640625
1771706558.014125,118.65234375,23.92578125,17.578125,162.109375,-3.41796875
1771706558.0180314,114.2578125,7.32421875,10.25390625,124.51171875,47.8515625
1771706558.0219376,115.234375,5.859375,2.9296875,117.1875,50.78125
1771706558.0258439,116.2109375,13.18359375,7.8125,145.99609375,3.41796875
1771706558.02975,105.46875,19.04296875,5.859375,156.73828125,50.78125
1771706558.0336564,100.09765625,15.13671875,4.39453125,122.0703125,23.4375
1771706558.0375626,103.515625,17.08984375,13.18359375,105.95703125,-3.90625
1771706558.0414689,104.4921875,17.578125,12.20703125,133.7890625,41.015625
1771706558.045375,112.3046875,21.97265625,10.25390625,157.2265625,66.40625
1771706558.0492814,120.1171875,40.0390625,18.5546875,141.11328125,98.6328125
1771706558.0531876,112.79296875,32.2265625,19.04296875,118.1640625,96.19140625
1771706558.0570939,108.3984375,16.6015625,12.20703125,122.55859375,83.0078125
1771706558.058125,110.3515625,20.01953125,6.8359375,146.484375,53.7109375
1771706558.0620313,110.3515625,27.34375,8.7890625,143.06640625,-20.5078125
1771706558.0659375,101.07421875,23.92578125,9.765625,106.4453125,-7.32421875
1771706558.0698438,107.421875,21.484375,13.18359375,113.28125,11.23046875
1771706558.07375,115.234375,28.80859375,16.11328125,147.94921875,32.2265625
1771706558.0776563,95.703125,32.2265625,13.671875,142.578125,44.921875
1771706558.0815625,87.40234375,33.203125,15.13671875,104.00390625,5.37109375
1771706558.0854688,98.14453125,42.48046875,22.4609375,100.09765625,14.6484375
1771706558.089375,95.21484375,45.41015625,19.53125,131.34765625,20.99609375
1771706558.0932813,80.078125,29.78515625,11.23046875,131.8359375,17.578125
1771706558.0971875,74.70703125,25.87890625,17.08984375,103.515625,41.50390625
1771706558.1010938,71.2890625,23.92578125,14.6484375,78.61328125,40.0390625
1771706558.103125,76.171875,25.390625,13.18359375,98.6328125,19.53125
1771706558.1070313,87.40234375,38.0859375,23.4375,129.8828125,83.49609375
1771706558.1109376,83.0078125,47.8515625,21.97265625,109.375,75.68359375
1771706558.1148438,68.84765625,35.64453125,13.18359375,62.98828125,42.96875
1771706558.11875,67.87109375,28.80859375,15.625,61.5234375,22.4609375
1771706558.1226563,66.40625,31.73828125,20.01953125,86.9140625,83.49609375
1771706558.1265626,49.8046875,31.25,20.99609375,69.82421875,143.06640625
1771706558.1304688,37.59765625,29.296875,24.4140625,29.296875,87.890625
1771706558.134375,33.203125,30.2734375,25.87890625,18.5546875,87.890625
1771706558.1382813,30.2734375,34.66796875,24.90234375,39.0625,63.4765625
1771706558.1421876,21.97265625,41.50390625,33.69140625,39.55078125,48.33984375
1771706558.1460938,-1.46484375,44.43359375,39.0625,-11.71875,95.703125
1771706558.148125,-18.06640625,53.7109375,39.0625,-35.64453125,69.82421875
1771706558.1520312,-20.5078125,53.22265625,36.1328125,-11.23046875,17.578125
1771706558.1559374,-23.92578125,44.43359375,31.73828125,-9.27734375,30.2734375
1771706558.1598437,-31.73828125,57.12890625,36.1328125,-36.62109375,15.625
1771706558.16375,-44.43359375,67.3828125,40.52734375,-63.96484375,5.859375
1771706558.1676562,-38.57421875,71.77734375,40.52734375,-46.875,-9.765625
1771706558.1715624,-48.828125,75.68359375,41.015625,-40.0390625,2.9296875
1771706558.1754687,-70.3125,79.58984375,49.8046875,-68.359375,40.52734375
1771706558.179375,-68.84765625,84.47265625,47.36328125,-93.26171875,64.94140625
1771706558.1832812,-88.8671875,91.796875,50.78125,-95.21484375,72.265625
1771706558.1871874,-146.484375,90.8203125,64.94140625,-103.515625,49.31640625
1771706558.1910937,-180.6640625,89.84375,76.66015625,-141.11328125,41.50390625
1771706558.193125,-187.5,92.7734375,89.84375,-172.8515625,7.32421875
1771706558.1970313,-175.78125,84.47265625,98.6328125,-165.52734375,-37.59765625
1771706558.2009375,-183.59375,81.0546875,107.91015625,-142.578125,0.48828125
1771706558.2048438,-192.3828125,87.40234375,111.328125,-143.06640625,34.66796875
1771706558.20875,-175.78125,83.0078125,124.0234375,-159.1796875,31.73828125
1771706558.2126563,-177.734375,75.1953125,136.23046875,-165.0390625,39.0625
1771706558.2165625,-169.921875,63.4765625,121.09375,-138.18359375,62.5
1771706558.2204688,-157.71484375,64.453125,120.1171875,-108.3984375,-2.44140625
1771706558.224375,-171.875,58.59375,123.046875,-133.7890625,0.0
1771706558.2282813,-150.390625,35.15625,112.79296875,-138.671875,38.57421875
1771706558.2321875,-128.90625,30.2734375,114.2578125,-103.02734375,1.953125
1771706558.2360938,-121.58203125,28.80859375,112.3046875,-64.453125,15.625
1771706558.239125,-102.05078125,22.4609375,105.46875,-48.828125,15.625
1771706558.2430313,-92.7734375,22.94921875,99.609375,-73.2421875,24.90234375
1771706558.2469375,-71.77734375,23.92578125,89.35546875,-45.8984375,45.41015625
1771706558.2508438,-40.0390625,15.13671875,77.1484375,21.484375,51.7578125
1771706558.25475,-32.71484375,5.37109375,63.4765625,28.80859375,36.1328125
1771706558.2586563,-12.6953125,4.39453125,53.7109375,3.90625,55.17578125
1771706558.2625625,23.92578125,8.7890625,50.78125,20.99609375,41.9921875
1771706558.2664688,39.0625,9.765625,43.9453125,63.96484375,28.80859375
1771706558.270375,50.29296875,8.30078125,28.80859375,90.33203125,6.34765625
1771706558.2742813,51.7578125,0.48828125,15.13671875,68.84765625,-2.44140625
1771706558.2781875,62.5,-4.8828125,7.8125,49.31640625,0.9765625
1771706558.2820938,84.9609375,-0.48828125,4.8828125,84.9609375,16.11328125
1771706558.300125,104.00390625,17.578125,11.71875,128.41796875,0.48828125
1771706558.3040311,103.515625,14.6484375,7.8125,110.83984375,-6.34765625
1771706558.3079374,90.33203125,-7.32421875,-6.34765625,81.0546875,41.9921875
1771706558.3118436,99.12109375,-3.41796875,-1.46484375,110.3515625,22.94921875
1771706558.31575,110.83984375,-0.9765625,2.44140625,144.04296875,6.34765625
1771706558.3196561,121.09375,3.90625,2.9296875,139.6484375,22.4609375
1771706558.3235624,125.48828125,0.9765625,-5.859375,99.609375,33.203125
1771706558.3274686,118.1640625,-4.39453125,-6.8359375,104.98046875,23.92578125
1771706558.331375,124.0234375,-1.46484375,4.8828125,151.85546875,25.87890625
1771706558.3352811,117.1875,2.44140625,-0.9765625,147.94921875,50.78125
1771706558.3391874,111.328125,5.859375,-3.41796875,112.3046875,6.34765625
1771706558.3430936,111.328125,5.37109375,-3.41796875,101.07421875,25.87890625
1771706558.343125,108.88671875,-0.9765625,-7.32421875,125.9765625,28.80859375
1771706558.3470314,104.4921875,-3.41796875,-1.953125,136.71875,-20.5078125
1771706558.3509376,103.515625,0.48828125,2.44140625,108.88671875,10.7421875
1771706558.3548439,105.46875,7.32421875,1.46484375,96.19140625,15.625
1771706558.35875,110.83984375,-1.953125,4.39453125,109.375,14.16015625
1771706558.3626564,110.3515625,-9.765625,5.859375,122.0703125,0.0
1771706558.3665626,107.421875,-1.953125,2.44140625,108.3984375,-14.6484375
1771706558.3704689,121.09375,7.8125,1.953125,85.44921875,-23.92578125
1771706558.374375,121.09375,7.32421875,4.39453125,97.65625,17.578125
1771706558.3782814,110.3515625,1.46484375,10.25390625,121.09375,11.23046875
1771706558.3821876,113.76953125,3.41796875,12.20703125,115.234375,-3.90625
1771706558.3860939,116.2109375,12.6953125,14.16015625,86.42578125,-8.7890625
1771706558.388125,126.953125,16.11328125,17.08984375,83.0078125,-0.48828125
1771706558.3920312,120.60546875,10.7421875,10.25390625,108.88671875,40.52734375
1771706558.3959374,101.07421875,11.71875,7.32421875,106.93359375,18.06640625
1771706558.3998437,95.21484375,20.99609375,13.671875,67.87109375,8.30078125
1771706558.40375,88.37890625,21.97265625,16.11328125,43.9453125,-42.96875
1771706558.4076562,94.7265625,22.4609375,20.99609375,65.4296875,-79.58984375
1771706558.4115624,85.9375,21.97265625,25.87890625,79.58984375,-77.63671875
1771706558.4154687,68.359375,15.625,21.484375,46.38671875,-43.9453125
1771706558.419375,62.98828125,17.08984375,14.16015625,16.6015625,24.90234375
1771706558.4232812,68.359375,25.390625,15.625,34.66796875,37.109375
1771706558.4271874,79.58984375,28.3203125,20.5078125,59.08203125,35.64453125
1771706558.4310937,66.40625,23.92578125,21.97265625,31.73828125,-21.97265625
1771706558.433125,53.7109375,30.76171875,29.78515625,-2.44140625,35.64453125
1771706558.4370313,55.6640625,34.1796875,36.1328125,-0.48828125,80.078125
1771706558.4409375,56.15234375,32.2265625,38.0859375,20.01953125,16.6015625
1771706558.4448438,43.9453125,27.83203125,36.62109375,-3.41796875,18.06640625
1771706558.44875,18.5546875,31.25,29.296875,-48.828125,33.69140625
1771706558.4526563,1.46484375,45.41015625,32.71484375,-52.24609375,1.953125
1771706558.4565625,11.23046875,46.38671875,41.9921875,-28.3203125,-8.30078125
1771706558.4604688,4.39453125,47.36328125,45.8984375,-19.53125,60.05859375
1771706558.464375,-20.5078125,47.8515625,47.36328125,-63.96484375,70.3125
1771706558.4682813,-25.390625,47.8515625,52.24609375,-83.984375,41.015625
1771706558.4721875,-23.92578125,56.640625,54.19921875,-63.96484375,27.83203125
1771706558.4760938,-41.50390625,52.24609375,56.640625,-61.5234375,7.32421875
1771706558.480125,-56.15234375,47.36328125,63.4765625,-79.1015625,-4.39453125
1771706558.4840312,-53.7109375,65.4296875,69.3359375,-103.515625,-28.80859375
1771706558.4879375,-87.40234375,72.265625,73.73046875,-108.3984375,8.30078125
1771706558.4918437,-117.1875,71.77734375,74.70703125,-120.1171875,41.50390625
1771706558.49575,-108.3984375,82.51953125,77.63671875,-141.6015625,-20.01953125
1771706558.4996562,-106.4453125,87.890625,83.0078125,-182.12890625,-6.8359375
1771706558.5035625,-115.72265625,76.171875,85.9375,-198.2421875,47.8515625
1771706558.5074687,-120.1171875,71.2890625,95.21484375,-162.109375,36.1328125
1771706558.511375,-112.79296875,84.9609375,97.65625,-161.62109375,8.7890625
1771706558.5152812,-137.20703125,80.56640625,93.26171875,-199.21875,-15.13671875
1771706558.5191875,-147.94921875,83.0078125,88.37890625,-207.51953125,-21.97265625
1771706558.5230937,-135.25390625,83.0078125,91.796875,-171.875,11.23046875
1771706558.524125,-128.90625,74.21875,100.5859375,-147.4609375,42.96875
1771706558.5280313,-133.7890625,70.80078125,100.09765625,-173.828125,19.04296875
1771706558.5319376,-129.8828125,64.453125,95.703125,-190.91796875,37.59765625
1771706558.5358438,-108.3984375,60.546875,79.58984375,-162.59765625,75.1953125
1771706558.53975,-90.33203125,65.4296875,71.2890625,-120.60546875,56.15234375
1771706558.5436563,-79.58984375,60.05859375,70.80078125,-117.67578125,46.875
1771706558.5475626,-83.49609375,50.29296875,62.98828125,-143.5546875,7.8125
1771706558.5514688,-62.98828125,49.31640625,61.5234375,-107.91015625,6.8359375
1771706558.555375,-33.203125,56.640625,57.6171875,-50.78125,-3.41796875
1771706558.5592813,-24.4140625,51.7578125,46.38671875,-62.5,33.69140625
1771706558.5631876,-19.53125,42.96875,37.109375,-82.03125,40.52734375
1771706558.5670938,12.6953125,39.55078125,33.203125,-49.31640625,-45.8984375
1771706558.569125,38.57421875,32.71484375,20.99609375,-4.39453125,-47.36328125
1771706558.5730312,41.50390625,27.83203125,6.8359375,13.18359375,-3.90625
1771706558.5769374,50.29296875,27.34375,0.48828125,-3.41796875,3.90625
1771706558.5808437,62.01171875,26.85546875,-11.23046875,-12.6953125,-6.34765625
1771706558.58475,79.1015625,30.2734375,-14.6484375,39.55078125,10.25390625
1771706558.5886562,80.078125,32.2265625,-14.6484375,80.56640625,14.6484375
1771706558.5925624,78.61328125,20.5078125,-22.94921875,41.9921875,42.96875
1771706558.5964687,86.9140625,25.390625,-23.92578125,21.484375,45.8984375
1771706558.600375,89.35546875,34.1796875,-23.92578125,66.40625,7.8125
1771706558.6042812,98.6328125,22.94921875,-22.4609375,103.515625,1.46484375
1771706558.6081874,98.14453125,15.625,-16.11328125,82.03125,-13.671875
1771706558.6120937,101.5625,19.04296875,-17.08984375,57.12890625,24.4140625
1771706558.628125,105.46875,11.71875,-27.34375,67.87109375,-14.16015625
1771706558.6320312,104.00390625,6.8359375,-29.296875,99.12109375,-15.625
1771706558.6359375,104.98046875,13.18359375,-29.78515625,96.19140625,22.4609375
1771706558.6398437,106.93359375,13.671875,-29.296875,58.10546875,18.06640625
1771706558.64375,110.83984375,10.25390625,-29.78515625,59.5703125,50.29296875
1771706558.6476562,119.140625,15.13671875,-20.99609375,99.12109375,38.57421875
1771706558.6515625,121.09375,18.06640625,-18.06640625,108.3984375,19.53125
1771706558.6554687,105.95703125,6.34765625,-23.4375,68.359375,-25.87890625
1771706558.659375,111.328125,8.7890625,-17.578125,47.8515625,9.27734375
1771706558.6632812,122.55859375,4.39453125,-11.23046875,77.63671875,23.4375
1771706558.6671875,119.140625,0.48828125,-6.34765625,103.515625,1.46484375
1771706558.6710937,108.88671875,7.32421875,-10.7421875,73.73046875,61.03515625
1771706558.673125,102.5390625,6.34765625,-4.39453125,47.36328125,30.2734375
1771706558.6770313,107.421875,13.18359375,-1.953125,66.40625,36.62109375
1771706558.6809375,109.86328125,12.20703125,-12.20703125,84.47265625,53.22265625
1771706558.6848438,108.88671875,3.41796875,-11.23046875,67.87109375,3.41796875
1771706558.68875,98.14453125,6.8359375,-0.9765625,48.33984375,40.52734375
1771706558.6926563,104.98046875,21.97265625,7.8125,68.359375,37.59765625
1771706558.6965625,117.67578125,29.296875,9.27734375,99.609375,1.46484375
1771706558.7004688,97.65625,20.01953125,0.48828125,89.35546875,25.390625
1771706558.704375,83.984375,17.08984375,2.44140625,55.6640625,22.94921875
1771706558.7082813,81.54296875,14.6484375,8.7890625,52.24609375,-46.875
1771706558.7121875,70.80078125,12.20703125,0.0,76.66015625,-25.390625
1771706558.7160938,75.68359375,21.97265625,10.25390625,85.44921875,15.13671875
1771706558.718125,62.5,30.76171875,22.4609375,53.7109375,46.38671875
1771706558.7220314,41.9921875,25.87890625,24.4140625,24.90234375,76.66015625
1771706558.7259376,42.48046875,33.69140625,30.76171875,44.921875,38.57421875
1771706558.7298439,26.3671875,41.015625,29.78515625,53.7109375,2.44140625
1771706558.73375,1.953125,44.921875,35.15625,20.01953125,-12.20703125
1771706558.7376564,-14.16015625,45.8984375,32.71484375,-19.04296875,18.06640625
1771706558.7415626,-21.484375,50.78125,39.0625,-15.625,-2.44140625
1771706558.7454689,-36.62109375,61.03515625,46.875,4.8828125,-10.7421875
1771706558.749375,-58.59375,58.59375,43.45703125,-22.94921875,17.08984375
1771706558.7532814,-69.82421875,58.59375,49.31640625,-67.87109375,22.4609375
1771706558.7571876,-80.56640625,65.4296875,56.640625,-72.75390625,74.70703125
1771706558.7610939,-89.84375,75.68359375,68.359375,-43.9453125,65.91796875
1771706558.763125,-95.21484375,67.87109375,78.61328125,-41.015625,40.52734375
1771706558.7670312,-99.609375,64.453125,82.03125,-74.70703125,52.24609375
1771706558.7709374,-108.88671875,84.9609375,72.75390625,-105.46875,64.453125
1771706558.7748437,-130.37109375,86.42578125,77.63671875,-99.609375,123.53515625
1771706558.77875,-148.92578125,77.63671875,90.33203125,-94.7265625,106.4453125
1771706558.7826562,-153.3203125,77.63671875,97.65625,-115.234375,19.53125
1771706558.7865624,-152.34375,78.125,104.98046875,-129.8828125,44.921875
1771706558.7904687,-148.92578125,73.73046875,100.09765625,-109.86328125,62.01171875
1771706558.794375,-147.4609375,70.3125,94.7265625,-83.0078125,21.484375
1771706558.7982812,-149.4140625,70.80078125,96.19140625,-100.09765625,24.4140625
1771706558.8021874,-147.94921875,69.82421875,94.23828125,-127.9296875,35.64453125
1771706558.8060937,-128.41796875,73.73046875,95.703125,-87.890625,84.47265625
1771706558.808125,-103.515625,59.5703125,97.65625,-31.25,42.48046875
1771706558.8120313,-102.05078125,51.26953125,92.7734375,-42.48046875,32.71484375
1771706558.8159375,-111.81640625,59.5703125,83.0078125,-77.1484375,73.73046875
1771706558.8198438,-100.5859375,47.36328125,73.73046875,-69.3359375,57.12890625
1771706558.82375,-69.3359375,44.921875,72.265625,-10.25390625,48.828125
1771706558.8276563,-48.33984375,50.29296875,72.265625,9.27734375,54.19921875
1771706558.8315625,-51.26953125,43.45703125,59.5703125,-14.16015625,87.40234375
1771706558.8354688,-30.2734375,33.69140625,45.41015625,3.90625,6.8359375
1771706558.839375,-11.23046875,24.90234375,35.15625,46.875,-22.94921875
1771706558.8432813,-4.39453125,24.90234375,32.2265625,83.0078125,9.765625
1771706558.8471875,5.859375,22.94921875,32.71484375,72.75390625,-0.9765625
1771706558.8510938,7.32421875,21.97265625,22.94921875,52.734375,66.40625
1771706558.854125,26.85546875,12.20703125,19.53125,96.6796875,63.4765625
1771706558.8580313,59.5703125,1.46484375,13.671875,145.5078125,7.32421875
1771706558.8619375,63.96484375,10.25390625,1.46484375,139.16015625,30.76171875
1771706558.8658438,61.5234375,11.23046875,-3.41796875,114.2578125,29.296875
1771706558.86975,88.37890625,15.13671875,-13.18359375,148.4375,-9.765625
1771706558.8736563,107.421875,22.4609375,-31.25,195.3125,28.3203125
1771706558.8775625,100.09765625,13.18359375,-26.3671875,182.6171875,3.90625
1771706558.8814688,100.5859375,18.06640625,-16.11328125,151.3671875,2.44140625
1771706558.885375,100.09765625,9.27734375,-13.671875,148.92578125,75.68359375
1771706558.8892813,96.19140625,-6.8359375,-16.6015625,182.12890625,68.84765625
1771706558.8931875,99.12109375,-4.39453125,-16.11328125,197.265625,69.3359375
1771706558.8970938,93.26171875,-3.41796875,-9.27734375,164.0625,85.9375
1771706558.897125,89.35546875,-5.37109375,-20.01953125,149.90234375,89.35546875
1771706558.9010313,100.09765625,3.90625,-15.625,188.96484375,96.19140625
1771706558.9049375,104.00390625,1.953125,-2.44140625,210.9375,56.15234375
1771706558.9088438,94.23828125,-10.25390625,-0.48828125,180.17578125,46.875
1771706558.91275,98.6328125,-0.9765625,5.859375,158.203125,130.37109375
1771706558.9166563,111.328125,5.37109375,4.8828125,180.17578125,91.30859375
1771706558.9205625,98.14453125,0.9765625,-2.44140625,198.73046875,53.22265625
1771706558.9244688,81.54296875,-5.37109375,-3.90625,173.33984375,97.65625
1771706558.928375,83.984375,-3.41796875,-2.44140625,140.625,119.140625
1771706558.9322813,99.12109375,-3.90625,2.9296875,147.4609375,46.38671875
1771706558.9361875,99.12109375,-4.8828125,0.9765625,178.22265625,64.94140625
1771706558.9400938,99.12109375,3.90625,-12.6953125,185.05859375,87.40234375
1771706558.943125,103.02734375,0.0,-10.25390625,156.25,34.66796875
1771706558.9470313,97.65625,-16.11328125,3.41796875,143.06640625,94.23828125
1771706558.9509375,105.46875,-15.13671875,10.25390625,175.78125,110.83984375
1771706558.9548438,102.5390625,2.9296875,15.13671875,191.40625,37.59765625
1771706558.95875,86.9140625,17.08984375,9.27734375,155.76171875,19.53125
1771706558.9626563,87.40234375,11.71875,12.20703125,132.32421875,22.4609375
1771706558.9665625,104.98046875,8.30078125,20.99609375,156.73828125,48.33984375
1771706558.9704688,104.4921875,29.78515625,13.671875,172.36328125,68.84765625
1771706558.974375,79.1015625,22.94921875,1.46484375,138.671875,93.75
1771706558.9782813,70.80078125,7.32421875,3.90625,111.81640625,80.078125
1771706558.9821875,81.54296875,9.27734375,15.13671875,125.9765625,32.2265625
1771706558.9860938,81.0546875,10.7421875,15.625,147.94921875,45.8984375
1771706559.003125,75.68359375,10.25390625,6.34765625,131.34765625,47.8515625
1771706559.0070312,69.82421875,8.7890625,8.30078125,90.33203125,34.1796875
1771706559.0109375,85.44921875,7.32421875,7.8125,95.703125,20.99609375
1771706559.0148437,96.19140625,8.30078125,3.90625,131.8359375,-7.8125
1771706559.01875,84.47265625,11.23046875,20.99609375,134.765625,11.71875
1771706559.0226562,80.078125,13.18359375,25.87890625,101.5625,3.90625
1771706559.0265625,85.9375,13.671875,16.6015625,80.078125,-48.33984375
1771706559.0304687,81.54296875,11.71875,18.06640625,102.05078125,-28.3203125
1771706559.034375,73.73046875,7.32421875,18.06640625,112.79296875,38.57421875
1771706559.0382812,71.77734375,7.32421875,17.578125,76.66015625,17.578125
1771706559.0421875,55.17578125,14.6484375,15.13671875,57.12890625,1.46484375
1771706559.0460937,53.22265625,9.765625,15.13671875,83.49609375,19.53125
1771706559.048125,69.3359375,24.4140625,24.90234375,109.86328125,50.29296875
1771706559.0520313,62.01171875,36.62109375,23.4375,84.47265625,67.3828125
1771706559.0559375,52.24609375,21.484375,5.859375,47.8515625,11.71875
1771706559.0598438,66.40625,23.4375,7.8125,64.453125,1.46484375
1771706559.06375,79.58984375,31.25,13.671875,98.14453125,52.734375
1771706559.0676563,83.0078125,34.1796875,14.6484375,98.6328125,115.72265625
1771706559.0715625,66.40625,24.90234375,13.18359375,62.5,74.70703125
1771706559.0754688,62.5,21.484375,11.23046875,58.59375,3.90625
1771706559.079375,75.68359375,24.4140625,14.6484375,84.47265625,-24.4140625
1771706559.0832813,70.3125,24.4140625,12.6953125,80.078125,26.3671875
1771706559.0871875,67.87109375,31.73828125,16.6015625,49.8046875,68.359375
1771706559.0910938,72.75390625,34.1796875,27.83203125,42.48046875,54.19921875
1771706559.093125,65.4296875,26.85546875,28.80859375,75.1953125,48.828125
1771706559.0970314,47.8515625,23.92578125,21.484375,85.44921875,49.31640625
1771706559.1009376,40.0390625,25.87890625,19.53125,53.7109375,28.80859375
1771706559.1048439,39.0625,28.80859375,27.83203125,29.78515625,51.7578125
1771706559.10875,40.0390625,27.83203125,22.94921875,50.78125,31.73828125
1771706559.1126564,48.33984375,27.34375,20.99609375,79.1015625,27.34375
1771706559.1165626,48.828125,33.69140625,31.73828125,58.10546875,71.2890625
1771706559.1204689,38.0859375,33.203125,25.390625,30.2734375,18.06640625
1771706559.124375,39.55078125,26.85546875,16.11328125,38.57421875,-10.25390625
1771706559.1282814,53.22265625,41.015625,24.4140625,74.70703125,15.625
1771706559.1321876,51.26953125,46.875,19.04296875,74.70703125,20.5078125
1771706559.1360939,39.55078125,27.83203125,13.671875,33.203125,-21.97265625
1771706559.139125,34.1796875,24.4140625,16.11328125,27.83203125,0.0
1771706559.1430314,35.15625,25.87890625,14.16015625,57.6171875,51.7578125
1771706559.1469376,31.73828125,21.97265625,18.06640625,59.5703125,65.91796875
1771706559.1508439,21.97265625,22.94921875,16.11328125,20.5078125,55.17578125
1771706559.15475,32.2265625,32.71484375,24.90234375,10.25390625,44.921875
1771706559.1586564,44.921875,43.9453125,30.76171875,46.38671875,62.98828125
1771706559.1625626,39.55078125,40.52734375,17.08984375,63.4765625,87.40234375
1771706559.1664689,31.25,34.1796875,17.578125,40.0390625,101.5625
1771706559.170375,23.4375,30.2734375,19.53125,16.6015625,13.18359375
1771706559.1742814,33.203125,34.66796875,21.484375,35.64453125,-19.53125
1771706559.1781876,35.15625,37.59765625,29.296875,68.359375,42.96875
1771706559.1820939,23.4375,35.64453125,29.296875,52.734375,55.17578125
1771706559.183125,18.06640625,41.9921875,31.73828125,24.4140625,16.11328125
1771706559.1870313,22.4609375,45.41015625,32.2265625,38.57421875,1.953125
1771706559.1909375,28.3203125,43.45703125,33.203125,69.82421875,1.953125
1771706559.1948438,21.97265625,41.50390625,39.55078125,59.5703125,-9.27734375
1771706559.19875,9.27734375,40.0390625,32.2265625,17.08984375,10.25390625
1771706559.2026563,8.30078125,39.55078125,31.25,9.27734375,25.390625
1771706559.2065625,1.46484375,41.50390625,36.62109375,28.80859375,19.53125
1771706559.2104688,1.46484375,58.59375,49.31640625,36.1328125,49.8046875
1771706559.214375,-3.41796875,49.8046875,52.734375,-5.859375,59.5703125
1771706559.2182813,-25.390625,36.62109375,41.50390625,-42.96875,10.25390625
1771706559.2221875,-31.25,40.52734375,44.921875,-18.06640625,-11.23046875
1771706559.2260938,-29.78515625,49.8046875,49.31640625,2.44140625,57.6171875
1771706559.228125,-46.875,53.7109375,56.640625,-31.73828125,57.12890625
1771706559.2320313,-64.453125,58.10546875,56.640625,-65.91796875,-2.9296875
1771706559.2359376,-66.40625,65.91796875,50.29296875,-52.24609375,-38.0859375
1771706559.2398438,-63.4765625,64.94140625,58.59375,-26.3671875,-32.2265625
1771706559.24375,-84.9609375,66.89453125,63.4765625,-51.7578125,11.71875
1771706559.2476563,-116.69921875,72.75390625,59.08203125,-104.4921875,-3.90625
1771706559.2515626,-112.3046875,78.61328125,60.546875,-109.375,-9.27734375
1771706559.2554688,-104.00390625,84.47265625,69.82421875,-84.9609375,0.48828125
1771706559.259375,-135.7421875,88.8671875,73.2421875,-107.91015625,-32.71484375
1771706559.2632813,-162.59765625,87.890625,86.42578125,-162.109375,23.4375
1771706559.2671876,-164.55078125,84.9609375,98.14453125,-178.7109375,130.859375
1771706559.2710938,-157.71484375,85.9375,104.4921875,-145.5078125,74.70703125
1771706559.273125,-165.0390625,90.8203125,115.234375,-131.8359375,26.85546875
1771706559.2770312,-174.8046875,90.33203125,115.72265625,-170.8984375,34.66796875
1771706559.2809374,-180.6640625,83.984375,108.3984375,-188.4765625,46.38671875
1771706559.2848437,-186.03515625,81.54296875,107.421875,-164.55078125,47.36328125
1771706559.28875,-182.6171875,85.44921875,107.91015625,-139.6484375,79.58984375
1771706559.2926562,-177.24609375,86.42578125,105.95703125,-153.80859375,63.96484375
1771706559.2965624,-172.36328125,85.9375,106.4453125,-181.15234375,27.34375
1771706559.3004687,-150.390625,103.02734375,116.2109375,-151.3671875,84.9609375
1771706559.304375,-133.30078125,92.28515625,117.67578125,-106.4453125,46.875
1771706559.3082812,-135.7421875,69.82421875,114.74609375,-107.91015625,-13.18359375
1771706559.3121874,-140.625,68.359375,115.72265625,-130.37109375,5.859375
1771706559.3160937,-127.44140625,61.03515625,108.3984375,-116.2109375,-6.34765625
1771706559.318125,-111.81640625,58.10546875,100.5859375,-79.1015625,20.5078125
1771706559.3220313,-106.93359375,57.6171875,84.9609375,-71.77734375,21.484375
1771706559.3259375,-99.609375,53.22265625,70.80078125,-94.23828125,-11.23046875
1771706559.3298438,-93.26171875,47.8515625,68.359375,-94.7265625,104.00390625
1771706559.33375,-69.3359375,50.29296875,58.59375,-43.45703125,99.609375
1771706559.3376563,-47.8515625,48.828125,55.17578125,-8.30078125,29.296875
1771706559.3415625,-39.0625,42.48046875,52.24609375,-28.80859375,52.24609375
1771706559.3454688,-16.11328125,37.59765625,37.109375,-26.85546875,42.48046875
1771706559.349375,15.13671875,34.1796875,21.97265625,13.671875,62.98828125
1771706559.3532813,31.73828125,38.0859375,17.578125,44.43359375,21.484375
1771706559.3571875,30.2734375,41.9921875,20.01953125,37.109375,42.48046875
1771706559.3610938,36.62109375,37.59765625,10.25390625,25.390625,19.53125
1771706559.364125,55.6640625,34.1796875,1.46484375,51.26953125,17.578125
1771706559.3680313,71.77734375,30.2734375,-0.48828125,96.19140625,72.265625
1771706559.3719375,74.21875,31.73828125,-3.90625,102.5390625,56.640625
1771706559.3758438,71.2890625,29.78515625,-6.8359375,67.3828125,62.98828125
1771706559.37975,75.68359375,22.4609375,-6.8359375,67.3828125,43.45703125
1771706559.3836563,88.37890625,16.11328125,-7.32421875,110.3515625,37.59765625
1771706559.3875625,101.5625,21.484375,-6.34765625,127.9296875,42.96875
1771706559.3914688,97.16796875,27.34375,-4.8828125,100.09765625,0.9765625
1771706559.395375,85.9375,22.4609375,-7.8125,83.984375,-25.390625
1771706559.3992813,94.7265625,12.6953125,-9.765625,109.375,-12.20703125
1771706559.4031875,97.65625,13.18359375,-10.25390625,125.48828125,9.27734375
1771706559.4070938,88.37890625,28.3203125,-8.30078125,103.02734375,40.52734375
