timestamps,TP9,AF7,AF8,TP10,Right AUX
1771707029.600125,31.73828125,35.64453125,31.73828125,0.48828125,47.36328125
1771707029.6040313,27.83203125,30.76171875,27.83203125,-13.671875,0.0
1771707029.6079376,20.99609375,34.66796875,32.71484375,28.80859375,-11.23046875
1771707029.6118438,13.18359375,33.69140625,30.2734375,43.9453125,19.53125
1771707029.61575,19.53125,28.80859375,28.3203125,5.859375,48.33984375
1771707029.6196563,32.2265625,35.64453125,30.2734375,-17.08984375,9.765625
1771707029.6235626,31.25,39.0625,31.25,18.06640625,2.44140625
1771707029.6274688,34.1796875,37.109375,31.25,52.734375,8.30078125
1771707029.631375,36.1328125,31.73828125,30.76171875,22.94921875,19.04296875
1771707029.6352813,30.2734375,31.25,33.203125,-14.6484375,47.36328125
1771707029.6391876,18.5546875,26.85546875,33.203125,12.6953125,49.31640625
1771707029.6430938,20.01953125,26.3671875,31.73828125,68.84765625,64.94140625
1771707029.660125,29.78515625,35.64453125,28.3203125,52.734375,82.03125
1771707029.6640313,22.4609375,38.0859375,27.83203125,-4.39453125,44.43359375
1771707029.6679375,7.32421875,37.109375,31.73828125,-8.7890625,0.48828125
1771707029.6718438,5.37109375,36.62109375,29.296875,36.1328125,26.85546875
1771707029.67575,20.99609375,36.1328125,32.2265625,53.7109375,81.0546875
1771707029.6796563,33.203125,37.109375,32.2265625,9.27734375,81.0546875
1771707029.6835625,32.2265625,36.1328125,30.76171875,-7.8125,74.21875
1771707029.6874688,22.94921875,35.15625,35.64453125,40.0390625,72.265625
1771707029.691375,20.01953125,40.0390625,36.1328125,63.4765625,43.9453125
1771707029.6952813,25.390625,39.0625,34.66796875,24.4140625,85.9375
1771707029.6991875,33.69140625,38.57421875,33.69140625,-3.41796875,81.0546875
1771707029.7030938,38.0859375,42.48046875,37.109375,29.296875,42.96875
1771707029.719125,34.1796875,39.0625,39.55078125,66.40625,76.66015625
1771707029.7230313,43.9453125,47.36328125,36.1328125,42.96875,24.90234375
1771707029.7269375,42.96875,39.0625,35.64453125,0.48828125,6.8359375
1771707029.7308438,30.2734375,24.4140625,35.64453125,14.6484375,67.3828125
1771707029.73475,28.80859375,30.2734375,36.62109375,61.5234375,34.1796875
1771707029.7386563,28.3203125,36.1328125,33.69140625,52.24609375,10.7421875
1771707029.7425625,30.2734375,39.55078125,29.78515625,6.34765625,72.75390625
1771707029.7464688,37.59765625,36.62109375,32.71484375,9.27734375,61.03515625
1771707029.750375,33.69140625,36.62109375,35.64453125,53.22265625,17.08984375
1771707029.7542813,34.1796875,41.50390625,38.57421875,67.3828125,49.31640625
1771707029.7581875,39.55078125,39.55078125,39.0625,29.296875,48.828125
1771707029.7620938,38.0859375,37.109375,33.203125,0.48828125,49.31640625
1771707029.765125,27.83203125,37.109375,30.76171875,35.15625,85.9375
1771707029.7690313,26.3671875,39.55078125,32.71484375,67.87109375,51.26953125
1771707029.7729375,38.0859375,41.9921875,34.66796875,33.203125,0.0
1771707029.7768438,38.57421875,39.55078125,34.1796875,-8.7890625,13.671875
1771707029.78075,31.25,37.109375,33.69140625,22.4609375,81.0546875
1771707029.7846563,28.3203125,36.62109375,33.203125,64.453125,20.99609375
1771707029.7885625,41.015625,40.52734375,34.66796875,38.0859375,-7.8125
1771707029.7924688,44.43359375,37.109375,30.76171875,-3.90625,17.08984375
1771707029.796375,36.1328125,38.57421875,28.80859375,15.625,51.7578125
1771707029.8002813,35.64453125,41.9921875,30.2734375,58.59375,44.43359375
1771707029.8041875,36.1328125,34.66796875,26.85546875,44.43359375,23.4375
1771707029.8080938,35.15625,33.69140625,28.80859375,-0.48828125,52.24609375
1771707029.824125,25.87890625,31.25,29.296875,-3.90625,31.25
1771707029.8280313,12.6953125,29.296875,26.85546875,40.0390625,18.5546875
1771707029.8319376,17.08984375,30.76171875,32.2265625,62.5,59.08203125
1771707029.8358438,22.94921875,32.71484375,38.0859375,23.4375,42.48046875
1771707029.83975,21.97265625,32.2265625,34.1796875,-5.859375,11.71875
1771707029.8436563,29.78515625,34.1796875,33.69140625,34.1796875,6.34765625
1771707029.8475626,27.34375,35.15625,36.1328125,65.91796875,68.359375
1771707029.8514688,22.94921875,38.0859375,33.203125,30.76171875,38.57421875
1771707029.855375,29.296875,31.73828125,30.2734375,-6.34765625,-40.52734375
1771707029.8592813,29.78515625,28.80859375,35.15625,23.4375,-51.26953125
1771707029.8631876,21.484375,31.25,36.1328125,65.4296875,-1.46484375
1771707029.8670938,24.90234375,32.71484375,30.76171875,44.921875,22.4609375
1771707029.872125,38.0859375,34.1796875,32.71484375,2.44140625,3.41796875
1771707029.8760312,42.96875,43.45703125,39.55078125,17.08984375,-21.484375
1771707029.8799374,39.55078125,46.38671875,41.9921875,61.03515625,-15.13671875
1771707029.8838437,37.109375,34.1796875,36.62109375,59.5703125,32.71484375
1771707029.88775,35.15625,32.71484375,34.1796875,17.08984375,42.48046875
1771707029.8916562,31.73828125,32.2265625,36.62109375,4.8828125,22.4609375
1771707029.8955624,25.390625,31.73828125,37.59765625,50.78125,-13.18359375
1771707029.8994687,26.3671875,37.109375,34.66796875,73.73046875,-21.484375
1771707029.903375,28.80859375,36.1328125,32.71484375,33.69140625,15.13671875
1771707029.9072812,28.80859375,30.76171875,36.62109375,-0.9765625,66.89453125
1771707029.9111874,31.73828125,34.66796875,40.0390625,34.66796875,43.9453125
1771707029.9150937,36.1328125,43.45703125,38.0859375,72.265625,3.41796875
1771707029.932125,42.96875,42.96875,36.1328125,36.62109375,14.16015625
1771707029.9360313,43.9453125,33.203125,32.2265625,-5.37109375,59.08203125
1771707029.9399376,36.1328125,34.1796875,29.78515625,20.99609375,44.43359375
1771707029.9438438,22.4609375,40.0390625,33.203125,63.4765625,37.109375
1771707029.94775,26.3671875,41.015625,36.62109375,50.29296875,34.66796875
1771707029.9516563,30.76171875,37.109375,34.66796875,3.41796875,35.15625
1771707029.9555626,30.2734375,46.875,35.64453125,5.859375,28.80859375
1771707029.9594688,29.296875,46.875,35.15625,52.24609375,48.828125
1771707029.963375,26.85546875,28.80859375,31.73828125,58.10546875,52.734375
1771707029.9672813,39.55078125,27.34375,31.25,15.625,22.4609375
1771707029.9711876,46.875,35.64453125,27.34375,2.44140625,43.45703125
1771707029.9750938,38.57421875,36.62109375,27.83203125,45.8984375,44.43359375
1771707029.961125,32.71484375,32.2265625,30.2734375,72.265625,47.8515625
1771707029.9650311,37.109375,36.1328125,29.78515625,38.0859375,61.03515625
1771707029.9689374,38.57421875,33.203125,30.76171875,9.27734375,46.38671875
1771707029.9728436,40.0390625,31.73828125,34.66796875,43.45703125,77.1484375
1771707029.97675,44.921875,41.50390625,37.109375,83.49609375,73.73046875
1771707029.9806561,46.875,42.48046875,29.296875,57.6171875,31.73828125
1771707029.9845624,49.8046875,40.52734375,29.78515625,12.20703125,28.80859375
1771707029.9884686,46.38671875,37.59765625,33.69140625,28.80859375,10.25390625
1771707029.992375,38.57421875,41.9921875,30.2734375,68.359375,68.84765625
1771707029.9962811,36.1328125,42.96875,32.2265625,56.15234375,44.921875
1771707030.0001874,42.48046875,45.41015625,39.0625,20.5078125,-2.44140625
1771707030.0040936,34.66796875,45.41015625,39.0625,10.7421875,-16.11328125
1771707030.019125,42.48046875,35.15625,29.296875,53.7109375,0.48828125
1771707030.0230312,68.359375,38.0859375,26.3671875,91.796875,105.46875
1771707030.0269375,32.2265625,42.48046875,43.45703125,16.11328125,59.5703125
1771707030.0308437,-24.4140625,47.36328125,64.453125,-56.15234375,-13.671875
1771707030.03475,-44.921875,48.828125,66.40625,-30.76171875,21.97265625
1771707030.0386562,-79.58984375,34.66796875,63.4765625,-29.78515625,0.48828125
1771707030.0425625,-115.234375,29.296875,63.4765625,-95.703125,2.9296875
1771707030.0464687,-124.0234375,34.66796875,62.98828125,-144.04296875,51.26953125
1771707030.050375,-136.71875,34.66796875,69.82421875,-129.39453125,31.25
1771707030.0542812,-169.43359375,33.69140625,76.66015625,-112.79296875,-15.13671875
1771707030.0581875,-174.31640625,34.66796875,81.0546875,-136.23046875,13.671875
1771707030.0620937,-155.76171875,34.66796875,79.58984375,-172.36328125,77.1484375
1771707030.065125,-164.55078125,40.0390625,80.56640625,-168.45703125,44.43359375
1771707030.0690312,-175.29296875,38.57421875,78.61328125,-127.9296875,10.7421875
1771707030.0729375,-167.96875,32.2265625,77.1484375,-125.0,28.80859375
1771707030.0768437,-167.96875,39.0625,77.63671875,-172.36328125,32.71484375
1771707030.08075,-168.9453125,37.59765625,67.87109375,-180.17578125,58.59375
1771707030.0846562,-156.73828125,30.76171875,64.453125,-120.1171875,-12.6953125
1771707030.0885625,-140.625,28.3203125,64.453125,-86.9140625,-26.3671875
1771707030.0924687,-121.09375,30.76171875,62.01171875,-123.53515625,61.5234375
1771707030.096375,-95.703125,31.73828125,62.01171875,-133.30078125,82.51953125
1771707030.1002812,-79.58984375,33.69140625,58.59375,-76.171875,89.84375
1771707030.1041875,-75.68359375,33.69140625,52.734375,-27.34375,66.89453125
1771707030.1080937,-64.94140625,34.1796875,50.78125,-46.38671875,24.90234375
1771707030.124125,-55.6640625,31.25,46.875,-76.66015625,-46.38671875
1771707030.1280313,-46.875,23.4375,44.921875,-41.50390625,14.6484375
1771707030.1319375,-36.1328125,19.53125,43.45703125,12.20703125,132.8125
1771707030.1358438,-28.3203125,19.53125,44.921875,4.8828125,94.7265625
1771707030.13975,-11.23046875,20.5078125,44.921875,-27.83203125,26.85546875
1771707030.1436563,4.8828125,30.2734375,41.015625,-5.37109375,-15.13671875
1771707030.1475625,6.34765625,35.15625,39.55078125,45.41015625,8.30078125
1771707030.1514688,6.8359375,24.90234375,35.15625,47.8515625,36.62109375
1771707030.155375,20.01953125,25.390625,35.15625,11.71875,-38.57421875
1771707030.1592813,25.390625,22.94921875,33.69140625,1.46484375,-21.484375
1771707030.1631875,25.87890625,20.5078125,34.66796875,42.48046875,56.15234375
1771707030.1670938,24.90234375,17.578125,38.0859375,67.3828125,44.43359375
1771707030.199125,34.1796875,20.5078125,36.1328125,39.0625,25.87890625
1771707030.2030313,52.24609375,26.3671875,33.69140625,14.6484375,39.0625
1771707030.2069376,51.26953125,26.3671875,34.1796875,48.828125,52.24609375
1771707030.2108438,47.8515625,23.92578125,30.2734375,85.44921875,46.875
1771707030.21475,53.7109375,21.484375,27.34375,57.12890625,38.0859375
1771707030.2186563,63.96484375,25.390625,28.3203125,20.01953125,80.56640625
1771707030.2225626,60.05859375,31.73828125,28.80859375,42.96875,40.52734375
1771707030.2264688,51.7578125,31.73828125,32.71484375,90.33203125,45.41015625
1771707030.230375,54.6875,24.90234375,26.85546875,73.2421875,104.4921875
1771707030.2342813,65.91796875,34.66796875,29.296875,34.66796875,29.78515625
1771707030.2381876,64.453125,43.9453125,32.71484375,45.8984375,-37.109375
1771707030.2420938,49.8046875,27.34375,25.390625,81.0546875,18.06640625
1771707030.260125,48.828125,23.4375,28.3203125,87.40234375,45.8984375
1771707030.2640312,57.6171875,25.390625,31.25,45.8984375,3.41796875
1771707030.2679374,58.59375,27.83203125,30.2734375,20.99609375,-2.9296875
1771707030.2718437,54.19921875,32.71484375,27.34375,63.4765625,66.89453125
1771707030.27575,76.171875,31.25,22.4609375,116.2109375,55.6640625
1771707030.2796562,73.73046875,35.64453125,32.71484375,76.171875,-9.765625
1771707030.2835624,27.83203125,34.1796875,46.875,-0.9765625,4.39453125
1771707030.2874687,10.25390625,22.94921875,43.9453125,20.01953125,-16.11328125
1771707030.291375,9.27734375,19.53125,44.921875,71.77734375,-21.97265625
1771707030.2952812,15.625,16.11328125,54.19921875,45.8984375,51.26953125
1771707030.2991874,16.6015625,10.7421875,55.6640625,-1.46484375,46.38671875
1771707030.3030937,6.8359375,5.859375,54.19921875,16.6015625,-26.3671875
1771707030.304125,9.765625,6.8359375,57.12890625,68.84765625,13.671875
1771707030.3080313,26.3671875,11.23046875,59.08203125,67.3828125,50.78125
1771707030.3119376,37.109375,16.11328125,56.640625,23.4375,9.27734375
1771707030.3158438,36.1328125,17.578125,49.31640625,20.01953125,-26.85546875
1771707030.31975,31.25,16.6015625,45.8984375,61.03515625,-21.484375
1771707030.3236563,23.92578125,17.08984375,48.33984375,70.80078125,-19.04296875
1771707030.3275626,20.01953125,15.625,41.015625,27.83203125,-5.37109375
1771707030.3314688,26.3671875,12.6953125,39.55078125,10.25390625,26.85546875
1771707030.335375,32.71484375,28.3203125,46.38671875,52.734375,71.2890625
1771707030.3392813,28.80859375,26.3671875,43.9453125,74.70703125,67.87109375
1771707030.3431876,37.109375,19.53125,42.96875,46.38671875,50.29296875
1771707030.3470938,42.96875,34.66796875,39.0625,23.92578125,62.98828125
1771707030.350125,36.1328125,31.73828125,35.64453125,50.78125,81.0546875
1771707030.3540313,42.96875,24.4140625,40.52734375,87.890625,82.03125
1771707030.3579376,49.31640625,26.3671875,40.52734375,63.4765625,-3.90625
1771707030.3618438,59.5703125,32.2265625,38.57421875,21.97265625,-47.36328125
1771707030.36575,57.12890625,32.71484375,36.62109375,30.76171875,28.80859375
1771707030.3696563,43.9453125,34.66796875,36.62109375,71.2890625,38.0859375
1771707030.3735626,51.7578125,43.9453125,37.109375,73.73046875,24.4140625
1771707030.3774688,50.29296875,38.57421875,32.2265625,28.80859375,6.34765625
1771707030.381375,50.29296875,26.85546875,34.66796875,20.01953125,-2.44140625
1771707030.3852813,41.9921875,29.296875,37.109375,65.4296875,11.23046875
1771707030.3891876,31.25,32.71484375,36.1328125,86.9140625,4.39453125
1771707030.3930938,45.8984375,32.71484375,38.0859375,43.45703125,30.76171875
1771707030.367125,60.05859375,34.1796875,38.57421875,19.53125,13.671875
1771707030.3710313,56.15234375,37.109375,35.64453125,53.22265625,-2.9296875
1771707030.3749375,39.55078125,47.8515625,36.1328125,82.51953125,60.546875
1771707030.3788438,34.66796875,41.9921875,31.25,48.33984375,129.8828125
1771707030.38275,38.57421875,25.87890625,24.90234375,1.46484375,62.01171875
1771707030.3866563,35.15625,27.34375,29.296875,26.85546875,45.8984375
1771707030.3905625,31.73828125,33.69140625,29.296875,69.82421875,75.68359375
1771707030.3944688,41.9921875,39.55078125,29.78515625,52.734375,48.828125
1771707030.398375,46.875,40.0390625,33.203125,9.765625,28.3203125
1771707030.4022813,37.59765625,37.59765625,29.78515625,12.20703125,22.4609375
1771707030.4061875,32.71484375,37.109375,30.76171875,57.6171875,53.7109375
1771707030.4100938,32.71484375,36.1328125,30.2734375,62.5,45.41015625
1771707030.373125,34.1796875,33.203125,29.296875,20.01953125,28.3203125
1771707030.3770313,33.69140625,29.78515625,31.73828125,5.859375,77.1484375
1771707030.3809376,27.83203125,27.83203125,32.71484375,47.36328125,69.82421875
1771707030.3848438,28.3203125,24.4140625,32.2265625,80.56640625,75.1953125
1771707030.38875,28.80859375,25.390625,32.71484375,37.59765625,67.3828125
1771707030.3926563,27.83203125,30.2734375,29.78515625,-12.20703125,17.578125
1771707030.3965626,29.78515625,30.2734375,22.4609375,22.4609375,24.90234375
1771707030.4004688,32.71484375,32.2265625,22.94921875,71.2890625,23.92578125
1771707030.404375,43.45703125,33.203125,24.90234375,49.8046875,31.25
1771707030.4082813,59.08203125,40.52734375,24.4140625,20.99609375,28.3203125
1771707030.4121876,55.17578125,41.50390625,26.3671875,40.52734375,9.765625
1771707030.4160938,40.52734375,33.203125,24.4140625,72.75390625,-4.8828125
1771707030.409125,47.36328125,39.0625,28.80859375,69.3359375,24.90234375
1771707030.4130313,66.89453125,37.59765625,29.78515625,28.80859375,26.85546875
1771707030.4169376,66.40625,33.69140625,23.92578125,26.3671875,34.1796875
1771707030.4208438,63.4765625,33.69140625,26.3671875,79.1015625,37.59765625
1771707030.42475,61.03515625,30.76171875,33.203125,90.8203125,8.30078125
1771707030.4286563,59.08203125,32.71484375,33.69140625,46.875,-24.90234375
1771707030.4325626,62.01171875,36.1328125,30.2734375,26.3671875,29.296875
1771707030.4364688,56.640625,36.1328125,31.73828125,62.5,82.03125
1771707030.440375,43.9453125,39.0625,34.66796875,84.47265625,46.875
1771707030.4442813,45.8984375,34.66796875,32.2265625,46.875,9.765625
1771707030.4481876,57.6171875,31.73828125,35.64453125,17.08984375,39.55078125
1771707030.4520938,48.828125,33.203125,39.55078125,42.48046875,44.43359375
1771707030.414125,40.52734375,33.69140625,38.0859375,82.51953125,43.9453125
1771707030.4180312,45.8984375,35.15625,39.0625,66.89453125,29.296875
1771707030.4219375,49.31640625,35.15625,38.57421875,26.3671875,1.46484375
1771707030.4258437,45.41015625,33.203125,38.57421875,37.109375,-11.71875
1771707030.42975,40.52734375,34.66796875,37.109375,76.66015625,-15.625
1771707030.4336562,44.43359375,47.36328125,34.1796875,74.21875,1.46484375
1771707030.4375625,42.48046875,39.0625,29.78515625,28.80859375,67.87109375
1771707030.4414687,41.9921875,20.99609375,22.4609375,16.6015625,57.6171875
1771707030.445375,37.109375,27.34375,21.484375,56.15234375,35.64453125
1771707030.4492812,34.66796875,33.69140625,27.34375,72.265625,21.484375
1771707030.4531875,41.015625,36.62109375,32.2265625,35.15625,24.90234375
1771707030.4570937,38.0859375,28.80859375,29.296875,8.7890625,70.3125
1771707030.419125,40.52734375,22.4609375,28.80859375,41.9921875,44.921875
1771707030.4230313,44.43359375,29.78515625,30.76171875,73.2421875,18.06640625
1771707030.4269376,50.29296875,34.1796875,24.90234375,33.69140625,-38.57421875
1771707030.4308438,63.4765625,35.15625,21.484375,-9.27734375,-15.625
1771707030.43475,52.734375,41.50390625,26.3671875,25.87890625,16.6015625
1771707030.4386563,35.64453125,40.52734375,28.3203125,72.75390625,10.7421875
1771707030.4425626,50.78125,37.59765625,25.87890625,56.640625,-11.71875
1771707030.4464688,54.6875,34.66796875,20.99609375,12.6953125,-2.9296875
1771707030.450375,47.8515625,28.80859375,24.4140625,22.4609375,56.15234375
1771707030.4542813,36.62109375,31.25,33.69140625,69.82421875,87.890625
1771707030.4581876,31.25,31.73828125,31.73828125,72.265625,28.80859375
1771707030.4620938,38.0859375,30.76171875,28.80859375,23.92578125,12.20703125
1771707030.469125,32.2265625,42.48046875,32.71484375,13.671875,47.36328125
1771707030.4730313,18.06640625,37.109375,30.76171875,51.26953125,74.21875
1771707030.4769375,20.99609375,28.80859375,28.80859375,63.4765625,118.1640625
1771707030.4808438,36.1328125,33.69140625,30.76171875,26.85546875,80.56640625
1771707030.48475,37.109375,28.3203125,32.2265625,0.9765625,10.7421875
1771707030.4886563,33.69140625,27.34375,37.109375,36.1328125,34.66796875
1771707030.4925625,25.87890625,27.34375,34.66796875,62.98828125,49.8046875
1771707030.4964688,30.2734375,30.2734375,33.203125,31.73828125,49.8046875
1771707030.500375,38.57421875,39.0625,35.64453125,-4.8828125,27.34375
1771707030.5042813,30.2734375,35.64453125,28.80859375,15.13671875,-0.9765625
1771707030.5081875,20.99609375,32.71484375,27.83203125,59.08203125,10.25390625
1771707030.5120938,22.94921875,39.55078125,26.85546875,39.55078125,21.97265625
1771707030.514125,35.64453125,39.0625,23.4375,-10.7421875,43.45703125
1771707030.5180314,41.9921875,31.73828125,24.4140625,-2.44140625,27.83203125
1771707030.5219376,37.59765625,34.1796875,25.87890625,43.9453125,18.5546875
1771707030.5258439,38.57421875,38.57421875,24.4140625,49.31640625,18.06640625
1771707030.52975,41.50390625,37.59765625,28.3203125,11.71875,-0.48828125
1771707030.5336564,42.48046875,36.62109375,31.25,0.9765625,-35.64453125
1771707030.5375626,41.015625,48.33984375,35.15625,42.96875,-3.41796875
1771707030.5414689,35.15625,48.33984375,33.69140625,66.40625,54.19921875
1771707030.545375,36.1328125,32.2265625,26.85546875,24.90234375,60.546875
1771707030.5492814,41.50390625,33.203125,28.3203125,-7.32421875,33.69140625
1771707030.5531876,31.73828125,31.73828125,27.83203125,20.99609375,24.4140625
1771707030.5570939,27.83203125,27.34375,27.34375,62.01171875,11.23046875
1771707030.559125,37.109375,30.76171875,35.15625,41.50390625,-4.8828125
1771707030.5630312,34.66796875,33.69140625,32.2265625,-3.41796875,28.3203125
1771707030.5669374,23.4375,32.71484375,31.73828125,18.06640625,57.12890625
1771707030.5708437,18.06640625,39.0625,32.71484375,62.01171875,34.1796875
1771707030.57475,21.97265625,39.55078125,26.3671875,51.7578125,30.2734375
1771707030.5786562,30.2734375,34.66796875,27.83203125,7.8125,49.31640625
1771707030.5825624,39.0625,41.9921875,29.296875,4.39453125,21.484375
1771707030.5864687,27.83203125,36.62109375,27.34375,48.33984375,15.13671875
1771707030.590375,18.06640625,30.76171875,25.87890625,55.17578125,-7.8125
1771707030.5942812,25.390625,33.203125,28.80859375,8.30078125,-21.484375
1771707030.5981874,30.2734375,39.55078125,31.73828125,-6.34765625,14.6484375
1771707030.6020937,29.78515625,42.48046875,28.80859375,39.0625,28.80859375
1771707030.610125,30.76171875,41.015625,26.85546875,65.91796875,13.18359375
1771707030.6140313,32.2265625,41.50390625,27.83203125,27.34375,27.34375
1771707030.6179376,37.59765625,37.109375,26.3671875,-4.39453125,47.36328125
1771707030.6218438,37.59765625,45.8984375,29.296875,30.2734375,56.640625
1771707030.62575,30.76171875,50.29296875,32.71484375,70.3125,40.52734375
1771707030.6296563,34.1796875,39.0625,29.296875,48.828125,39.55078125
1771707030.6335626,44.921875,44.921875,29.78515625,8.7890625,22.94921875
1771707030.6374688,39.55078125,42.48046875,33.203125,18.5546875,-7.8125
1771707030.641375,25.87890625,36.1328125,32.71484375,58.10546875,22.4609375
1771707030.6452813,31.25,43.9453125,29.78515625,54.6875,51.7578125
1771707030.6491876,42.96875,47.36328125,34.1796875,14.6484375,82.03125
1771707030.6530938,41.015625,41.9921875,37.109375,7.32421875,30.76171875
1771707030.651125,33.203125,37.59765625,33.69140625,50.29296875,-6.34765625
1771707030.6550312,31.73828125,36.1328125,31.25,67.3828125,48.33984375
1771707030.6589375,39.55078125,41.015625,33.69140625,24.90234375,42.48046875
1771707030.6628437,37.59765625,39.55078125,34.1796875,-6.34765625,19.53125
1771707030.66675,29.296875,33.69140625,31.25,29.296875,21.97265625
1771707030.6706562,29.78515625,35.15625,33.69140625,66.40625,-0.9765625
1771707030.6745625,32.71484375,38.57421875,34.1796875,28.3203125,54.6875
1771707030.6784687,32.2265625,36.1328125,33.203125,-12.6953125,64.453125
1771707030.682375,27.34375,37.109375,35.64453125,18.06640625,9.765625
1771707030.6862812,19.53125,47.36328125,39.55078125,56.15234375,47.36328125
1771707030.6901875,25.390625,46.38671875,35.15625,37.109375,64.453125
1771707030.6940937,36.62109375,37.59765625,37.109375,3.90625,36.1328125
1771707030.694125,32.71484375,36.1328125,38.57421875,13.671875,19.53125
1771707030.6980312,22.94921875,44.921875,32.2265625,56.640625,6.8359375
1771707030.7019374,26.3671875,46.875,34.66796875,65.91796875,38.57421875
1771707030.7058437,31.25,35.64453125,35.15625,17.578125,66.89453125
1771707030.70975,29.78515625,36.62109375,33.69140625,-5.37109375,24.90234375
1771707030.7136562,24.4140625,36.1328125,33.69140625,35.64453125,41.015625
1771707030.7175624,27.34375,41.50390625,34.1796875,65.4296875,81.0546875
1771707030.7214687,31.73828125,42.48046875,33.203125,22.4609375,37.59765625
1771707030.725375,29.296875,36.1328125,32.2265625,-17.578125,30.76171875
1771707030.7292812,21.97265625,31.25,31.73828125,17.578125,9.27734375
1771707030.7331874,17.08984375,33.203125,29.78515625,59.5703125,3.90625
1771707030.7370937,24.90234375,36.1328125,28.3203125,28.3203125,26.3671875
1771707030.740125,29.78515625,33.203125,29.78515625,-16.6015625,43.9453125
1771707030.7440312,25.390625,35.64453125,30.76171875,10.7421875,39.55078125
1771707030.7479374,20.5078125,39.55078125,35.15625,61.5234375,-8.30078125
1771707030.7518437,20.5078125,34.66796875,35.64453125,48.828125,-13.18359375
1771707030.75575,28.80859375,31.25,32.2265625,-2.9296875,20.5078125
1771707030.7596562,25.87890625,31.73828125,34.66796875,1.953125,51.7578125
1771707030.7635624,16.11328125,27.34375,33.69140625,48.33984375,59.5703125
1771707030.7674687,20.01953125,34.66796875,35.15625,53.7109375,45.41015625
1771707030.771375,32.2265625,48.828125,37.109375,14.6484375,14.16015625
1771707030.7752812,27.34375,31.73828125,30.2734375,-2.44140625,28.3203125
1771707030.7791874,19.04296875,25.390625,30.76171875,39.55078125,36.62109375
1771707030.7830937,22.94921875,33.69140625,33.69140625,69.82421875,34.66796875
1771707030.784125,30.2734375,30.76171875,31.73828125,29.296875,39.0625
1771707030.7880313,37.109375,31.73828125,30.2734375,-7.32421875,39.55078125
1771707030.7919376,31.73828125,35.15625,31.25,22.94921875,31.73828125
1771707030.7958438,12.6953125,31.73828125,29.296875,56.640625,81.0546875
1771707030.79975,14.6484375,34.1796875,29.78515625,37.109375,103.02734375
1771707030.8036563,28.80859375,41.50390625,32.71484375,-3.90625,74.70703125
1771707030.8075626,24.4140625,36.62109375,27.83203125,6.34765625,-1.46484375
1771707030.8114688,20.99609375,33.203125,28.3203125,53.22265625,-3.90625
1771707030.815375,23.92578125,35.15625,25.390625,45.41015625,42.48046875
1771707030.8192813,28.3203125,33.69140625,22.94921875,4.8828125,0.9765625
1771707030.8231876,32.71484375,34.66796875,24.4140625,-0.9765625,-22.94921875
1771707030.8270938,28.80859375,37.109375,28.3203125,37.59765625,0.0
1771707030.844125,24.4140625,31.25,32.2265625,51.7578125,-12.20703125
1771707030.8480313,34.1796875,41.9921875,37.59765625,13.18359375,-13.18359375
1771707030.8519375,32.71484375,49.31640625,32.71484375,-7.32421875,23.92578125
1771707030.8558438,14.16015625,28.3203125,21.97265625,21.97265625,36.62109375
1771707030.85975,9.27734375,26.3671875,24.90234375,53.22265625,47.8515625
1771707030.8636563,19.04296875,29.296875,29.78515625,21.484375,12.20703125
1771707030.8675625,23.4375,26.85546875,30.76171875,-20.01953125,47.36328125
1771707030.8714688,13.671875,27.83203125,27.34375,7.8125,59.5703125
1771707030.875375,18.06640625,35.15625,32.71484375,59.5703125,32.2265625
1771707030.8792813,27.34375,41.50390625,35.15625,41.50390625,37.59765625
1771707030.8831875,31.25,35.15625,29.78515625,-7.32421875,27.83203125
1771707030.8870938,30.2734375,30.2734375,29.296875,10.7421875,21.97265625
1771707030.889125,22.94921875,34.66796875,28.3203125,59.5703125,-2.44140625
1771707030.8930314,26.85546875,37.109375,29.296875,55.17578125,16.11328125
1771707030.8969376,34.1796875,34.1796875,31.25,13.18359375,39.55078125
1771707030.9008439,32.2265625,37.59765625,30.2734375,-2.44140625,54.19921875
1771707030.90475,31.25,44.921875,32.71484375,40.52734375,74.70703125
1771707030.9086564,25.390625,35.64453125,33.69140625,62.01171875,57.6171875
1771707030.9125626,30.76171875,28.3203125,27.34375,12.20703125,-7.32421875
1771707030.9164689,34.1796875,36.1328125,27.34375,-10.7421875,-27.83203125
1771707030.920375,22.94921875,35.64453125,26.85546875,26.85546875,29.296875
1771707030.9242814,23.92578125,41.015625,29.296875,60.546875,57.6171875
1771707030.9281876,30.2734375,51.26953125,32.2265625,30.2734375,64.453125
1771707030.9320939,28.3203125,34.66796875,25.87890625,-9.765625,15.625
1771707030.935125,17.578125,28.80859375,28.80859375,15.625,-18.5546875
1771707030.9390314,9.765625,41.9921875,33.69140625,56.15234375,68.84765625
1771707030.9429376,18.06640625,43.45703125,29.296875,38.0859375,68.84765625
1771707030.9468439,23.92578125,36.1328125,26.85546875,-6.8359375,54.6875
1771707030.95075,21.484375,30.2734375,28.80859375,2.9296875,61.5234375
1771707030.9546564,25.87890625,31.25,31.73828125,51.7578125,48.828125
1771707030.9585626,22.94921875,34.1796875,32.2265625,62.01171875,46.875
1771707030.9624689,24.90234375,33.203125,32.71484375,14.16015625,29.296875
1771707030.966375,28.80859375,31.73828125,30.76171875,-0.9765625,68.359375
1771707030.9702814,27.83203125,39.0625,32.2265625,48.33984375,86.9140625
1771707030.9741876,28.3203125,39.0625,36.1328125,68.359375,89.84375
1771707030.9780939,30.2734375,32.71484375,30.2734375,25.87890625,73.2421875
1771707030.979125,35.15625,31.25,27.34375,-0.9765625,-2.44140625
1771707030.9830313,28.80859375,31.25,26.85546875,33.69140625,-23.4375
1771707030.9869375,25.87890625,35.64453125,31.25,72.265625,5.37109375
1771707030.9908438,36.1328125,36.1328125,31.73828125,37.59765625,22.94921875
1771707030.99475,41.9921875,36.62109375,29.296875,-3.90625,22.4609375
1771707030.9986563,38.0859375,42.48046875,35.15625,23.92578125,23.92578125
1771707031.0025625,30.2734375,32.2265625,34.1796875,64.94140625,83.0078125
1771707031.0064688,29.296875,27.83203125,31.25,52.734375,62.5
1771707031.010375,35.64453125,30.2734375,30.2734375,4.8828125,-23.92578125
1771707031.0142813,29.78515625,24.90234375,31.25,0.0,22.4609375
1771707031.0181875,25.87890625,28.80859375,33.69140625,52.24609375,79.1015625
1771707031.0220938,27.83203125,29.78515625,29.78515625,67.3828125,18.06640625
1771707031.024125,37.109375,35.15625,32.71484375,22.4609375,59.5703125
1771707031.0280313,43.45703125,40.52734375,39.0625,-0.9765625,82.51953125
1771707031.0319376,29.296875,39.55078125,37.109375,41.9921875,25.390625
1771707031.0358438,17.08984375,35.15625,34.1796875,73.2421875,9.27734375
1771707031.03975,22.4609375,25.87890625,31.25,29.78515625,3.41796875
1771707031.0436563,24.90234375,23.92578125,30.76171875,-9.765625,1.46484375
1771707031.0475626,24.4140625,28.80859375,29.296875,20.5078125,-6.34765625
1771707031.0514688,26.3671875,37.59765625,28.80859375,60.05859375,-18.06640625
1771707031.055375,31.25,32.2265625,28.3203125,31.73828125,-8.7890625
1771707031.0592813,36.1328125,27.83203125,32.71484375,-10.7421875,8.7890625
1771707031.0631876,38.0859375,50.78125,39.55078125,14.16015625,22.94921875
1771707031.0670938,30.2734375,44.43359375,34.66796875,64.453125,33.203125
1771707031.069125,24.4140625,23.4375,32.71484375,58.10546875,27.34375
1771707031.0730312,34.1796875,29.296875,40.0390625,11.71875,24.90234375
1771707031.0769374,35.15625,33.69140625,39.55078125,7.8125,42.96875
1771707031.0808437,30.76171875,33.203125,35.64453125,52.24609375,66.40625
1771707031.08475,25.390625,32.2265625,33.203125,66.89453125,63.4765625
1771707031.0886562,28.80859375,29.296875,32.2265625,23.92578125,29.78515625
1771707031.0925624,34.66796875,29.296875,33.69140625,-1.46484375,32.71484375
1771707031.0964687,23.92578125,40.0390625,38.0859375,34.66796875,69.3359375
1771707031.100375,19.53125,42.48046875,42.48046875,64.94140625,47.36328125
1771707031.1042812,31.25,33.203125,37.109375,32.2265625,27.34375
1771707031.1081874,36.1328125,29.296875,28.80859375,-10.7421875,25.87890625
1771707031.1120937,24.90234375,27.34375,31.73828125,16.11328125,-12.6953125
1771707031.114125,19.04296875,32.2265625,33.69140625,62.01171875,-16.11328125
1771707031.1180313,22.94921875,36.62109375,35.15625,42.48046875,47.36328125
1771707031.1219375,29.296875,41.9921875,40.52734375,-1.46484375,72.265625
1771707031.1258438,22.94921875,42.96875,34.66796875,6.8359375,21.97265625
1771707031.12975,13.671875,33.203125,29.78515625,52.24609375,29.78515625
1771707031.1336563,21.484375,33.203125,35.15625,54.19921875,63.96484375
1771707031.1375625,31.25,31.25,32.71484375,4.8828125,64.94140625
1771707031.1414688,31.25,30.76171875,29.78515625,-3.41796875,19.53125
1771707031.145375,25.390625,30.76171875,34.66796875,45.41015625,7.32421875
1771707031.1492813,31.25,35.15625,34.66796875,68.84765625,19.04296875
1771707031.1531875,41.50390625,44.921875,35.64453125,23.92578125,43.45703125
1771707031.1570938,29.296875,37.59765625,36.1328125,-10.7421875,60.546875
1771707031.159125,17.08984375,30.76171875,31.73828125,27.34375,10.7421875
1771707031.1630313,22.94921875,35.64453125,31.25,61.5234375,16.6015625
1771707031.1669376,33.69140625,39.0625,32.71484375,31.25,64.94140625
1771707031.1708438,38.57421875,34.1796875,32.71484375,-10.25390625,80.56640625
1771707031.17475,36.1328125,30.2734375,30.76171875,15.625,23.92578125
1771707031.1786563,36.62109375,47.36328125,35.64453125,69.82421875,-2.44140625
1771707031.1825626,33.203125,53.7109375,37.59765625,50.29296875,0.9765625
1771707031.1864688,25.87890625,30.2734375,29.78515625,-9.765625,15.13671875
1771707031.190375,23.4375,21.484375,27.34375,0.9765625,36.62109375
1771707031.1942813,16.11328125,25.87890625,28.80859375,54.19921875,40.0390625
1771707031.1981876,19.53125,34.1796875,27.83203125,55.6640625,20.01953125
1771707031.2020938,27.34375,33.69140625,25.87890625,3.90625,13.671875
1771707031.205125,27.83203125,33.203125,29.296875,-17.578125,18.5546875
1771707031.2090313,24.4140625,43.9453125,29.296875,25.390625,48.828125
1771707031.2129376,29.296875,49.8046875,25.390625,56.15234375,44.921875
1771707031.2168438,38.57421875,38.0859375,23.4375,13.671875,10.25390625
1771707031.22075,39.55078125,30.76171875,25.390625,-14.16015625,28.3203125
1771707031.2246563,31.73828125,32.71484375,27.83203125,22.4609375,71.2890625
1771707031.2285626,22.4609375,31.73828125,30.76171875,59.5703125,70.3125
1771707031.2324688,17.578125,30.2734375,32.71484375,35.15625,19.53125
1771707031.236375,23.92578125,31.73828125,32.71484375,-10.25390625,0.9765625
1771707031.2402813,25.390625,37.109375,32.2265625,9.765625,40.0390625
1771707031.2441876,21.484375,38.57421875,31.73828125,58.10546875,45.41015625
1771707031.2480938,28.3203125,35.64453125,27.34375,47.8515625,27.83203125
1771707031.264125,40.0390625,40.0390625,26.3671875,-2.44140625,18.06640625
1771707031.2680314,33.69140625,33.203125,29.296875,2.44140625,25.87890625
1771707031.2719376,17.578125,26.3671875,29.78515625,58.59375,56.640625
1771707031.2758439,17.578125,30.76171875,29.296875,67.87109375,3.41796875
1771707031.27975,28.80859375,33.69140625,27.83203125,17.08984375,29.296875
1771707031.2836564,36.1328125,37.109375,28.3203125,-5.37109375,59.08203125
1771707031.2875626,39.0625,39.0625,31.25,34.66796875,28.80859375
1771707031.2914689,34.1796875,38.0859375,25.87890625,64.453125,23.92578125
1771707031.295375,34.1796875,34.66796875,21.484375,25.87890625,38.57421875
1771707031.2992814,39.55078125,29.78515625,22.94921875,-7.8125,43.9453125
1771707031.3031876,39.55078125,31.25,27.83203125,33.203125,41.9921875
1771707031.3070939,38.0859375,34.1796875,31.25,76.171875,52.734375
1771707031.309125,37.109375,34.1796875,32.2265625,48.828125,51.7578125
1771707031.3130312,43.9453125,37.109375,33.203125,2.44140625,2.44140625
1771707031.3169374,37.109375,36.1328125,34.66796875,19.04296875,7.32421875
1771707031.3208437,16.6015625,28.3203125,36.62109375,68.359375,-11.23046875
1771707031.32475,18.5546875,25.87890625,33.69140625,61.03515625,-11.23046875
1771707031.3286562,33.203125,31.25,33.203125,14.16015625,48.828125
1771707031.3325624,31.25,33.203125,35.15625,5.859375,55.6640625
1771707031.3364687,20.01953125,32.2265625,34.1796875,52.24609375,-2.44140625
1771707031.340375,23.4375,39.0625,38.0859375,74.70703125,-6.8359375
1771707031.3442812,35.15625,41.015625,35.64453125,26.85546875,49.31640625
1771707031.3481874,29.296875,28.3203125,27.34375,-8.7890625,35.64453125
1771707031.3520937,24.4140625,26.3671875,30.2734375,38.0859375,16.6015625
1771707031.354125,27.34375,27.34375,33.69140625,74.21875,-7.8125
1771707031.3580313,29.296875,30.76171875,33.203125,35.15625,-22.94921875
1771707031.3619375,34.1796875,38.57421875,34.66796875,-0.48828125,-1.46484375
1771707031.3658438,37.109375,39.0625,32.2265625,25.390625,52.24609375
1771707031.36975,32.71484375,35.64453125,28.80859375,66.89453125,40.0390625
1771707031.3736563,37.59765625,30.76171875,30.76171875,47.36328125,16.6015625
1771707031.3775625,39.55078125,30.76171875,31.25,0.9765625,39.55078125
1771707031.3814688,27.34375,36.62109375,28.80859375,10.25390625,10.7421875
1771707031.385375,21.97265625,36.1328125,32.71484375,55.6640625,20.5078125
1771707031.3892813,24.90234375,35.64453125,31.73828125,57.6171875,20.99609375
1771707031.3931875,37.59765625,41.50390625,30.76171875,11.23046875,19.53125
1771707031.3970938,36.1328125,41.9921875,31.25,2.44140625,16.6015625
1771707031.399125,23.4375,37.59765625,29.78515625,49.8046875,46.875
1771707031.4030313,29.296875,33.69140625,31.25,72.75390625,71.2890625
1771707031.4069376,35.15625,30.2734375,29.78515625,28.80859375,30.2734375
1771707031.4108438,31.73828125,29.78515625,30.76171875,0.48828125,9.27734375
1771707031.41475,31.73828125,34.1796875,34.1796875,37.59765625,4.8828125
1771707031.4186563,28.3203125,35.15625,39.0625,69.3359375,27.34375
1771707031.4225626,41.015625,44.43359375,40.52734375,38.57421875,44.921875
1771707031.4264688,55.6640625,48.33984375,40.0390625,-5.37109375,22.94921875
1771707031.430375,32.71484375,33.203125,36.62109375,17.08984375,18.06640625
1771707031.4342813,3.41796875,29.296875,37.109375,66.40625,34.66796875
1771707031.4381876,0.48828125,31.73828125,34.1796875,53.22265625,21.97265625
1771707031.4420938,17.578125,31.25,30.76171875,4.39453125,9.27734375
1771707031.444125,19.53125,29.78515625,29.78515625,1.46484375,48.828125
1771707031.4480312,13.671875,31.73828125,30.76171875,50.29296875,17.578125
1771707031.4519374,16.6015625,34.66796875,35.64453125,65.4296875,15.13671875
1771707031.4558437,22.94921875,35.15625,33.69140625,15.13671875,20.99609375
1771707031.45975,25.390625,36.1328125,32.71484375,-5.37109375,11.71875
1771707031.4636562,26.85546875,36.62109375,36.62109375,42.48046875,18.06640625
1771707031.4675624,30.76171875,35.15625,38.0859375,70.3125,30.2734375
1771707031.4714687,33.203125,34.1796875,34.1796875,26.85546875,24.90234375
1771707031.475375,37.109375,33.69140625,31.25,-9.27734375,-7.32421875
1771707031.4792812,35.15625,35.15625,34.66796875,31.25,4.39453125
1771707031.4831874,32.2265625,40.52734375,37.109375,70.3125,38.0859375
1771707031.4870937,31.73828125,41.9921875,31.73828125,38.0859375,47.36328125
1771707031.505125,31.73828125,39.0625,32.71484375,-6.34765625,12.6953125
1771707031.5090313,32.2265625,34.1796875,34.66796875,10.7421875,6.8359375
1771707031.5129375,25.87890625,29.296875,33.69140625,61.03515625,96.6796875
1771707031.5168438,26.3671875,32.2265625,31.73828125,54.6875,115.72265625
1771707031.52075,29.296875,33.69140625,27.83203125,3.90625,61.5234375
1771707031.5246563,30.76171875,35.64453125,29.78515625,3.90625,69.82421875
1771707031.5285625,33.69140625,38.0859375,35.64453125,54.19921875,87.890625
1771707031.5324688,37.109375,39.55078125,35.64453125,67.87109375,81.0546875
1771707031.536375,38.57421875,43.45703125,30.76171875,18.06640625,72.75390625
1771707031.5402813,30.2734375,40.52734375,25.390625,-11.23046875,81.0546875
1771707031.5441875,23.92578125,36.1328125,29.78515625,37.59765625,83.0078125
1771707031.5480938,30.76171875,37.109375,30.76171875,75.1953125,69.3359375
1771707031.549125,39.0625,39.55078125,27.83203125,37.59765625,50.29296875
1771707031.5530312,46.38671875,48.33984375,31.73828125,-1.953125,33.203125
1771707031.5569375,38.0859375,42.96875,35.15625,25.390625,27.83203125
1771707031.5608437,26.3671875,36.1328125,34.1796875,71.2890625,64.453125
1771707031.56475,30.76171875,38.0859375,28.80859375,44.921875,43.45703125
1771707031.5686562,36.1328125,34.66796875,30.2734375,-2.44140625,15.625
1771707031.5725625,32.2265625,32.2265625,33.203125,12.6953125,-12.6953125
1771707031.5764687,20.01953125,35.64453125,33.203125,59.08203125,-8.30078125
1771707031.580375,17.08984375,34.66796875,34.1796875,59.08203125,32.2265625
1771707031.5842812,29.296875,31.25,34.1796875,11.71875,-3.90625
1771707031.5881875,41.50390625,40.52734375,36.62109375,2.9296875,-12.20703125
1771707031.5920937,37.59765625,44.921875,37.59765625,52.734375,-20.01953125
1771707031.594125,30.76171875,39.0625,32.71484375,74.70703125,-36.62109375
1771707031.5980313,34.66796875,37.59765625,31.73828125,22.4609375,17.08984375
1771707031.6019375,29.78515625,36.62109375,30.76171875,-14.6484375,4.8828125
1771707031.6058438,23.4375,33.203125,29.78515625,31.25,19.53125
1771707031.60975,22.4609375,29.78515625,27.83203125,68.84765625,81.54296875
1771707031.6136563,33.69140625,32.71484375,29.78515625,31.25,90.33203125
1771707031.6175625,48.828125,41.9921875,35.64453125,-4.39453125,53.7109375
1771707031.6214688,40.0390625,40.0390625,35.64453125,18.5546875,52.734375
1771707031.625375,20.5078125,36.1328125,35.64453125,60.05859375,17.08984375
1771707031.6292813,27.83203125,37.109375,35.64453125,43.45703125,13.671875
1771707031.6331875,35.64453125,38.57421875,31.25,-11.23046875,9.765625
1771707031.6370938,31.25,36.1328125,31.25,-3.90625,25.87890625
1771707031.639125,29.296875,32.71484375,31.73828125,45.41015625,62.01171875
1771707031.6430314,28.80859375,39.55078125,29.296875,44.43359375,77.63671875
1771707031.6469376,35.64453125,38.57421875,31.73828125,-0.9765625,50.78125
1771707031.6508439,41.9921875,43.9453125,35.64453125,-9.765625,17.578125
1771707031.65475,29.296875,43.9453125,35.15625,38.0859375,-0.9765625
1771707031.6586564,27.83203125,38.0859375,38.57421875,70.80078125,-10.25390625
1771707031.6625626,36.1328125,41.9921875,39.55078125,32.2265625,-3.90625
1771707031.6664689,36.1328125,33.203125,34.66796875,-10.7421875,26.3671875
1771707031.670375,36.1328125,33.203125,36.62109375,27.83203125,20.5078125
1771707031.6742814,23.92578125,32.2265625,36.1328125,68.359375,8.7890625
1771707031.6781876,33.203125,34.1796875,32.2265625,30.76171875,22.94921875
1771707031.6820939,43.45703125,38.0859375,32.71484375,-10.7421875,59.08203125
1771707031.684125,26.3671875,39.0625,34.1796875,17.08984375,69.3359375
1771707031.6880312,23.4375,40.52734375,34.66796875,62.98828125,61.5234375
1771707031.6919374,31.73828125,39.0625,34.66796875,47.8515625,83.49609375
1771707031.6958437,31.73828125,37.109375,34.66796875,0.0,19.04296875
1771707031.69975,32.2265625,30.76171875,33.69140625,-1.46484375,2.44140625
1771707031.7036562,30.76171875,34.66796875,35.15625,43.9453125,1.46484375
1771707031.7075624,26.3671875,40.0390625,34.66796875,53.7109375,-1.953125
1771707031.7114687,32.71484375,37.59765625,32.71484375,5.859375,31.73828125
1771707031.715375,39.0625,36.62109375,32.2265625,-20.01953125,41.015625
1771707031.7192812,27.83203125,35.15625,32.2265625,20.99609375,18.06640625
1771707031.7231874,18.06640625,30.76171875,34.1796875,57.6171875,8.7890625
1771707031.7270937,28.3203125,31.73828125,37.59765625,22.4609375,50.78125
1771707031.729125,30.2734375,35.64453125,39.0625,-18.06640625,95.21484375
1771707031.7330313,22.4609375,37.109375,37.59765625,15.13671875,49.8046875
1771707031.7369375,19.04296875,45.41015625,36.62109375,63.4765625,25.87890625
1771707031.7408438,15.13671875,38.0859375,32.2265625,26.85546875,67.3828125
1771707031.74475,22.94921875,26.85546875,29.296875,-23.92578125,50.29296875
1771707031.7486563,21.97265625,32.71484375,32.2265625,0.0,20.5078125
1771707031.7525625,12.20703125,31.25,35.15625,46.875,11.23046875
1771707031.7564688,21.97265625,27.83203125,35.15625,35.15625,52.734375
1771707031.760375,40.52734375,30.2734375,33.69140625,-13.671875,55.17578125
1771707031.7642813,34.66796875,34.1796875,35.64453125,-7.8125,23.92578125
1771707031.7681875,16.11328125,33.69140625,32.71484375,46.875,26.3671875
1771707031.7720938,18.06640625,34.1796875,31.73828125,60.546875,34.66796875
1771707031.775125,26.85546875,31.73828125,30.2734375,6.8359375,27.34375
1771707031.7790313,27.83203125,28.3203125,25.87890625,-18.06640625,29.78515625
1771707031.7829375,21.484375,33.203125,29.78515625,31.25,11.71875
1771707031.7868438,20.01953125,38.57421875,34.1796875,61.5234375,-36.1328125
1771707031.79075,25.390625,37.59765625,32.2265625,21.484375,23.4375
1771707031.7946563,27.83203125,34.66796875,31.73828125,-16.6015625,21.484375
1771707031.7985625,20.99609375,30.76171875,31.73828125,12.20703125,1.46484375
1771707031.8024688,7.8125,28.80859375,30.76171875,56.15234375,66.40625
1771707031.806375,16.11328125,30.76171875,31.25,40.0390625,97.65625
1771707031.8102813,33.69140625,35.64453125,35.64453125,-1.46484375,38.57421875
1771707031.8141875,25.390625,32.2265625,35.64453125,10.7421875,18.06640625
1771707031.8180938,14.16015625,27.83203125,32.2265625,61.5234375,-1.46484375
1771707031.819125,29.296875,36.62109375,30.76171875,61.5234375,-4.39453125
1771707031.8230312,48.33984375,44.43359375,31.73828125,5.37109375,42.48046875
1771707031.8269374,40.0390625,41.015625,31.73828125,-7.32421875,72.75390625
1771707031.8308437,22.4609375,35.15625,26.3671875,38.57421875,91.30859375
1771707031.83475,18.06640625,32.2265625,26.3671875,62.01171875,31.73828125
1771707031.8386562,26.3671875,34.1796875,28.80859375,24.90234375,32.71484375
1771707031.8425624,30.2734375,38.57421875,25.87890625,-8.30078125,42.96875
1771707031.8464687,25.390625,39.0625,29.296875,27.34375,12.20703125
1771707031.850375,25.87890625,39.55078125,34.66796875,68.359375,0.48828125
1771707031.8542812,36.1328125,48.828125,33.69140625,40.0390625,31.25
1771707031.8581874,32.71484375,39.0625,31.25,-9.27734375,62.01171875
1771707031.8620937,27.83203125,28.80859375,31.25,15.625,17.08984375
1771707031.864125,29.296875,33.69140625,33.203125,66.89453125,0.0
1771707031.8680313,35.15625,40.52734375,34.1796875,42.96875,-11.71875
1771707031.8719375,36.1328125,42.48046875,32.71484375,-13.671875,16.6015625
1771707031.8758438,24.90234375,36.1328125,32.71484375,-4.8828125,91.30859375
1771707031.87975,21.97265625,33.203125,34.1796875,44.921875,62.5
1771707031.8836563,25.390625,34.1796875,31.25,49.8046875,53.7109375
1771707031.8875625,34.66796875,33.203125,29.296875,-0.9765625,26.3671875
1771707031.8914688,39.0625,34.1796875,34.1796875,-18.5546875,22.94921875
1771707031.895375,30.76171875,31.25,32.71484375,34.66796875,76.66015625
1771707031.8992813,27.34375,32.71484375,29.78515625,62.01171875,42.48046875
1771707031.9031875,32.71484375,38.0859375,34.1796875,17.578125,48.33984375
1771707031.9070938,32.71484375,38.0859375,32.2265625,-14.16015625,64.94140625
1771707031.909125,23.4375,35.64453125,30.2734375,21.484375,68.359375
1771707031.9130313,23.4375,34.1796875,32.71484375,62.5,75.1953125
1771707031.9169376,26.85546875,34.66796875,34.1796875,30.76171875,47.8515625
1771707031.9208438,26.85546875,34.66796875,31.25,-17.08984375,-4.39453125
1771707031.92475,30.2734375,32.71484375,33.69140625,8.7890625,-10.7421875
1771707031.9286563,35.15625,34.66796875,34.1796875,62.5,-4.8828125
1771707031.9325626,40.52734375,36.1328125,28.3203125,49.8046875,-28.80859375
1771707031.9364688,46.38671875,36.62109375,26.85546875,-5.859375,-19.53125
1771707031.940375,39.55078125,37.109375,30.2734375,-4.39453125,-14.16015625
1771707031.9442813,27.83203125,33.203125,31.73828125,51.7578125,-29.78515625
1771707031.9481876,30.2734375,32.71484375,30.76171875,63.4765625,-4.39453125
1771707031.9520938,41.50390625,39.0625,34.1796875,13.18359375,44.43359375
1771707031.969125,45.41015625,38.57421875,34.1796875,-12.20703125,60.546875
1771707031.9730313,38.0859375,30.76171875,35.15625,30.2734375,72.75390625
1771707031.9769375,27.83203125,26.85546875,38.0859375,67.3828125,87.40234375
1771707031.9808438,28.3203125,28.3203125,37.109375,25.390625,12.20703125
1771707031.98475,29.78515625,31.73828125,33.69140625,-14.16015625,-14.16015625
1771707031.9886563,25.87890625,31.25,30.2734375,23.4375,26.3671875
1771707031.9925625,27.83203125,30.2734375,30.76171875,63.96484375,20.5078125
1771707031.9964688,28.3203125,37.109375,32.2265625,42.96875,32.71484375
1771707032.000375,35.15625,41.015625,35.15625,2.9296875,84.9609375
1771707032.0042813,45.41015625,42.48046875,34.66796875,18.06640625,111.328125
1771707032.0081875,39.0625,41.9921875,30.76171875,60.546875,81.54296875
1771707032.0120938,37.59765625,35.15625,30.2734375,55.6640625,23.92578125
1771707032.014125,49.8046875,37.109375,34.1796875,5.859375,-20.01953125
1771707032.0180314,47.36328125,38.57421875,32.2265625,-1.46484375,1.953125
1771707032.0219376,39.0625,44.43359375,29.296875,51.7578125,62.01171875
1771707032.0258439,33.69140625,42.48046875,27.34375,67.87109375,42.96875
1771707032.02975,42.48046875,35.15625,24.90234375,15.625,-7.8125
1771707032.0336564,45.8984375,35.64453125,28.80859375,-14.16015625,-8.30078125
1771707032.0375626,41.015625,35.15625,29.296875,33.203125,15.13671875
1771707032.0414689,41.9921875,35.64453125,30.2734375,74.70703125,21.97265625
1771707032.045375,44.921875,33.69140625,31.73828125,33.203125,39.55078125
1771707032.0492814,45.8984375,39.0625,30.2734375,-11.71875,23.92578125
1771707032.0531876,43.9453125,42.96875,33.69140625,26.3671875,-19.04296875
1771707032.0570939,33.203125,34.66796875,36.62109375,74.21875,40.0390625
1771707032.059125,30.76171875,28.3203125,36.1328125,50.78125,47.36328125
1771707032.0630312,37.109375,28.80859375,32.2265625,1.953125,3.90625
1771707032.0669374,38.0859375,33.203125,31.73828125,15.625,2.9296875
1771707032.0708437,32.2265625,33.203125,32.71484375,64.94140625,26.85546875
1771707032.07475,34.66796875,34.1796875,35.64453125,66.40625,77.1484375
1771707032.0786562,42.48046875,31.73828125,36.62109375,16.11328125,55.6640625
1771707032.0825624,40.52734375,30.2734375,34.1796875,-0.9765625,0.0
1771707032.0864687,33.69140625,37.59765625,32.2265625,48.828125,8.30078125
1771707032.090375,35.15625,44.43359375,37.109375,77.1484375,53.7109375
1771707032.0942812,43.9453125,42.48046875,35.64453125,23.92578125,17.08984375
1771707032.0981874,41.9921875,31.25,30.76171875,-11.71875,-47.36328125
1771707032.1020937,34.66796875,33.203125,34.66796875,39.0625,9.765625
1771707032.104125,29.296875,31.73828125,32.2265625,78.125,38.0859375
1771707032.1080313,33.69140625,24.90234375,27.83203125,34.66796875,1.46484375
1771707032.1119375,44.43359375,31.73828125,32.2265625,-8.7890625,0.0
1771707032.1158438,39.0625,31.25,35.64453125,18.5546875,38.57421875
1771707032.11975,37.109375,33.69140625,31.73828125,65.91796875,30.2734375
1771707032.1236563,45.8984375,39.0625,33.203125,55.17578125,17.08984375
1771707032.1275625,36.62109375,41.9921875,36.62109375,3.90625,38.57421875
1771707032.1314688,17.578125,41.50390625,35.15625,4.39453125,18.5546875
1771707032.135375,14.6484375,36.62109375,34.66796875,54.19921875,1.46484375
1771707032.1392813,16.6015625,33.69140625,33.203125,60.05859375,69.82421875
1771707032.1431875,29.296875,33.203125,35.64453125,9.765625,71.2890625
1771707032.1470938,37.59765625,34.1796875,36.1328125,-7.32421875,47.8515625
1771707032.149125,32.2265625,39.0625,31.73828125,42.96875,67.3828125
1771707032.1530313,30.76171875,36.1328125,31.25,76.171875,6.8359375
1771707032.1569376,38.57421875,31.73828125,33.203125,28.3203125,4.39453125
1771707032.1608438,45.41015625,34.1796875,33.203125,-13.671875,70.3125
1771707032.16475,41.9921875,36.62109375,29.296875,19.04296875,61.5234375
1771707032.1686563,35.15625,41.015625,30.76171875,63.96484375,50.29296875
1771707032.1725626,36.62109375,43.45703125,32.2265625,41.015625,59.5703125
1771707032.1764688,45.8984375,41.50390625,31.25,-5.859375,40.0390625
1771707032.180375,38.57421875,36.62109375,33.69140625,15.625,45.8984375
1771707032.1842813,31.25,34.1796875,30.2734375,66.40625,26.3671875
1771707032.1881876,43.9453125,47.8515625,32.2265625,58.59375,51.26953125
1771707032.1920938,42.96875,45.8984375,35.15625,7.8125,56.15234375
1771707032.194125,29.296875,27.83203125,30.2734375,5.859375,14.6484375
1771707032.1980312,32.71484375,35.15625,33.203125,64.94140625,11.71875
1771707032.2019374,33.69140625,41.9921875,35.64453125,72.75390625,43.9453125
1771707032.2058437,33.69140625,39.0625,34.1796875,8.7890625,91.30859375
1771707032.20975,34.1796875,30.76171875,33.69140625,-12.6953125,15.13671875
1771707032.2136562,29.78515625,26.85546875,32.71484375,41.015625,-16.11328125
1771707032.2175624,26.3671875,28.3203125,29.78515625,72.265625,41.015625
1771707032.2214687,30.2734375,28.3203125,31.73828125,23.92578125,46.38671875
1771707032.225375,28.80859375,28.80859375,33.69140625,-9.765625,50.78125
1771707032.2292812,22.94921875,32.2265625,34.1796875,31.25,33.69140625
1771707032.2331874,20.01953125,32.2265625,33.203125,71.77734375,12.6953125
1771707032.2370937,30.2734375,31.73828125,32.2265625,42.96875,-0.48828125
1771707032.239125,42.48046875,37.59765625,34.1796875,-4.8828125,-41.015625
1771707032.2430313,35.15625,38.0859375,31.73828125,7.32421875,-36.1328125
1771707032.2469375,23.92578125,30.2734375,30.76171875,59.5703125,17.578125
1771707032.2508438,29.296875,31.25,34.1796875,63.96484375,38.57421875
1771707032.25475,36.62109375,36.1328125,31.25,12.20703125,57.6171875
1771707032.2586563,34.66796875,36.62109375,31.25,7.8125,64.94140625
1771707032.2625625,30.76171875,37.109375,36.1328125,64.94140625,32.71484375
1771707032.2664688,24.4140625,33.69140625,34.1796875,75.68359375,9.27734375
1771707032.270375,26.85546875,30.2734375,31.73828125,23.4375,-14.6484375
1771707032.2742813,32.71484375,33.203125,39.0625,0.9765625,15.13671875
1771707032.2781875,28.3203125,33.69140625,38.57421875,46.875,77.1484375
1771707032.2820938,31.73828125,33.69140625,35.15625,86.42578125,53.22265625
1771707032.284125,42.96875,40.0390625,36.62109375,45.41015625,42.48046875
1771707032.2880313,41.50390625,40.52734375,32.2265625,-1.46484375,42.96875
1771707032.2919376,35.64453125,35.15625,32.2265625,33.203125,-12.20703125
1771707032.2958438,33.69140625,37.109375,37.109375,77.1484375,-27.34375
1771707032.29975,36.62109375,36.62109375,35.15625,52.24609375,15.625
1771707032.3036563,37.109375,30.76171875,33.69140625,13.671875,12.20703125
1771707032.3075626,30.76171875,30.76171875,39.55078125,25.87890625,31.73828125
1771707032.3114688,28.3203125,35.64453125,40.52734375,69.3359375,28.80859375
1771707032.315375,28.3203125,35.64453125,37.59765625,69.3359375,35.15625
1771707032.3192813,36.62109375,39.55078125,39.55078125,20.99609375,30.76171875
1771707032.3231876,32.2265625,34.66796875,37.109375,-1.46484375,-19.53125
1771707032.3270938,21.97265625,26.3671875,38.0859375,46.38671875,10.25390625
1771707032.330125,19.53125,29.78515625,42.96875,77.63671875,32.2265625
1771707032.3340313,20.99609375,29.296875,39.0625,28.3203125,43.45703125
1771707032.3379376,28.80859375,26.3671875,36.1328125,-3.90625,83.984375
1771707032.3418438,30.76171875,28.80859375,36.62109375,37.109375,40.0390625
1771707032.34575,30.2734375,33.203125,38.0859375,79.1015625,22.94921875
1771707032.3496563,36.62109375,31.25,38.57421875,44.921875,81.54296875
1771707032.3535626,41.015625,37.109375,33.203125,-1.953125,68.359375
1771707032.3574688,40.0390625,45.41015625,35.15625,29.78515625,38.57421875
1771707032.361375,32.2265625,38.0859375,42.48046875,83.0078125,30.76171875
1771707032.3652813,28.80859375,28.3203125,40.52734375,62.01171875,47.36328125
1771707032.3691876,35.15625,30.76171875,37.109375,1.46484375,63.96484375
1771707032.3730938,32.71484375,34.1796875,36.62109375,4.8828125,53.7109375
1771707032.389125,30.2734375,31.25,38.57421875,63.96484375,45.41015625
1771707032.3930314,31.25,32.71484375,39.55078125,72.75390625,39.55078125
1771707032.3969376,31.25,31.25,39.55078125,9.765625,50.29296875
1771707032.4008439,34.1796875,29.296875,37.109375,-11.71875,25.87890625
1771707032.40475,37.109375,38.0859375,40.52734375,47.8515625,36.62109375
1771707032.4086564,39.0625,40.52734375,41.9921875,81.54296875,53.22265625
1771707032.4125626,33.69140625,26.3671875,34.66796875,24.90234375,1.46484375
1771707032.4164689,34.66796875,24.4140625,33.69140625,-17.578125,-14.16015625
1771707032.420375,38.57421875,32.2265625,37.59765625,35.15625,41.9921875
1771707032.4242814,35.64453125,32.71484375,38.0859375,85.44921875,40.0390625
1771707032.4281876,35.64453125,34.1796875,34.66796875,47.36328125,-15.13671875
1771707032.4320939,36.1328125,30.2734375,33.203125,-4.39453125,-23.4375
1771707032.434125,33.203125,27.83203125,33.203125,20.5078125,2.9296875
1771707032.4380312,32.2265625,33.69140625,31.73828125,73.73046875,12.6953125
1771707032.4419374,38.0859375,34.1796875,32.71484375,66.40625,63.96484375
1771707032.4458437,45.41015625,26.85546875,37.59765625,17.578125,46.875
1771707032.44975,43.45703125,27.34375,36.1328125,16.11328125,27.83203125
1771707032.4536562,41.015625,30.76171875,36.62109375,72.75390625,63.96484375
1771707032.4575624,45.8984375,37.109375,38.57421875,89.84375,21.97265625
1771707032.4614687,48.828125,36.62109375,38.0859375,35.15625,3.41796875
1771707032.465375,42.48046875,28.80859375,35.64453125,6.34765625,-6.8359375
1771707032.4692812,40.52734375,31.25,32.71484375,49.8046875,38.57421875
1771707032.4731874,40.52734375,33.203125,32.2265625,84.47265625,42.96875
1771707032.4770937,44.921875,34.66796875,31.25,42.96875,24.90234375
1771707032.479125,44.921875,33.203125,31.73828125,-6.34765625,70.80078125
1771707032.4830313,39.55078125,46.875,38.0859375,28.80859375,47.36328125
1771707032.4869375,41.9921875,46.875,36.1328125,73.2421875,33.69140625
1771707032.4908438,43.9453125,28.80859375,28.80859375,40.52734375,66.89453125
1771707032.49475,42.48046875,31.25,29.78515625,-10.7421875,62.5
1771707032.4986563,40.52734375,38.57421875,30.76171875,3.41796875,53.22265625
1771707032.5025625,39.0625,38.57421875,29.78515625,59.08203125,32.71484375
1771707032.5064688,36.1328125,35.64453125,30.2734375,57.6171875,38.0859375
1771707032.510375,43.45703125,32.2265625,29.78515625,0.9765625,68.359375
1771707032.5142813,47.8515625,33.203125,33.69140625,-5.37109375,62.01171875
1771707032.5181875,44.921875,45.8984375,36.1328125,49.8046875,35.15625
1771707032.5220938,41.9921875,40.0390625,33.69140625,73.73046875,37.109375
1771707032.525125,47.36328125,30.76171875,34.1796875,28.3203125,47.36328125
1771707032.5290313,58.59375,35.64453125,32.2265625,-4.39453125,30.76171875
1771707032.5329375,47.36328125,37.59765625,33.203125,44.43359375,28.3203125
1771707032.5368438,28.80859375,36.1328125,33.69140625,85.44921875,-6.8359375
1771707032.54075,33.69140625,37.109375,30.2734375,42.48046875,36.1328125
1771707032.5446563,41.015625,39.0625,28.3203125,-7.32421875,40.0390625
1771707032.5485625,34.66796875,37.59765625,28.80859375,22.4609375,1.46484375
1771707032.5524688,29.78515625,37.59765625,28.80859375,74.21875,25.390625
1771707032.556375,32.71484375,34.66796875,28.80859375,53.22265625,3.41796875
1771707032.5602813,42.48046875,42.96875,36.62109375,3.41796875,23.92578125
1771707032.5641875,40.52734375,51.7578125,38.0859375,15.13671875,40.52734375
1771707032.5680938,29.296875,36.62109375,34.1796875,63.96484375,80.078125
1771707032.569125,35.15625,36.1328125,38.57421875,70.3125,74.21875
1771707032.5730312,39.0625,41.015625,37.109375,16.6015625,-10.7421875
1771707032.5769374,34.66796875,36.62109375,32.71484375,-2.44140625,-15.625
1771707032.5808437,25.87890625,34.1796875,34.1796875,48.828125,15.13671875
1771707032.58475,25.390625,34.1796875,35.64453125,71.77734375,23.92578125
1771707032.5886562,31.73828125,32.71484375,35.64453125,23.4375,11.71875
1771707032.5925624,33.203125,30.76171875,38.0859375,-6.8359375,6.8359375
1771707032.5964687,32.2265625,33.203125,37.109375,33.69140625,11.71875
1771707032.600375,32.71484375,42.48046875,37.59765625,77.63671875,37.109375
1771707032.6042812,36.62109375,41.50390625,33.69140625,43.9453125,28.80859375
1771707032.6081874,38.57421875,37.59765625,31.73828125,-7.32421875,5.37109375
1771707032.6120937,34.1796875,38.57421875,34.1796875,17.08984375,-9.765625
1771707032.615125,34.1796875,42.96875,31.73828125,68.84765625,4.8828125
1771707032.6190312,39.0625,45.41015625,30.2734375,54.19921875,45.8984375
1771707032.6229374,39.55078125,40.0390625,31.73828125,-0.9765625,51.7578125
1771707032.6268437,36.62109375,36.1328125,33.203125,2.9296875,20.99609375
1771707032.63075,33.203125,45.8984375,35.15625,59.5703125,54.19921875
1771707032.6346562,31.73828125,48.828125,33.69140625,70.3125,99.609375
1771707032.6385624,33.69140625,38.57421875,30.2734375,11.23046875,56.640625
1771707032.6424687,36.62109375,40.52734375,29.296875,-12.20703125,28.80859375
1771707032.646375,27.83203125,38.57421875,31.25,39.55078125,17.08984375
1771707032.6502812,26.85546875,35.15625,35.15625,69.3359375,13.18359375
1771707032.6541874,37.109375,34.1796875,31.73828125,24.90234375,3.41796875
1771707032.6580937,36.62109375,34.66796875,30.76171875,-8.7890625,30.2734375
1771707032.660125,35.64453125,35.64453125,34.1796875,29.78515625,-1.46484375
1771707032.6640313,40.52734375,38.57421875,34.1796875,80.56640625,-26.85546875
1771707032.6679375,39.55078125,40.52734375,33.69140625,55.17578125,52.24609375
1771707032.6718438,40.52734375,41.9921875,31.73828125,-0.48828125,49.8046875
1771707032.67575,36.62109375,41.50390625,27.83203125,13.671875,50.78125
1771707032.6796563,34.1796875,42.96875,32.2265625,77.1484375,37.109375
1771707032.6835625,36.62109375,41.015625,32.2265625,62.98828125,-12.20703125
1771707032.6874688,37.59765625,36.62109375,28.3203125,-5.37109375,19.53125
1771707032.691375,31.73828125,37.109375,30.2734375,-0.9765625,48.828125
1771707032.6952813,22.4609375,38.0859375,31.25,58.10546875,19.53125
1771707032.6991875,19.04296875,40.52734375,32.71484375,74.70703125,29.78515625
1771707032.7030938,27.34375,37.109375,36.62109375,32.71484375,109.86328125
1771707032.719125,41.015625,44.43359375,42.48046875,11.23046875,83.49609375
1771707032.7230313,36.1328125,50.29296875,43.9453125,48.33984375,15.625
1771707032.7269375,22.94921875,37.109375,37.109375,73.73046875,97.16796875
1771707032.7308438,25.390625,35.15625,35.64453125,25.390625,103.515625
1771707032.73475,26.85546875,35.15625,34.1796875,-16.6015625,41.9921875
1771707032.7386563,27.83203125,36.62109375,34.66796875,20.01953125,32.71484375
1771707032.7425625,22.94921875,37.109375,34.66796875,66.40625,50.78125
1771707032.7464688,22.94921875,34.66796875,36.1328125,46.875,39.55078125
1771707032.750375,32.2265625,35.15625,35.64453125,-5.859375,26.85546875
1771707032.7542813,32.2265625,36.1328125,34.1796875,2.44140625,65.91796875
1771707032.7581875,29.296875,40.52734375,37.109375,52.24609375,39.0625
1771707032.7620938,25.87890625,37.109375,32.2265625,46.875,18.5546875
1771707032.764125,29.78515625,39.0625,33.203125,-3.41796875,7.32421875
1771707032.7680314,33.69140625,52.734375,38.0859375,-10.7421875,-20.5078125
1771707032.7719376,22.4609375,41.9921875,32.71484375,41.9921875,2.9296875
1771707032.7758439,19.04296875,30.76171875,32.71484375,69.82421875,20.99609375
1771707032.77975,27.83203125,34.1796875,33.69140625,23.92578125,-3.90625
1771707032.7836564,33.69140625,31.25,35.15625,-6.8359375,-22.94921875
1771707032.7875626,38.57421875,33.203125,35.64453125,40.52734375,-0.9765625
1771707032.7914689,52.24609375,38.0859375,32.2265625,96.19140625,20.5078125
1771707032.795375,48.33984375,36.1328125,33.69140625,54.6875,-27.34375
1771707032.7992814,20.5078125,39.55078125,45.41015625,-21.484375,-36.1328125
1771707032.8031876,5.859375,40.0390625,53.22265625,7.8125,-4.8828125
1771707032.8070939,13.18359375,34.1796875,51.7578125,72.75390625,30.76171875
1771707032.809125,13.18359375,26.85546875,55.17578125,49.8046875,48.33984375
1771707032.8130312,2.9296875,16.11328125,56.15234375,-15.13671875,86.42578125
1771707032.8169374,3.41796875,11.71875,53.22265625,-0.9765625,89.35546875
1771707032.8208437,8.7890625,19.53125,50.29296875,58.10546875,28.3203125
1771707032.82475,3.90625,24.90234375,46.38671875,54.19921875,17.578125
1771707032.8286562,8.30078125,30.2734375,46.38671875,2.44140625,33.69140625
1771707032.8325624,16.6015625,36.62109375,47.8515625,-9.27734375,58.59375
1771707032.8364687,10.25390625,25.390625,48.33984375,46.875,82.03125
1771707032.840375,14.16015625,20.01953125,48.33984375,79.1015625,60.05859375
1771707032.8442812,19.53125,23.92578125,46.875,27.83203125,41.50390625
1771707032.8481874,18.5546875,27.83203125,42.96875,-8.7890625,30.2734375
1771707032.8520937,12.6953125,24.90234375,41.9921875,33.203125,36.62109375
1771707032.854125,10.25390625,27.83203125,44.43359375,77.1484375,48.828125
1771707032.8580313,19.04296875,31.73828125,42.48046875,44.43359375,68.84765625
1771707032.8619375,23.4375,28.3203125,40.0390625,-1.953125,51.7578125
1771707032.8658438,24.90234375,27.83203125,41.015625,23.92578125,48.828125
1771707032.86975,24.90234375,31.25,43.9453125,78.61328125,72.265625
1771707032.8736563,25.390625,28.80859375,39.55078125,62.5,54.6875
1771707032.8775625,27.83203125,28.80859375,38.0859375,5.37109375,78.61328125
1771707032.8814688,28.80859375,33.69140625,40.52734375,-4.8828125,44.43359375
1771707032.885375,27.83203125,44.43359375,44.921875,54.19921875,26.3671875
1771707032.8892813,22.94921875,36.62109375,44.43359375,66.40625,50.78125
1771707032.8931875,26.3671875,23.92578125,40.52734375,9.27734375,-9.765625
1771707032.8970938,33.203125,27.83203125,44.43359375,-5.37109375,-14.16015625
1771707032.899125,28.80859375,27.34375,41.9921875,41.50390625,62.98828125
1771707032.9030313,30.2734375,30.76171875,41.9921875,79.1015625,80.56640625
1771707032.9069376,38.0859375,33.69140625,41.50390625,38.57421875,43.45703125
1771707032.9108438,41.50390625,34.1796875,34.66796875,-5.37109375,98.14453125
1771707032.91475,36.62109375,35.15625,33.69140625,34.66796875,58.10546875
1771707032.9186563,25.390625,33.203125,34.1796875,83.49609375,-7.32421875
1771707032.9225626,30.76171875,35.64453125,37.109375,50.29296875,8.30078125
1771707032.9264688,38.0859375,38.57421875,41.015625,-5.37109375,35.15625
1771707032.930375,28.3203125,34.1796875,37.59765625,13.671875,52.24609375
1771707032.9342813,18.06640625,28.3203125,35.64453125,66.89453125,58.59375
1771707032.9381876,18.5546875,25.87890625,36.1328125,52.24609375,86.9140625
1771707032.9420938,25.87890625,33.203125,36.1328125,-3.90625,65.4296875
1771707032.945125,25.390625,37.109375,34.1796875,-6.34765625,52.734375
1771707032.9490314,19.04296875,30.2734375,35.64453125,48.33984375,45.41015625
1771707032.9529376,23.4375,34.1796875,38.0859375,62.5,-23.4375
1771707032.9568439,27.34375,37.109375,34.66796875,9.765625,-50.29296875
1771707032.96075,26.3671875,39.0625,39.55078125,-12.6953125,-35.64453125
1771707032.9646564,20.01953125,32.71484375,40.52734375,34.66796875,36.62109375
1771707032.9685626,23.92578125,29.78515625,34.1796875,74.21875,70.3125
1771707032.9724689,31.73828125,33.203125,33.203125,30.2734375,2.44140625
1771707032.976375,35.64453125,33.203125,33.203125,-18.5546875,-29.296875
1771707032.9802814,33.69140625,36.62109375,32.2265625,20.01953125,-20.5078125
1771707032.9841876,27.34375,37.109375,39.0625,75.68359375,6.8359375
1771707032.9880939,30.76171875,36.1328125,41.50390625,52.734375,26.85546875
1771707032.989125,37.109375,40.52734375,39.0625,-0.9765625,24.4140625
1771707032.9930313,33.69140625,36.1328125,40.0390625,11.71875,-12.6953125
1771707032.9969375,26.3671875,28.3203125,37.59765625,65.91796875,18.5546875
1771707033.0008438,31.25,33.203125,35.64453125,70.3125,55.6640625
1771707033.00475,40.0390625,36.62109375,35.64453125,11.71875,61.5234375
1771707033.0086563,36.62109375,34.1796875,37.59765625,-6.8359375,35.64453125
1771707033.0125625,28.3203125,34.1796875,35.15625,46.875,18.5546875
1771707033.0164688,25.390625,34.66796875,33.203125,72.75390625,67.3828125
1771707033.020375,32.71484375,37.109375,40.52734375,20.99609375,46.38671875
1771707033.0242813,38.0859375,39.0625,39.0625,-15.625,9.27734375
1771707033.0281875,33.203125,36.62109375,34.1796875,33.203125,2.9296875
1771707033.0320938,27.83203125,36.62109375,38.0859375,77.63671875,22.94921875
1771707033.034125,35.64453125,45.41015625,41.9921875,37.59765625,70.3125
1771707033.0380313,41.50390625,43.45703125,38.0859375,-11.23046875,79.1015625
1771707033.0419376,28.80859375,31.25,31.73828125,17.578125,52.734375
1771707033.0458438,25.390625,30.2734375,32.2265625,68.84765625,51.26953125
1771707033.04975,32.2265625,31.25,36.1328125,45.8984375,36.1328125
1771707033.0536563,38.57421875,37.59765625,38.0859375,-7.8125,5.859375
1771707033.0575626,34.1796875,38.57421875,33.69140625,0.0,14.6484375
1771707033.0614688,26.3671875,33.203125,34.66796875,59.5703125,21.484375
1771707033.065375,28.80859375,35.64453125,36.62109375,66.89453125,38.57421875
1771707033.0692813,37.109375,41.9921875,35.15625,6.34765625,41.015625
1771707033.0731876,28.80859375,42.48046875,35.64453125,-13.671875,21.97265625
1771707033.0770938,16.6015625,39.0625,35.64453125,38.57421875,10.7421875
1771707033.094125,19.53125,36.1328125,35.64453125,68.84765625,55.6640625
1771707033.0980313,29.296875,37.59765625,36.1328125,21.97265625,23.92578125
1771707033.1019375,31.25,40.52734375,35.64453125,-18.5546875,8.30078125
1771707033.1058438,25.87890625,38.0859375,37.109375,26.3671875,17.08984375
1771707033.10975,23.4375,35.15625,42.48046875,76.171875,15.625
1771707033.1136563,24.90234375,34.1796875,39.55078125,34.66796875,59.08203125
1771707033.1175625,25.87890625,33.69140625,34.66796875,-22.4609375,44.43359375
1771707033.1214688,23.4375,38.57421875,38.0859375,4.8828125,18.5546875
1771707033.125375,19.53125,42.48046875,39.0625,61.5234375,3.41796875
1771707033.1292813,25.390625,42.48046875,38.0859375,50.78125,21.97265625
1771707033.1331875,35.15625,49.8046875,36.1328125,-1.953125,32.71484375
1771707033.1370938,31.25,38.57421875,30.2734375,-9.27734375,-7.32421875
1771707033.139125,21.97265625,23.4375,26.85546875,43.45703125,-6.34765625
1771707033.1430314,21.484375,30.2734375,33.203125,63.4765625,44.43359375
1771707033.1469376,27.83203125,36.1328125,32.2265625,7.32421875,54.6875
1771707033.1508439,28.80859375,38.0859375,29.78515625,-19.04296875,20.99609375
1771707033.15475,21.484375,36.62109375,34.1796875,35.15625,18.06640625
1771707033.1586564,21.97265625,43.45703125,35.64453125,72.265625,39.55078125
1771707033.1625626,31.25,47.8515625,34.1796875,23.92578125,84.9609375
1771707033.1664689,31.73828125,39.55078125,29.78515625,-23.92578125,57.6171875
1771707033.170375,26.3671875,32.71484375,25.87890625,15.625,12.20703125
1771707033.1742814,22.94921875,31.73828125,24.90234375,61.03515625,23.92578125
1771707033.1781876,26.3671875,35.15625,26.3671875,29.296875,21.97265625
1771707033.1820939,35.15625,36.62109375,27.83203125,-17.578125,54.19921875
1771707033.184125,30.2734375,36.62109375,30.2734375,6.8359375,93.26171875
1771707033.1880312,18.06640625,35.15625,31.25,58.59375,48.33984375
1771707033.1919374,21.97265625,31.25,35.15625,51.26953125,9.27734375
1771707033.1958437,36.1328125,37.59765625,39.55078125,0.9765625,-2.9296875
1771707033.19975,31.73828125,43.9453125,34.66796875,-10.7421875,24.90234375
1771707033.2036562,22.94921875,37.109375,30.2734375,40.52734375,22.94921875
1771707033.2075624,21.484375,30.76171875,28.3203125,59.5703125,27.83203125
1771707033.2114687,23.4375,31.73828125,32.2265625,6.8359375,53.22265625
1771707033.215375,23.92578125,25.87890625,34.1796875,-20.99609375,60.05859375
1771707033.2192812,28.3203125,37.109375,33.69140625,34.1796875,10.7421875
1771707033.2231874,33.203125,44.43359375,36.1328125,78.61328125,38.0859375
1771707033.2270937,28.3203125,30.2734375,36.1328125,30.2734375,47.36328125
1771707033.230125,29.296875,32.71484375,36.1328125,-12.6953125,37.59765625
1771707033.2340312,26.85546875,39.55078125,31.25,23.4375,56.640625
1771707033.2379375,22.94921875,32.71484375,30.2734375,69.3359375,79.1015625
1771707033.2418437,28.80859375,30.2734375,29.296875,43.45703125,69.3359375
1771707033.24575,36.1328125,33.203125,27.83203125,-12.20703125,23.4375
1771707033.2496562,31.73828125,34.1796875,34.66796875,7.8125,21.484375
1771707033.2535625,24.4140625,35.15625,36.62109375,66.40625,35.64453125
1771707033.2574687,22.4609375,31.25,36.1328125,63.4765625,62.5
1771707033.261375,26.85546875,31.25,33.203125,2.44140625,52.734375
1771707033.2652812,33.69140625,37.109375,35.64453125,-13.18359375,17.578125
1771707033.2691875,29.296875,44.43359375,37.59765625,44.43359375,56.640625
1771707033.2730937,20.99609375,40.0390625,32.2265625,67.3828125,31.73828125
1771707033.274125,29.78515625,32.71484375,29.78515625,17.08984375,-28.3203125
1771707033.2780313,40.52734375,34.1796875,29.296875,-16.11328125,-5.859375
1771707033.2819376,34.66796875,35.64453125,29.296875,30.76171875,44.921875
1771707033.2858438,33.203125,44.43359375,31.73828125,78.125,41.50390625
1771707033.28975,35.15625,36.62109375,31.25,35.15625,28.80859375
1771707033.2936563,31.73828125,24.90234375,25.87890625,-18.06640625,36.1328125
1771707033.2975626,37.109375,37.109375,29.78515625,21.97265625,21.97265625
1771707033.3014688,38.0859375,43.45703125,34.1796875,76.66015625,-6.34765625
1771707033.305375,29.296875,33.69140625,30.76171875,45.8984375,2.44140625
1771707033.3092813,27.34375,28.3203125,28.3203125,-11.71875,18.06640625
1771707033.3131876,29.78515625,29.78515625,32.2265625,0.9765625,0.0
1771707033.3170938,24.90234375,32.71484375,34.1796875,57.12890625,-19.53125
1771707033.319125,22.94921875,34.1796875,31.25,62.5,14.16015625
1771707033.3230312,28.3203125,33.203125,32.71484375,11.71875,23.92578125
1771707033.3269374,32.71484375,32.71484375,32.2265625,-8.7890625,18.5546875
1771707033.3308437,33.203125,39.0625,35.15625,47.8515625,-6.8359375
1771707033.33475,32.2265625,45.8984375,39.55078125,82.03125,-3.90625
1771707033.3386562,34.1796875,39.0625,36.1328125,26.85546875,-52.734375
1771707033.3425624,34.1796875,29.78515625,30.2734375,-19.53125,-12.6953125
1771707033.3464687,33.69140625,32.2265625,33.69140625,20.5078125,52.734375
1771707033.350375,29.78515625,34.66796875,36.62109375,72.75390625,10.7421875
1771707033.3542812,32.71484375,38.57421875,34.66796875,43.9453125,-4.39453125
1771707033.3581874,36.62109375,41.9921875,33.203125,-9.27734375,19.53125
1771707033.3620937,28.3203125,30.2734375,36.1328125,14.16015625,59.5703125
1771707033.364125,20.5078125,35.64453125,37.59765625,67.87109375,-24.4140625
1771707033.3680313,19.53125,35.64453125,33.203125,52.734375,-44.921875
1771707033.3719375,32.2265625,26.3671875,33.69140625,-1.953125,-9.765625
1771707033.3758438,35.15625,30.76171875,34.1796875,-3.90625,14.6484375
1771707033.37975,27.34375,31.73828125,32.2265625,51.7578125,-5.37109375
1771707033.3836563,27.34375,32.71484375,30.76171875,66.40625,-5.37109375
1771707033.3875625,30.2734375,33.69140625,30.2734375,11.23046875,64.453125
1771707033.3914688,28.80859375,36.1328125,33.203125,-12.20703125,66.89453125
1771707033.395375,24.90234375,39.55078125,34.66796875,40.52734375,22.4609375
1771707033.3992813,29.78515625,42.96875,32.71484375,77.1484375,-19.53125
1771707033.4031875,37.109375,39.0625,34.1796875,33.203125,-35.15625
1771707033.4070938,37.59765625,31.73828125,35.64453125,-11.71875,15.625
1771707033.409125,33.203125,34.66796875,33.69140625,24.4140625,125.48828125
1771707033.4130313,29.78515625,35.64453125,32.2265625,72.265625,119.62890625
1771707033.4169376,30.76171875,34.66796875,32.2265625,43.45703125,105.46875
1771707033.4208438,29.78515625,32.2265625,32.71484375,-15.625,36.62109375
1771707033.42475,30.76171875,32.71484375,33.69140625,5.859375,-45.41015625
1771707033.4286563,34.66796875,48.33984375,41.015625,77.63671875,-2.44140625
1771707033.4325626,34.1796875,44.921875,35.15625,65.4296875,7.8125
1771707033.4364688,35.64453125,28.3203125,29.78515625,4.39453125,4.39453125
1771707033.440375,34.66796875,30.76171875,36.1328125,3.41796875,-10.7421875
1771707033.4442813,29.78515625,35.15625,36.62109375,57.12890625,8.7890625
1771707033.4481876,30.76171875,37.59765625,38.57421875,78.61328125,36.1328125
1771707033.4520938,32.71484375,38.57421875,38.57421875,26.3671875,19.53125
1771707033.456125,32.2265625,37.109375,32.2265625,-3.90625,49.31640625
1771707033.4600313,31.73828125,38.57421875,30.2734375,43.45703125,-3.90625
1771707033.4639375,38.0859375,44.43359375,32.2265625,79.1015625,-21.97265625
1771707033.4678438,39.55078125,41.50390625,34.66796875,36.1328125,83.0078125
1771707033.47175,33.69140625,33.203125,32.2265625,-17.08984375,73.2421875
1771707033.4756563,23.4375,30.2734375,30.2734375,9.27734375,5.37109375
1771707033.4795625,23.92578125,34.66796875,31.25,61.03515625,26.85546875
1771707033.4834688,31.25,38.57421875,31.73828125,39.55078125,62.98828125
1771707033.487375,32.71484375,39.55078125,33.69140625,-11.23046875,72.265625
1771707033.4912813,29.78515625,39.55078125,32.71484375,0.9765625,43.9453125
1771707033.4951875,31.73828125,41.015625,31.73828125,58.59375,55.17578125
1771707033.4990938,31.73828125,44.43359375,35.64453125,61.5234375,37.59765625
1771707033.515125,36.1328125,44.921875,40.0390625,4.39453125,15.625
1771707033.5190313,36.62109375,46.38671875,35.15625,-15.13671875,10.7421875
1771707033.5229375,23.92578125,34.1796875,32.71484375,32.71484375,-35.64453125
1771707033.5268438,23.92578125,28.80859375,36.1328125,66.40625,-12.6953125
1771707033.53075,40.52734375,39.0625,34.66796875,27.34375,28.80859375
1771707033.5346563,47.36328125,42.96875,33.203125,-0.9765625,-3.90625
1771707033.5385625,34.66796875,41.015625,36.62109375,39.0625,52.734375
1771707033.5424688,28.3203125,40.0390625,40.0390625,81.54296875,70.80078125
1771707033.546375,34.66796875,42.96875,35.15625,43.9453125,36.1328125
1771707033.5502813,31.73828125,41.9921875,30.2734375,-14.16015625,53.22265625
1771707033.5541875,26.85546875,32.2265625,30.76171875,9.765625,54.19921875
1771707033.5580938,28.3203125,32.2265625,32.2265625,64.453125,53.22265625
1771707033.559125,29.78515625,35.64453125,32.71484375,49.31640625,99.609375
1771707033.5630312,40.0390625,37.109375,33.69140625,-6.8359375,24.4140625
1771707033.5669374,40.52734375,35.64453125,34.66796875,0.48828125,-10.7421875
1771707033.5708437,38.0859375,46.38671875,38.57421875,63.4765625,47.36328125
1771707033.57475,37.109375,42.48046875,36.1328125,69.82421875,42.48046875
1771707033.5786562,39.0625,29.78515625,33.203125,10.7421875,33.69140625
1771707033.5825624,39.55078125,36.1328125,32.2265625,-8.30078125,7.32421875
1771707033.5864687,40.0390625,39.55078125,30.76171875,48.33984375,30.76171875
1771707033.590375,41.50390625,43.9453125,32.71484375,81.0546875,70.3125
1771707033.5942812,43.9453125,45.8984375,34.1796875,30.2734375,36.62109375
1771707033.5981874,42.48046875,39.55078125,37.59765625,-6.8359375,-5.859375
1771707033.6020937,30.76171875,37.59765625,34.66796875,34.66796875,34.66796875
1771707033.604125,22.94921875,39.0625,31.73828125,80.56640625,90.33203125
1771707033.6080313,24.90234375,35.15625,34.1796875,45.8984375,144.53125
1771707033.6119375,31.25,35.15625,36.1328125,-4.8828125,83.984375
1771707033.6158438,32.71484375,40.52734375,36.1328125,19.53125,37.109375
1771707033.61975,25.87890625,41.50390625,36.1328125,72.265625,56.15234375
1771707033.6236563,27.83203125,36.1328125,32.71484375,57.12890625,31.25
1771707033.6275625,35.15625,30.2734375,35.64453125,2.9296875,24.90234375
1771707033.6314688,32.71484375,39.0625,41.015625,7.8125,-9.765625
1771707033.635375,32.2265625,40.0390625,33.203125,59.5703125,1.46484375
1771707033.6392813,31.25,26.3671875,29.296875,65.4296875,78.61328125
1771707033.6431875,31.73828125,32.2265625,33.203125,9.765625,30.2734375
1771707033.6470938,29.78515625,38.0859375,33.203125,-16.11328125,-44.43359375
1771707033.649125,20.5078125,31.73828125,30.2734375,29.78515625,5.37109375
1771707033.6530313,19.53125,25.87890625,30.76171875,62.01171875,3.41796875
1771707033.6569376,32.71484375,31.73828125,35.15625,23.4375,32.71484375
1771707033.6608438,40.0390625,34.66796875,36.1328125,-14.16015625,23.92578125
1771707033.66475,37.109375,35.15625,31.73828125,20.5078125,50.78125
1771707033.6686563,32.2265625,34.1796875,31.73828125,67.87109375,57.6171875
1771707033.6725626,31.25,34.1796875,36.1328125,45.41015625,63.96484375
1771707033.6764688,37.109375,39.0625,38.57421875,-5.37109375,67.87109375
1771707033.680375,38.57421875,40.0390625,38.57421875,5.859375,-2.9296875
1771707033.6842813,36.1328125,33.69140625,37.59765625,62.5,-18.06640625
1771707033.6881876,34.1796875,31.73828125,37.59765625,61.5234375,-41.015625
1771707033.6920938,33.69140625,34.1796875,30.76171875,2.44140625,-11.71875
1771707033.694125,31.25,35.15625,31.25,-5.859375,4.39453125
1771707033.6980312,24.90234375,36.62109375,40.0390625,52.734375,32.71484375
1771707033.7019374,25.87890625,30.76171875,36.62109375,75.68359375,42.96875
1771707033.7058437,34.66796875,40.52734375,38.0859375,27.83203125,32.2265625
1771707033.70975,38.57421875,47.8515625,38.0859375,-6.34765625,31.25
1771707033.7136562,30.76171875,30.2734375,34.66796875,33.203125,30.2734375
1771707033.7175624,26.3671875,29.296875,38.57421875,75.68359375,75.1953125
1771707033.7214687,38.57421875,35.64453125,38.57421875,37.59765625,83.0078125
1771707033.725375,47.36328125,38.57421875,36.1328125,-11.23046875,32.2265625
1771707033.7292812,41.015625,39.0625,39.0625,23.4375,20.01953125
1771707033.7331874,38.0859375,37.109375,40.0390625,83.0078125,56.640625
1771707033.7370937,42.48046875,40.0390625,35.64453125,60.546875,24.4140625
1771707033.754125,43.45703125,41.50390625,34.1796875,-0.48828125,-7.8125
1771707033.7580314,36.62109375,31.73828125,32.71484375,6.34765625,45.41015625
1771707033.7619376,31.73828125,31.25,35.15625,63.96484375,58.10546875
1771707033.7658439,32.71484375,35.15625,44.43359375,68.84765625,99.609375
1771707033.76975,35.15625,41.015625,45.41015625,14.6484375,96.6796875
1771707033.7736564,36.62109375,39.0625,36.62109375,0.48828125,23.4375
1771707033.7775626,28.3203125,34.1796875,34.1796875,52.24609375,45.8984375
1771707033.7814689,23.92578125,34.66796875,37.109375,78.125,85.9375
1771707033.785375,34.1796875,32.71484375,34.66796875,24.4140625,96.19140625
1771707033.7892814,34.66796875,33.203125,35.64453125,-14.16015625,63.4765625
1771707033.7931876,28.80859375,28.3203125,34.1796875,29.78515625,52.24609375
1771707033.7970939,28.3203125,26.85546875,34.1796875,75.1953125,6.8359375
1771707033.799125,26.85546875,27.83203125,35.64453125,34.1796875,-16.11328125
1771707033.8030312,31.25,32.2265625,33.203125,-13.18359375,65.91796875
1771707033.8069375,31.73828125,37.59765625,31.25,19.04296875,53.7109375
1771707033.8108437,26.3671875,41.50390625,36.1328125,71.77734375,15.13671875
1771707033.81475,29.78515625,43.9453125,37.59765625,53.7109375,-11.71875
1771707033.8186562,26.3671875,33.203125,32.71484375,-7.32421875,2.44140625
1771707033.8225625,23.92578125,32.71484375,35.15625,-2.44140625,10.7421875
1771707033.8264687,23.92578125,36.62109375,36.1328125,54.6875,3.90625
1771707033.830375,26.85546875,33.69140625,33.69140625,63.4765625,12.20703125
1771707033.8342812,36.62109375,34.66796875,32.71484375,8.30078125,-33.69140625
1771707033.8381875,38.57421875,34.1796875,33.69140625,-13.18359375,23.4375
1771707033.8420937,37.109375,41.015625,37.59765625,43.45703125,52.734375
1771707033.844125,32.2265625,40.0390625,37.59765625,73.73046875,-5.37109375
1771707033.8480313,32.2265625,35.15625,33.69140625,25.390625,-9.765625
1771707033.8519375,36.1328125,39.0625,37.59765625,-15.625,85.44921875
1771707033.8558438,29.78515625,38.0859375,38.0859375,19.04296875,92.7734375
1771707033.85975,19.04296875,33.203125,31.25,63.4765625,19.04296875
1771707033.8636563,29.78515625,41.9921875,36.62109375,38.57421875,36.1328125
1771707033.8675625,37.59765625,47.36328125,37.109375,-13.18359375,8.7890625
1771707033.8714688,27.83203125,34.66796875,32.71484375,5.859375,16.11328125
1771707033.875375,24.4140625,25.87890625,33.69140625,69.3359375,40.52734375
1771707033.8792813,33.203125,26.3671875,33.69140625,61.5234375,47.8515625
1771707033.8831875,45.41015625,27.34375,35.64453125,14.16015625,18.5546875
1771707033.8870938,52.24609375,18.06640625,41.50390625,28.80859375,-20.01953125
1771707033.889125,46.875,26.3671875,42.96875,86.42578125,22.4609375
1771707033.8930314,34.66796875,46.875,29.296875,81.54296875,50.78125
1771707033.8969376,41.50390625,45.8984375,22.94921875,22.94921875,57.12890625
1771707033.9008439,45.8984375,38.57421875,21.484375,-0.9765625,32.2265625
1771707033.90475,38.57421875,40.0390625,14.6484375,39.0625,46.875
1771707033.9086564,56.15234375,39.0625,14.16015625,88.37890625,53.22265625
1771707033.9125626,70.3125,40.0390625,18.06640625,56.15234375,34.1796875
1771707033.9164689,61.5234375,42.48046875,21.484375,8.30078125,30.2734375
1771707033.920375,55.6640625,41.9921875,26.3671875,47.36328125,10.25390625
1771707033.9242814,65.4296875,60.546875,32.2265625,107.91015625,36.62109375
1771707033.9281876,65.91796875,52.734375,29.296875,74.21875,61.5234375
1771707033.9320939,64.453125,27.83203125,23.92578125,10.25390625,78.125
1771707033.935125,67.87109375,33.203125,28.80859375,30.76171875,85.44921875
1771707033.9390314,57.6171875,34.1796875,31.73828125,84.47265625,73.73046875
1771707033.9429376,52.734375,34.66796875,32.71484375,82.03125,62.98828125
1771707033.9468439,59.5703125,38.0859375,29.78515625,27.83203125,64.453125
1771707033.95075,64.453125,38.57421875,31.25,19.53125,46.875
1771707033.9546564,60.546875,40.52734375,33.69140625,75.68359375,60.546875
1771707033.9585626,56.15234375,45.41015625,32.71484375,93.75,85.9375
1771707033.9624689,56.640625,40.52734375,30.2734375,38.57421875,76.171875
1771707033.966375,57.12890625,38.57421875,30.76171875,5.37109375,88.37890625
1771707033.9702814,57.12890625,44.43359375,33.69140625,57.12890625,39.0625
1771707033.9741876,51.7578125,41.015625,35.15625,101.07421875,-2.44140625
1771707033.9780939,59.08203125,41.9921875,38.57421875,65.91796875,2.9296875
1771707033.980125,64.453125,37.109375,34.66796875,15.13671875,35.64453125
1771707033.9840312,56.15234375,34.66796875,34.1796875,40.52734375,30.76171875
1771707033.9879375,53.7109375,41.50390625,35.15625,91.796875,1.46484375
1771707033.9918437,53.22265625,36.62109375,30.2734375,63.4765625,-13.671875
1771707033.99575,51.7578125,39.0625,33.69140625,7.32421875,10.25390625
1771707033.9996562,47.8515625,42.96875,32.2265625,14.6484375,35.15625
1771707034.0035625,40.0390625,37.109375,30.2734375,63.4765625,3.41796875
1771707034.0074687,44.43359375,37.59765625,31.25,73.73046875,-40.52734375
1771707034.011375,51.26953125,39.0625,29.296875,19.53125,-31.25
1771707034.0152812,52.24609375,41.9921875,32.71484375,-1.953125,-12.6953125
1771707034.0191875,47.36328125,38.0859375,34.1796875,50.78125,43.9453125
1771707034.0230937,46.38671875,34.66796875,30.76171875,77.1484375,64.94140625
1771707034.024125,45.8984375,39.0625,31.73828125,28.3203125,2.9296875
1771707034.0280313,41.9921875,41.015625,30.2734375,-9.27734375,38.57421875
1771707034.0319376,39.55078125,37.109375,28.3203125,35.64453125,28.80859375
1771707034.0358438,34.66796875,40.0390625,33.69140625,82.03125,6.8359375
1771707034.03975,37.59765625,42.96875,38.0859375,49.31640625,31.25
1771707034.0436563,40.0390625,32.71484375,35.15625,-2.44140625,16.11328125
1771707034.0475626,35.15625,34.66796875,31.25,20.99609375,7.32421875
1771707034.0514688,32.71484375,39.55078125,37.109375,72.265625,8.7890625
1771707034.055375,28.3203125,36.1328125,35.15625,46.875,33.203125
1771707034.0592813,28.3203125,35.64453125,25.87890625,-13.671875,56.640625
1771707034.0631876,28.80859375,33.69140625,31.73828125,-3.90625,1.953125
1771707034.0670938,24.90234375,30.76171875,35.15625,56.640625,47.36328125
1771707034.070125,26.85546875,34.1796875,33.203125,71.2890625,111.81640625
1771707034.0740314,32.71484375,36.62109375,34.1796875,17.578125,81.0546875
1771707034.0779376,38.57421875,40.0390625,36.1328125,-3.41796875,30.2734375
1771707034.0818439,34.1796875,44.43359375,34.66796875,49.8046875,14.6484375
1771707034.08575,27.83203125,38.0859375,34.66796875,79.1015625,37.59765625
1771707034.0896564,30.76171875,28.3203125,33.69140625,32.71484375,41.9921875
1771707034.0935626,35.15625,29.296875,26.85546875,-8.30078125,38.0859375
1771707034.0974689,33.203125,32.71484375,28.80859375,29.296875,19.53125
1771707034.101375,28.3203125,32.2265625,31.25,75.68359375,10.25390625
1771707034.1052814,41.50390625,42.96875,34.1796875,51.26953125,36.62109375
1771707034.1091876,47.8515625,47.36328125,35.15625,-0.9765625,18.5546875
1771707034.1130939,37.109375,40.0390625,37.109375,12.6953125,-58.59375
1771707034.114125,28.80859375,36.1328125,38.0859375,66.89453125,-51.26953125
1771707034.1180313,31.25,32.71484375,32.71484375,56.640625,-16.11328125
1771707034.1219375,33.203125,30.2734375,32.2265625,-1.46484375,16.6015625
1771707034.1258438,32.2265625,30.76171875,34.66796875,-6.34765625,13.18359375
1771707034.12975,38.57421875,37.109375,36.62109375,62.5,1.46484375
1771707034.1336563,37.59765625,39.0625,37.59765625,79.58984375,36.1328125
1771707034.1375625,40.0390625,37.109375,34.66796875,18.06640625,18.5546875
1771707034.1414688,38.0859375,38.0859375,31.73828125,-9.27734375,37.109375
1771707034.145375,41.015625,27.83203125,40.0390625,54.19921875,53.7109375
1771707034.1492813,57.6171875,22.4609375,41.50390625,112.3046875,60.546875
1771707034.1531875,49.8046875,38.57421875,33.203125,51.26953125,58.10546875
1771707034.1570938,33.203125,51.26953125,30.2734375,-18.5546875,59.08203125
1771707034.160125,35.64453125,64.453125,28.3203125,18.06640625,27.34375
1771707034.1640313,34.66796875,57.12890625,22.94921875,64.453125,12.20703125
1771707034.1679375,28.80859375,44.921875,17.08984375,31.73828125,42.48046875
1771707034.1718438,37.109375,48.828125,17.578125,-21.97265625,23.4375
1771707034.17575,40.0390625,47.36328125,19.04296875,-6.34765625,2.9296875
1771707034.1796563,30.76171875,47.8515625,20.99609375,47.8515625,51.26953125
1771707034.1835625,35.64453125,51.7578125,27.34375,54.19921875,78.61328125
1771707034.1874688,42.96875,50.78125,25.87890625,0.0,41.9921875
1771707034.191375,42.96875,47.8515625,24.4140625,-19.04296875,6.8359375
1771707034.1952813,40.0390625,43.45703125,23.92578125,41.015625,23.92578125
1771707034.1991875,35.64453125,41.9921875,21.484375,68.359375,66.89453125
1771707034.2030938,38.0859375,43.45703125,20.99609375,15.13671875,65.4296875
1771707034.219125,43.45703125,44.43359375,26.3671875,-11.71875,60.05859375
1771707034.2230313,34.66796875,42.96875,28.3203125,39.55078125,33.203125
1771707034.2269375,32.2265625,40.0390625,30.76171875,83.984375,4.39453125
1771707034.2308438,42.96875,42.96875,34.66796875,43.45703125,20.5078125
1771707034.23475,37.109375,32.71484375,25.87890625,-12.20703125,12.6953125
1771707034.2386563,32.2265625,25.87890625,25.87890625,19.53125,-2.44140625
1771707034.2425625,32.2265625,35.15625,29.78515625,75.1953125,17.578125
1771707034.2464688,28.80859375,37.59765625,26.85546875,52.734375,67.3828125
1771707034.250375,34.66796875,35.64453125,27.34375,-5.37109375,61.5234375
1771707034.2542813,39.0625,40.52734375,30.2734375,0.9765625,3.41796875
1771707034.2581875,33.203125,39.0625,27.34375,53.22265625,-29.78515625
1771707034.2620938,29.78515625,34.1796875,25.87890625,62.01171875,8.7890625
1771707034.264125,39.0625,37.59765625,29.78515625,13.671875,42.48046875
1771707034.2680314,43.45703125,35.64453125,33.203125,-4.8828125,30.2734375
1771707034.2719376,35.64453125,36.62109375,34.1796875,48.828125,45.41015625
1771707034.2758439,32.71484375,37.59765625,33.203125,79.58984375,30.76171875
1771707034.27975,47.36328125,38.57421875,33.69140625,34.1796875,43.9453125
1771707034.2836564,52.734375,47.36328125,31.25,-11.23046875,54.6875
1771707034.2875626,39.0625,38.57421875,32.2265625,28.3203125,66.40625
1771707034.2914689,39.55078125,31.73828125,35.15625,77.63671875,64.453125
1771707034.295375,51.7578125,35.15625,31.25,37.109375,47.36328125
1771707034.2992814,59.5703125,35.64453125,27.83203125,-17.578125,44.43359375
1771707034.3031876,50.29296875,36.62109375,28.80859375,4.39453125,-9.27734375
1771707034.3070939,39.0625,43.9453125,30.76171875,69.82421875,20.01953125
1771707034.310125,36.62109375,43.45703125,31.25,65.4296875,74.70703125
1771707034.3140314,31.25,32.2265625,27.83203125,1.46484375,47.8515625
1771707034.3179376,27.34375,31.73828125,28.3203125,1.46484375,20.5078125
1771707034.3218439,30.76171875,38.0859375,27.83203125,55.17578125,44.921875
1771707034.32575,35.15625,38.0859375,27.83203125,67.3828125,29.296875
1771707034.3296564,39.55078125,38.0859375,33.69140625,19.04296875,29.78515625
1771707034.3335626,40.52734375,37.109375,33.69140625,-9.27734375,64.94140625
1771707034.3374689,39.0625,38.57421875,32.71484375,37.59765625,29.296875
1771707034.341375,39.0625,52.734375,33.69140625,80.078125,54.6875
1771707034.3452814,35.64453125,42.96875,30.2734375,37.59765625,35.15625
1771707034.3491876,33.203125,30.2734375,26.3671875,-6.8359375,-23.92578125
1771707034.3530939,28.3203125,38.0859375,28.3203125,33.69140625,45.8984375
1771707034.355125,34.1796875,36.62109375,30.76171875,82.51953125,48.828125
1771707034.3590312,62.98828125,40.0390625,25.87890625,68.359375,48.33984375
1771707034.3629375,70.80078125,45.41015625,25.390625,25.390625,52.24609375
1771707034.3668437,30.2734375,43.45703125,36.62109375,7.32421875,-7.32421875
1771707034.37075,2.9296875,39.0625,42.96875,41.50390625,7.32421875
1771707034.3746562,9.27734375,33.69140625,37.109375,37.59765625,0.9765625
1771707034.3785625,-8.7890625,26.3671875,40.0390625,-27.83203125,7.8125
1771707034.3824687,-20.01953125,23.92578125,44.921875,-34.66796875,26.3671875
1771707034.386375,-25.87890625,27.34375,48.33984375,21.484375,39.55078125
1771707034.3902812,-33.69140625,18.06640625,52.734375,34.1796875,72.75390625
1771707034.3941875,-22.4609375,13.671875,50.78125,-20.99609375,53.7109375
1771707034.3980937,-15.625,21.97265625,48.33984375,-44.921875,-2.44140625
1771707034.399125,-18.06640625,26.85546875,47.36328125,9.27734375,1.953125
1771707034.4030313,-6.8359375,31.25,46.38671875,53.22265625,61.5234375
1771707034.4069376,6.8359375,31.73828125,43.45703125,20.5078125,73.2421875
1771707034.4108438,10.25390625,24.90234375,42.48046875,-19.53125,30.2734375
1771707034.41475,16.6015625,27.83203125,45.8984375,11.71875,-21.484375
1771707034.4186563,16.11328125,30.2734375,44.921875,62.01171875,5.859375
1771707034.4225626,12.20703125,23.92578125,41.015625,47.8515625,69.82421875
1771707034.4264688,16.11328125,23.4375,41.9921875,5.859375,29.78515625
1771707034.430375,16.6015625,34.1796875,48.33984375,11.71875,32.71484375
1771707034.4342813,9.765625,37.59765625,47.8515625,64.453125,35.15625
1771707034.4381876,5.37109375,25.87890625,41.9921875,73.73046875,32.71484375
1771707034.4420938,13.671875,26.85546875,41.015625,22.94921875,64.94140625
1771707034.444125,18.5546875,27.83203125,40.52734375,5.859375,56.15234375
1771707034.4480312,15.625,32.71484375,41.015625,52.734375,11.23046875
1771707034.4519374,18.06640625,34.66796875,40.0390625,76.171875,14.16015625
1771707034.4558437,20.5078125,32.2265625,38.57421875,30.76171875,33.203125
1771707034.45975,21.97265625,32.2265625,37.109375,-1.46484375,58.10546875
1771707034.4636562,28.80859375,34.66796875,34.66796875,34.66796875,61.03515625
1771707034.4675624,33.203125,35.15625,33.69140625,74.70703125,50.78125
1771707034.4714687,32.71484375,29.78515625,36.1328125,37.59765625,-15.13671875
1771707034.475375,40.52734375,30.76171875,38.57421875,-20.01953125,-17.578125
1771707034.4792812,41.50390625,33.69140625,39.0625,13.671875,52.24609375
1771707034.4831874,27.83203125,34.1796875,40.52734375,74.70703125,57.12890625
1771707034.4870937,30.76171875,34.1796875,40.52734375,55.6640625,62.98828125
1771707034.494125,42.96875,26.85546875,36.62109375,-2.44140625,63.4765625
1771707034.4980311,34.66796875,25.390625,36.1328125,0.9765625,20.01953125
1771707034.5019374,26.85546875,28.80859375,40.0390625,53.22265625,6.8359375
1771707034.5058436,36.62109375,28.3203125,38.57421875,56.15234375,52.734375
1771707034.50975,32.2265625,29.296875,34.66796875,2.44140625,42.48046875
1771707034.5136561,21.484375,24.90234375,37.109375,-14.16015625,26.85546875
1771707034.5175624,14.6484375,27.83203125,39.55078125,35.15625,26.85546875
1771707034.5214686,4.8828125,35.64453125,37.59765625,59.5703125,40.52734375
1771707034.525375,18.06640625,39.0625,39.55078125,14.16015625,55.6640625
1771707034.5292811,23.92578125,32.71484375,36.62109375,-17.08984375,24.4140625
1771707034.5331874,25.390625,23.4375,31.25,15.13671875,19.04296875
1771707034.5370936,34.66796875,30.2734375,38.0859375,59.08203125,29.296875
1771707034.534125,25.87890625,34.1796875,39.0625,31.25,50.29296875
1771707034.5380313,11.71875,31.73828125,33.69140625,-23.4375,60.546875
1771707034.5419376,12.6953125,27.34375,29.78515625,-2.9296875,16.6015625
1771707034.5458438,18.06640625,32.2265625,30.76171875,55.17578125,41.9921875
1771707034.54975,12.6953125,34.1796875,35.15625,46.875,40.0390625
1771707034.5536563,15.13671875,36.62109375,34.66796875,-7.32421875,24.90234375
1771707034.5575626,17.578125,39.55078125,29.78515625,-13.18359375,52.734375
1771707034.5614688,13.671875,38.57421875,31.73828125,33.69140625,48.33984375
1771707034.565375,24.90234375,45.41015625,34.66796875,49.31640625,51.7578125
1771707034.5692813,39.0625,44.921875,31.73828125,1.953125,57.6171875
1771707034.5731876,41.9921875,37.109375,26.85546875,-21.484375,29.296875
1771707034.5770938,35.15625,38.0859375,30.76171875,32.71484375,23.4375
1771707034.581125,28.3203125,38.0859375,29.78515625,63.96484375,30.2734375
1771707034.5850313,33.203125,37.109375,23.4375,16.11328125,52.24609375
1771707034.5889375,43.45703125,40.0390625,26.85546875,-21.484375,17.578125
1771707034.5928438,38.0859375,44.921875,29.296875,18.06640625,24.90234375
1771707034.59675,34.1796875,48.828125,33.203125,68.84765625,47.36328125
1771707034.6006563,38.57421875,44.43359375,32.2265625,40.0390625,54.6875
1771707034.6045625,34.66796875,35.15625,29.78515625,-17.578125,61.03515625
1771707034.6084688,27.34375,28.80859375,28.80859375,-5.37109375,36.1328125
1771707034.612375,16.11328125,33.69140625,26.85546875,47.8515625,46.875
1771707034.6162813,10.7421875,37.59765625,33.69140625,48.33984375,9.27734375
1771707034.6201875,14.6484375,39.55078125,38.0859375,-0.9765625,-7.32421875
1771707034.6240938,23.92578125,52.734375,31.25,-8.30078125,34.66796875
1771707034.639125,21.484375,44.43359375,29.78515625,37.59765625,52.734375
1771707034.6430314,26.3671875,33.69140625,30.2734375,44.43359375,45.41015625
1771707034.6469376,43.45703125,38.0859375,22.4609375,-11.23046875,52.24609375
1771707034.6508439,31.73828125,36.62109375,23.92578125,-29.296875,30.76171875
1771707034.65475,12.6953125,34.1796875,25.390625,20.5078125,20.01953125
1771707034.6586564,16.6015625,34.1796875,26.3671875,50.29296875,41.9921875
1771707034.6625626,27.83203125,37.109375,31.25,9.765625,61.03515625
1771707034.6664689,29.78515625,41.9921875,31.25,-31.73828125,-1.953125
1771707034.670375,21.484375,41.9921875,30.2734375,-1.953125,-40.52734375
1771707034.6742814,20.01953125,42.96875,36.62109375,49.31640625,6.8359375
1771707034.6781876,22.4609375,40.52734375,38.0859375,25.87890625,14.16015625
1771707034.6820939,28.3203125,36.62109375,29.78515625,-23.4375,-24.90234375
1771707034.684125,31.25,38.0859375,29.78515625,-1.46484375,-7.8125
1771707034.6880312,20.5078125,35.15625,31.73828125,43.9453125,17.08984375
1771707034.6919374,21.484375,38.0859375,31.25,37.59765625,3.90625
1771707034.6958437,29.296875,41.015625,29.78515625,-7.8125,23.4375
1771707034.69975,24.90234375,41.015625,29.296875,-25.87890625,23.4375
1771707034.7036562,13.18359375,36.1328125,28.3203125,20.5078125,40.52734375
1771707034.7075624,14.6484375,30.76171875,31.73828125,54.19921875,37.109375
1771707034.7114687,28.80859375,38.0859375,34.1796875,11.23046875,24.90234375
1771707034.715375,34.66796875,33.203125,26.85546875,-27.83203125,13.18359375
1771707034.7192812,28.3203125,28.80859375,22.4609375,5.859375,15.13671875
1771707034.7231874,17.08984375,37.109375,27.34375,57.12890625,49.8046875
1771707034.7270937,25.87890625,46.875,30.76171875,35.15625,46.875
1771707034.729125,40.52734375,47.36328125,30.2734375,-11.23046875,57.6171875
1771707034.7330313,42.96875,44.921875,33.203125,15.625,39.55078125
1771707034.7369375,33.69140625,42.48046875,33.69140625,63.4765625,26.3671875
1771707034.7408438,31.73828125,36.1328125,35.15625,48.33984375,58.59375
1771707034.74475,37.59765625,33.69140625,35.15625,-1.46484375,43.9453125
1771707034.7486563,30.76171875,34.1796875,31.25,-0.9765625,50.78125
1771707034.7525625,23.92578125,39.55078125,36.62109375,53.22265625,20.01953125
1771707034.7564688,26.3671875,42.48046875,37.109375,64.94140625,36.62109375
1771707034.760375,32.71484375,37.109375,32.71484375,9.27734375,20.5078125
1771707034.7642813,33.203125,34.66796875,35.64453125,-11.23046875,-37.59765625
1771707034.7681875,27.34375,36.62109375,38.57421875,38.0859375,-8.30078125
1771707034.7720938,28.80859375,36.1328125,40.0390625,69.82421875,32.71484375
1771707034.774125,35.15625,31.73828125,35.15625,26.85546875,43.9453125
1771707034.7780313,34.1796875,33.203125,28.3203125,-15.13671875,46.875
1771707034.7819376,30.2734375,38.0859375,28.3203125,24.90234375,25.87890625
1771707034.7858438,28.3203125,38.57421875,32.2265625,69.3359375,16.6015625
1771707034.78975,33.203125,41.50390625,34.66796875,37.109375,23.4375
1771707034.7936563,38.0859375,39.55078125,33.203125,-7.8125,17.08984375
1771707034.7975626,45.41015625,45.41015625,38.57421875,25.390625,13.18359375
1771707034.8014688,48.828125,57.12890625,34.1796875,74.70703125,35.15625
1771707034.805375,31.73828125,42.96875,31.73828125,49.8046875,56.640625
1771707034.8092813,20.01953125,26.85546875,41.50390625,-7.8125,35.15625
1771707034.8131876,20.01953125,23.92578125,34.1796875,-17.08984375,61.5234375
1771707034.8170938,11.71875,27.34375,32.2265625,28.80859375,54.19921875
1771707034.819125,11.71875,34.1796875,35.64453125,40.0390625,12.20703125
1771707034.8230312,23.4375,40.0390625,33.203125,-7.32421875,9.765625
1771707034.8269374,25.87890625,40.52734375,34.1796875,-29.296875,18.06640625
1771707034.8308437,22.94921875,36.62109375,37.109375,21.484375,20.5078125
1771707034.83475,20.5078125,31.73828125,37.109375,54.6875,2.44140625
1771707034.8386562,27.83203125,29.78515625,37.59765625,18.06640625,-6.8359375
1771707034.8425624,38.0859375,29.78515625,41.015625,-12.20703125,-8.7890625
1771707034.8464687,45.41015625,38.57421875,39.0625,18.06640625,36.1328125
1771707034.850375,38.0859375,39.55078125,34.66796875,54.19921875,82.51953125
1771707034.8542812,15.13671875,33.203125,35.15625,34.66796875,42.96875
1771707034.8581874,14.6484375,33.203125,36.62109375,-8.30078125,14.16015625
1771707034.8620937,24.90234375,44.43359375,43.45703125,8.7890625,38.57421875
1771707034.864125,24.90234375,45.8984375,41.015625,53.22265625,77.63671875
1771707034.8680313,18.5546875,26.3671875,31.73828125,45.8984375,112.79296875
1771707034.8719375,31.25,30.2734375,36.1328125,6.8359375,99.12109375
1771707034.8758438,38.57421875,38.57421875,41.50390625,-0.9765625,20.01953125
1771707034.87975,25.390625,38.57421875,35.64453125,42.48046875,-17.578125
1771707034.8836563,22.4609375,40.52734375,31.73828125,64.94140625,-12.20703125
1771707034.8875625,32.2265625,36.62109375,33.203125,21.484375,44.43359375
1771707034.8914688,36.62109375,36.62109375,31.25,-16.6015625,45.8984375
1771707034.895375,32.71484375,45.8984375,33.69140625,26.85546875,26.3671875
1771707034.8992813,26.3671875,44.921875,37.59765625,72.75390625,65.4296875
1771707034.9031875,33.69140625,36.62109375,38.0859375,39.0625,56.15234375
1771707034.9070938,44.43359375,36.62109375,40.0390625,0.0,28.80859375
1771707034.910125,44.43359375,37.109375,35.64453125,27.34375,75.1953125
1771707034.9140313,39.0625,35.64453125,32.2265625,68.84765625,86.9140625
1771707034.9179375,41.015625,34.66796875,35.15625,49.8046875,13.18359375
1771707034.9218438,45.41015625,32.71484375,35.15625,4.39453125,-20.99609375
1771707034.92575,47.36328125,39.55078125,34.1796875,19.04296875,-7.8125
1771707034.9296563,48.828125,55.6640625,38.0859375,78.125,3.90625
1771707034.9335625,40.0390625,39.0625,35.64453125,72.265625,46.38671875
1771707034.9374688,41.9921875,20.5078125,31.73828125,14.6484375,27.83203125
1771707034.941375,54.6875,27.83203125,37.109375,3.90625,0.48828125
1771707034.9452813,43.9453125,30.76171875,38.0859375,53.7109375,15.625
1771707034.9491875,35.15625,33.69140625,37.59765625,82.03125,-3.41796875
1771707034.9530938,42.48046875,32.71484375,35.15625,40.0390625,13.671875
1771707034.969125,35.64453125,33.69140625,31.73828125,4.8828125,35.64453125
1771707034.9730313,29.78515625,38.0859375,36.1328125,38.57421875,29.296875
1771707034.9769375,29.296875,39.0625,37.109375,78.125,-9.27734375
1771707034.9808438,21.484375,32.71484375,35.64453125,51.7578125,-1.953125
1771707034.98475,31.25,24.90234375,34.1796875,6.8359375,26.3671875
1771707034.9886563,39.0625,29.296875,36.1328125,32.71484375,19.53125
1771707034.9925625,25.87890625,31.73828125,39.55078125,74.70703125,-18.06640625
1771707034.9964688,30.76171875,31.25,35.64453125,52.734375,-18.5546875
1771707035.000375,37.109375,38.57421875,30.2734375,7.32421875,13.671875
1771707035.0042813,34.1796875,41.9921875,28.3203125,4.39453125,58.59375
1771707035.0081875,24.90234375,30.76171875,28.80859375,46.38671875,62.98828125
1771707035.0120938,31.73828125,33.203125,35.15625,65.91796875,35.64453125
1771707035.014125,47.8515625,33.69140625,37.59765625,20.01953125,20.99609375
1771707035.0180314,42.96875,25.390625,38.0859375,-2.9296875,13.671875
1771707035.0219376,28.80859375,29.296875,38.0859375,46.38671875,3.41796875
1771707035.0258439,19.04296875,32.2265625,34.1796875,69.82421875,2.9296875
1771707035.02975,22.94921875,36.1328125,34.66796875,23.4375,56.15234375
1771707035.0336564,27.83203125,35.64453125,35.64453125,-11.23046875,38.0859375
1771707035.0375626,24.90234375,38.0859375,36.62109375,29.78515625,-19.53125
1771707035.0414689,20.99609375,35.64453125,39.0625,77.63671875,53.7109375
1771707035.045375,20.99609375,27.34375,38.0859375,53.7109375,73.2421875
1771707035.0492814,28.80859375,31.25,36.1328125,6.34765625,14.6484375
1771707035.0531876,24.4140625,34.66796875,42.48046875,18.06640625,27.34375
1771707035.0570939,15.13671875,31.25,42.96875,70.80078125,59.08203125
1771707035.059125,27.34375,30.2734375,37.109375,62.01171875,54.19921875
1771707035.0630312,34.1796875,35.15625,34.1796875,2.9296875,-5.859375
1771707035.0669374,29.296875,32.71484375,31.73828125,-1.953125,-3.41796875
1771707035.0708437,30.76171875,30.76171875,34.1796875,57.12890625,49.8046875
1771707035.07475,30.76171875,31.25,37.109375,81.0546875,39.0625
1771707035.0786562,39.0625,42.48046875,38.0859375,38.57421875,56.640625
1771707035.0825624,36.62109375,38.0859375,34.66796875,9.765625,26.85546875
1771707035.0864687,16.11328125,23.92578125,33.69140625,51.26953125,-0.9765625
1771707035.090375,7.32421875,27.83203125,36.62109375,83.49609375,38.0859375
1771707035.0942812,17.578125,27.83203125,35.15625,31.73828125,28.3203125
1771707035.0981874,32.2265625,31.73828125,34.66796875,-4.39453125,37.109375
1771707035.1020937,32.71484375,31.25,36.1328125,28.3203125,41.9921875
1771707035.104125,24.90234375,34.66796875,32.71484375,70.80078125,54.19921875
1771707035.1080313,21.97265625,39.55078125,28.3203125,52.24609375,31.73828125
1771707035.1119375,24.90234375,34.1796875,33.69140625,4.39453125,41.015625
1771707035.1158438,16.11328125,34.66796875,34.1796875,13.671875,74.21875
1771707035.11975,9.27734375,36.62109375,28.3203125,61.5234375,24.4140625
1771707035.1236563,14.16015625,33.69140625,28.3203125,65.4296875,55.17578125
1771707035.1275625,20.99609375,33.203125,30.2734375,16.6015625,41.50390625
1771707035.1314688,29.78515625,36.1328125,31.25,0.9765625,-10.25390625
1771707035.135375,32.2265625,42.96875,30.76171875,50.29296875,41.015625
1771707035.1392813,32.71484375,42.48046875,31.73828125,71.2890625,52.734375
1771707035.1431875,32.2265625,36.62109375,30.76171875,19.04296875,7.32421875
1771707035.1470938,34.66796875,38.57421875,29.296875,-13.18359375,22.4609375
1771707035.149125,26.85546875,41.9921875,31.25,24.90234375,30.76171875
1771707035.1530313,12.6953125,37.109375,29.78515625,64.453125,31.25
1771707035.1569376,22.94921875,33.203125,26.85546875,30.76171875,35.15625
1771707035.1608438,30.2734375,33.69140625,26.85546875,-14.16015625,16.6015625
1771707035.16475,33.203125,46.875,33.203125,21.484375,15.625
1771707035.1686563,30.76171875,50.29296875,36.1328125,63.4765625,11.23046875
1771707035.1725626,23.4375,32.2265625,27.34375,32.71484375,40.0390625
1771707035.1764688,28.80859375,25.87890625,25.390625,-19.53125,88.8671875
1771707035.180375,26.3671875,27.83203125,30.76171875,-11.71875,62.5
1771707035.1842813,19.04296875,36.62109375,30.76171875,42.96875,27.34375
1771707035.1881876,20.99609375,41.50390625,29.78515625,53.7109375,33.69140625
1771707035.1920938,28.80859375,40.0390625,33.69140625,8.30078125,83.984375
1771707035.195125,38.0859375,37.109375,33.69140625,-11.71875,99.609375
1771707035.1990314,36.1328125,42.48046875,30.2734375,41.9921875,22.94921875
1771707035.2029376,36.62109375,49.8046875,30.76171875,78.125,8.30078125
1771707035.2068439,39.0625,42.96875,29.78515625,31.73828125,-10.25390625
1771707035.21075,36.1328125,32.2265625,31.25,-10.25390625,8.7890625
1771707035.2146564,35.15625,31.25,33.69140625,32.2265625,33.203125
1771707035.2185626,32.71484375,35.15625,33.69140625,82.51953125,33.69140625
1771707035.2224689,32.71484375,35.64453125,31.73828125,46.875,57.6171875
1771707035.226375,37.59765625,36.62109375,33.203125,-1.953125,18.5546875
1771707035.2302814,36.1328125,40.0390625,35.15625,22.4609375,30.76171875
1771707035.2341876,29.296875,42.48046875,35.15625,73.2421875,54.19921875
1771707035.2380939,39.0625,37.59765625,34.1796875,60.05859375,23.4375
1771707035.239125,53.22265625,35.15625,32.2265625,10.7421875,28.80859375
1771707035.2430313,46.38671875,34.1796875,31.73828125,9.765625,23.4375
1771707035.2469375,29.78515625,22.4609375,31.25,53.22265625,34.1796875
1771707035.2508438,30.2734375,26.85546875,32.71484375,67.87109375,61.5234375
1771707035.25475,37.59765625,34.66796875,36.1328125,25.390625,11.23046875
1771707035.2586563,35.15625,35.64453125,31.25,0.9765625,-17.08984375
1771707035.2625625,24.4140625,33.203125,30.76171875,41.9921875,49.8046875
1771707035.2664688,22.94921875,29.78515625,34.1796875,70.80078125,27.34375
1771707035.270375,32.71484375,28.80859375,31.25,27.34375,-25.87890625
1771707035.2742813,36.1328125,29.296875,29.296875,-8.30078125,-17.578125
1771707035.2781875,26.3671875,30.2734375,32.71484375,24.4140625,23.92578125
1771707035.2820938,25.390625,33.203125,34.66796875,65.91796875,75.1953125
1771707035.285125,33.69140625,42.48046875,31.73828125,45.41015625,45.8984375
1771707035.2890313,28.80859375,35.64453125,30.2734375,0.0,37.59765625
1771707035.2929375,29.296875,38.57421875,34.1796875,20.99609375,11.71875
1771707035.2968438,18.06640625,38.0859375,31.73828125,71.77734375,4.8828125
1771707035.30075,10.7421875,20.5078125,30.2734375,65.4296875,51.7578125
1771707035.3046563,29.296875,25.87890625,32.2265625,15.13671875,15.625
1771707035.3085625,28.80859375,31.25,28.80859375,0.0,46.875
1771707035.3124688,18.5546875,37.109375,33.69140625,47.36328125,50.78125
1771707035.316375,20.01953125,38.57421875,35.64453125,71.77734375,31.73828125
1771707035.3202813,31.73828125,35.15625,30.2734375,25.87890625,41.50390625
1771707035.3241875,37.109375,40.52734375,29.296875,0.48828125,16.6015625
1771707035.3280938,30.76171875,37.59765625,33.69140625,46.875,39.0625
1771707035.344125,25.87890625,35.15625,34.66796875,80.078125,39.0625
1771707035.3480313,30.76171875,35.15625,34.1796875,39.55078125,38.0859375
1771707035.3519375,32.71484375,30.76171875,33.203125,-10.7421875,35.64453125
1771707035.3558438,21.97265625,35.64453125,27.34375,16.11328125,-1.46484375
1771707035.35975,16.11328125,34.66796875,34.66796875,66.89453125,22.4609375
1771707035.3636563,29.296875,33.69140625,36.62109375,47.36328125,21.97265625
1771707035.3675625,45.8984375,36.62109375,29.78515625,-3.90625,31.25
1771707035.3714688,47.8515625,37.109375,29.78515625,10.7421875,38.0859375
1771707035.375375,49.8046875,45.8984375,35.15625,68.84765625,43.9453125
1771707035.3792813,44.43359375,44.921875,34.1796875,66.40625,20.99609375
1771707035.3831875,40.52734375,31.73828125,25.390625,6.34765625,-5.859375
1771707035.3870938,38.0859375,26.85546875,22.94921875,-4.8828125,25.87890625
1771707035.389125,28.3203125,34.66796875,24.90234375,45.41015625,40.0390625
1771707035.3930314,26.3671875,38.0859375,24.90234375,70.3125,38.57421875
1771707035.3969376,31.73828125,30.2734375,23.92578125,25.390625,-2.9296875
1771707035.4008439,31.73828125,33.203125,24.4140625,-13.18359375,-6.8359375
1771707035.40475,30.2734375,40.52734375,31.73828125,36.1328125,74.70703125
1771707035.4086564,30.2734375,36.1328125,36.62109375,82.51953125,63.96484375
1771707035.4125626,25.87890625,32.2265625,33.203125,42.48046875,8.7890625
1771707035.4164689,27.83203125,28.80859375,30.76171875,-3.90625,6.34765625
1771707035.420375,28.3203125,28.80859375,29.78515625,21.484375,30.2734375
1771707035.4242814,29.296875,44.43359375,29.296875,68.359375,48.828125
1771707035.4281876,28.80859375,41.50390625,28.3203125,49.31640625,38.57421875
1771707035.4320939,28.3203125,32.2265625,30.76171875,-5.37109375,90.8203125
1771707035.434125,25.87890625,39.55078125,30.2734375,-1.46484375,55.6640625
1771707035.4380312,17.08984375,34.66796875,28.3203125,49.8046875,27.83203125
1771707035.4419374,18.5546875,29.78515625,31.25,60.05859375,62.5
1771707035.4458437,30.2734375,34.1796875,36.62109375,10.7421875,20.5078125
1771707035.44975,32.71484375,34.66796875,34.66796875,-7.8125,57.6171875
1771707035.4536562,30.2734375,32.71484375,36.62109375,42.96875,64.94140625
1771707035.4575624,24.90234375,33.203125,35.64453125,70.3125,0.48828125
1771707035.4614687,19.53125,36.1328125,30.76171875,24.90234375,16.6015625
1771707035.465375,14.6484375,36.1328125,35.64453125,-18.5546875,61.03515625
1771707035.4692812,8.30078125,34.66796875,39.0625,20.01953125,78.125
1771707035.4731874,6.8359375,33.69140625,37.109375,70.3125,71.77734375
1771707035.4770937,10.7421875,28.3203125,32.71484375,40.0390625,52.734375
1771707035.480125,22.94921875,30.76171875,29.296875,-11.23046875,102.05078125
1771707035.4840312,24.90234375,36.1328125,29.78515625,8.7890625,74.70703125
1771707035.4879375,32.2265625,42.96875,33.203125,69.3359375,22.4609375
1771707035.4918437,37.109375,39.55078125,36.62109375,56.640625,63.96484375
1771707035.49575,35.15625,31.73828125,32.71484375,1.46484375,68.84765625
1771707035.4996562,35.15625,34.1796875,31.25,0.48828125,30.2734375
1771707035.5035625,38.0859375,21.97265625,35.64453125,64.453125,38.57421875
1771707035.5074687,66.89453125,16.11328125,34.66796875,100.09765625,96.6796875
1771707035.511375,73.73046875,34.66796875,27.34375,42.96875,75.1953125
1771707035.5152812,41.9921875,48.828125,22.4609375,-15.625,-3.41796875
1771707035.5191875,18.5546875,53.7109375,23.92578125,24.90234375,39.0625
1771707035.5230937,11.71875,51.26953125,23.4375,66.40625,44.43359375
1771707035.524125,16.11328125,55.17578125,17.578125,15.625,-5.859375
1771707035.5280313,20.5078125,58.59375,8.7890625,-35.15625,9.27734375
1771707035.5319376,12.20703125,59.08203125,4.39453125,-1.46484375,23.92578125
1771707035.5358438,4.8828125,62.98828125,5.37109375,39.55078125,18.5546875
1771707035.53975,15.625,52.24609375,0.48828125,10.25390625,20.5078125
1771707035.5436563,32.71484375,50.78125,-3.90625,-27.34375,33.203125
1771707035.5475626,36.62109375,60.05859375,-3.90625,-6.34765625,41.50390625
1771707035.5514688,41.9921875,61.03515625,3.41796875,49.31640625,22.94921875
1771707035.555375,45.8984375,58.10546875,8.7890625,48.33984375,32.71484375
1771707035.5592813,41.9921875,53.7109375,9.765625,-6.8359375,39.55078125
1771707035.5631876,45.41015625,55.17578125,13.671875,-12.6953125,52.24609375
1771707035.5670938,38.57421875,55.6640625,15.625,40.52734375,74.70703125
1771707035.569125,33.69140625,47.36328125,16.6015625,60.05859375,102.05078125
1771707035.5730312,41.9921875,42.48046875,15.625,10.25390625,55.6640625
1771707035.5769374,42.48046875,43.45703125,15.625,-16.11328125,17.08984375
1771707035.5808437,34.66796875,47.36328125,20.01953125,36.1328125,14.16015625
1771707035.58475,33.69140625,47.8515625,21.97265625,76.171875,39.0625
1771707035.5886562,39.0625,44.43359375,20.01953125,32.71484375,4.39453125
1771707035.5925624,46.875,43.9453125,18.5546875,-13.671875,-21.484375
1771707035.5964687,46.875,43.9453125,18.5546875,12.6953125,9.27734375
1771707035.600375,40.0390625,42.48046875,22.94921875,59.08203125,-4.39453125
1771707035.6042812,35.64453125,40.0390625,23.92578125,41.9921875,-0.48828125
1771707035.6081874,37.59765625,43.9453125,23.92578125,-0.9765625,26.85546875
1771707035.6120937,43.45703125,49.8046875,26.85546875,14.16015625,-32.2265625
1771707035.614125,35.15625,38.57421875,27.83203125,62.01171875,-71.77734375
1771707035.6180313,36.62109375,38.57421875,30.2734375,68.84765625,15.625
1771707035.6219375,43.9453125,43.9453125,25.87890625,15.13671875,42.96875
1771707035.6258438,38.0859375,35.64453125,22.4609375,-8.7890625,42.48046875
1771707035.62975,33.203125,34.66796875,22.94921875,41.015625,62.98828125
1771707035.6336563,29.78515625,42.48046875,26.3671875,72.75390625,57.12890625
1771707035.6375625,37.109375,43.9453125,30.76171875,25.390625,77.1484375
1771707035.6414688,36.62109375,38.57421875,32.2265625,-13.18359375,113.76953125
1771707035.645375,24.4140625,38.57421875,29.296875,29.78515625,83.49609375
1771707035.6492813,27.34375,37.59765625,32.71484375,74.21875,23.4375
1771707035.6531875,37.109375,36.1328125,37.59765625,38.57421875,-37.109375
1771707035.6570938,43.9453125,41.015625,31.73828125,-5.37109375,-2.44140625
1771707035.659125,41.50390625,43.45703125,31.25,26.3671875,55.6640625
1771707035.6630313,34.66796875,35.15625,33.203125,83.49609375,27.83203125
1771707035.6669376,41.50390625,36.62109375,31.25,69.3359375,38.0859375
1771707035.6708438,45.41015625,41.50390625,29.296875,14.6484375,48.33984375
1771707035.67475,42.48046875,35.15625,27.83203125,17.578125,27.34375
1771707035.6786563,39.0625,29.296875,27.83203125,69.82421875,25.390625
1771707035.6825626,43.45703125,32.71484375,26.3671875,73.73046875,-1.953125
1771707035.6864688,54.19921875,37.59765625,29.296875,16.6015625,34.66796875
1771707035.690375,48.828125,36.62109375,36.1328125,-0.48828125,57.12890625
1771707035.6942813,37.109375,38.57421875,37.109375,52.24609375,28.80859375
1771707035.6981876,33.69140625,49.31640625,34.66796875,86.9140625,-14.6484375
1771707035.7020938,23.92578125,41.9921875,28.80859375,37.109375,-7.32421875
1771707035.719125,24.90234375,35.64453125,29.78515625,2.9296875,-14.16015625
1771707035.7230313,23.4375,38.0859375,33.69140625,43.9453125,-92.28515625
1771707035.7269375,17.578125,30.2734375,27.34375,71.2890625,-47.36328125
1771707035.7308438,31.73828125,29.78515625,24.90234375,41.015625,3.41796875
1771707035.73475,46.38671875,36.62109375,30.76171875,5.37109375,-28.80859375
1771707035.7386563,34.1796875,34.66796875,32.2265625,22.94921875,-2.44140625
1771707035.7425625,24.90234375,37.59765625,33.69140625,72.75390625,60.05859375
1771707035.7464688,28.3203125,39.0625,30.76171875,62.01171875,60.05859375
1771707035.750375,30.2734375,33.203125,26.3671875,4.39453125,28.80859375
1771707035.7542813,32.2265625,32.71484375,28.3203125,0.9765625,19.04296875
1771707035.7581875,31.73828125,38.0859375,30.2734375,54.19921875,0.0
1771707035.7620938,35.15625,38.57421875,30.2734375,71.77734375,0.0
1771707035.765125,37.59765625,42.48046875,33.69140625,24.90234375,45.41015625
1771707035.7690313,36.62109375,44.921875,32.71484375,-1.953125,47.8515625
1771707035.7729375,29.78515625,35.64453125,27.83203125,38.0859375,41.50390625
1771707035.7768438,23.4375,29.78515625,32.2265625,68.84765625,25.87890625
1771707035.78075,28.80859375,28.3203125,34.66796875,27.34375,20.99609375
1771707035.7846563,34.66796875,32.2265625,33.69140625,-11.23046875,4.39453125
1771707035.7885625,27.34375,34.66796875,32.71484375,21.484375,12.20703125
1771707035.7924688,16.6015625,36.1328125,34.1796875,69.3359375,57.6171875
1771707035.796375,19.53125,35.15625,36.1328125,43.9453125,96.6796875
1771707035.8002813,27.83203125,41.9921875,36.1328125,-5.37109375,63.96484375
1771707035.8041875,25.390625,46.38671875,32.71484375,7.8125,14.16015625
1771707035.8080938,15.13671875,36.62109375,32.71484375,57.12890625,-8.7890625
1771707035.810125,16.6015625,30.2734375,31.25,55.17578125,38.57421875
1771707035.8140314,25.87890625,30.76171875,32.71484375,5.37109375,63.4765625
1771707035.8179376,29.78515625,31.73828125,33.69140625,1.953125,37.59765625
1771707035.8218439,48.33984375,32.71484375,24.4140625,64.453125,33.69140625
1771707035.82575,65.4296875,36.1328125,24.4140625,98.6328125,14.6484375
1771707035.8296564,36.1328125,35.15625,35.64453125,28.80859375,76.171875
1771707035.8335626,20.5078125,26.3671875,41.015625,-14.6484375,127.44140625
1771707035.8374689,38.0859375,27.83203125,48.33984375,58.59375,14.6484375
1771707035.841375,40.0390625,26.3671875,53.7109375,105.46875,-36.62109375
1771707035.8452814,38.0859375,9.765625,55.6640625,59.08203125,-1.46484375
1771707035.8491876,37.59765625,10.7421875,58.59375,16.11328125,3.41796875
1771707035.8530939,27.83203125,7.32421875,53.7109375,42.48046875,47.8515625
1771707035.861125,35.64453125,-3.90625,52.24609375,94.7265625,41.50390625
1771707035.8650312,54.19921875,2.9296875,55.6640625,87.890625,25.87890625
1771707035.8689375,53.7109375,6.34765625,53.22265625,33.203125,34.66796875
1771707035.8728437,52.24609375,10.7421875,49.31640625,38.57421875,-30.2734375
1771707035.87675,43.9453125,17.578125,51.7578125,95.21484375,1.46484375
1771707035.8806562,44.43359375,19.53125,57.12890625,99.12109375,60.546875
1771707035.8845625,53.22265625,18.06640625,54.6875,48.828125,60.546875
1771707035.8884687,50.29296875,14.16015625,47.8515625,29.78515625,17.08984375
1771707035.892375,45.8984375,16.6015625,46.875,73.2421875,67.87109375
