timestamps,TP9,AF7,AF8,TP10,Right AUX
1771279775.471125,13.671875,387.20703125,14.16015625,33.203125,17.578125
1771279775.4750311,12.20703125,257.8125,8.7890625,9.765625,-31.25
1771279775.4789374,10.7421875,316.89453125,14.6484375,3.90625,37.59765625
1771279775.4828436,5.37109375,358.88671875,16.11328125,24.90234375,59.5703125
1771279775.48675,2.44140625,377.44140625,16.11328125,53.22265625,21.97265625
1771279775.4906561,5.37109375,330.078125,20.01953125,62.01171875,39.0625
1771279775.4945624,-9.27734375,220.703125,18.06640625,22.4609375,18.5546875
1771279775.4984686,-8.30078125,271.484375,13.18359375,-10.25390625,4.39453125
1771279775.502375,6.8359375,376.46484375,13.671875,17.578125,32.2265625
1771279775.5062811,8.30078125,475.09765625,16.11328125,23.4375,38.57421875
1771279775.5101874,-4.39453125,350.5859375,6.34765625,12.20703125,38.57421875
1771279775.5140936,0.0,310.546875,2.9296875,33.69140625,29.78515625
1771279775.515125,2.9296875,499.0234375,10.25390625,30.2734375,70.80078125
1771279775.5190313,-17.08984375,517.08984375,9.765625,7.32421875,48.33984375
1771279775.5229375,-16.11328125,312.98828125,2.44140625,13.671875,-1.46484375
1771279775.5268438,-10.7421875,239.2578125,2.9296875,27.34375,-5.859375
1771279775.53075,-13.671875,442.3828125,13.18359375,47.36328125,39.0625
1771279775.5346563,-0.9765625,461.9140625,11.23046875,51.7578125,47.36328125
1771279775.5385625,-1.46484375,338.8671875,4.8828125,29.78515625,36.1328125
1771279775.5424688,-8.7890625,164.0625,-0.9765625,13.18359375,48.828125
1771279775.546375,3.41796875,261.23046875,6.34765625,23.4375,5.859375
1771279775.5502813,22.94921875,598.14453125,19.53125,39.0625,10.25390625
1771279775.5541875,36.1328125,430.17578125,15.13671875,53.22265625,11.71875
1771279775.5580938,-4.8828125,203.61328125,9.27734375,64.94140625,-16.11328125
1771279775.560125,-32.71484375,357.421875,11.23046875,43.9453125,12.20703125
1771279775.5640314,-1.953125,552.24609375,6.34765625,29.78515625,47.8515625
1771279775.5679376,8.7890625,418.9453125,-2.44140625,30.76171875,45.8984375
1771279775.5718439,14.16015625,271.484375,-0.9765625,36.1328125,86.42578125
1771279775.57575,9.27734375,338.37890625,6.8359375,72.75390625,80.56640625
1771279775.5796564,-5.859375,408.203125,9.27734375,107.91015625,35.15625
1771279775.5835626,27.34375,342.28515625,3.41796875,58.59375,36.62109375
1771279775.5874689,19.04296875,118.1640625,0.0,20.5078125,30.76171875
1771279775.591375,-2.44140625,272.4609375,11.71875,14.16015625,61.03515625
1771279775.5952814,7.32421875,551.7578125,16.11328125,39.55078125,108.3984375
1771279775.5991876,2.9296875,487.3046875,13.18359375,55.17578125,87.890625
1771279775.6030939,-2.9296875,330.56640625,9.27734375,34.1796875,25.87890625
1771279775.605125,6.34765625,281.73828125,8.7890625,26.85546875,2.44140625
1771279775.6090312,27.34375,410.15625,13.671875,36.62109375,76.171875
1771279775.6129375,16.11328125,476.5625,15.625,53.7109375,111.328125
1771279775.6168437,-3.41796875,368.1640625,13.18359375,47.36328125,62.5
1771279775.62075,-5.859375,260.25390625,6.34765625,34.1796875,32.2265625
1771279775.6246562,-13.671875,262.6953125,6.34765625,52.734375,31.73828125
1771279775.6285625,15.625,269.04296875,9.765625,71.77734375,20.99609375
1771279775.6324687,29.296875,291.9921875,14.6484375,64.453125,3.41796875
1771279775.636375,6.34765625,323.2421875,12.6953125,47.8515625,20.01953125
1771279775.6402812,25.390625,302.734375,9.765625,52.734375,27.83203125
1771279775.6441875,20.5078125,384.765625,13.671875,42.96875,41.50390625
1771279775.6480937,21.484375,457.03125,13.18359375,36.62109375,58.10546875
1771279775.650125,17.578125,340.8203125,9.27734375,45.8984375,52.24609375
1771279775.6540313,12.20703125,192.87109375,4.8828125,33.69140625,3.90625
1771279775.6579375,18.06640625,295.8984375,11.23046875,24.90234375,-19.53125
1771279775.6618438,23.4375,462.890625,15.13671875,19.04296875,55.17578125
1771279775.66575,44.43359375,342.7734375,4.39453125,10.25390625,73.73046875
1771279775.6696563,16.6015625,85.44921875,-2.9296875,25.390625,24.4140625
1771279775.6735625,2.9296875,120.1171875,2.9296875,39.0625,20.99609375
1771279775.6774688,22.94921875,430.6640625,13.18359375,40.0390625,36.1328125
1771279775.681375,38.57421875,388.18359375,11.71875,57.6171875,-2.44140625
1771279775.6852813,33.69140625,197.265625,5.37109375,42.48046875,12.6953125
1771279775.6891875,41.015625,223.6328125,5.859375,38.0859375,26.85546875
1771279775.6930938,39.0625,391.6015625,12.6953125,45.41015625,26.3671875
1771279775.710125,55.6640625,421.875,12.6953125,29.78515625,50.29296875
1771279775.7140312,59.5703125,183.59375,6.34765625,27.34375,43.9453125
1771279775.7179375,28.3203125,184.5703125,6.34765625,36.62109375,55.6640625
1771279775.7218437,39.0625,389.16015625,9.765625,50.78125,15.13671875
1771279775.72575,51.7578125,402.83203125,9.765625,81.0546875,7.8125
1771279775.7296562,27.34375,187.01171875,6.34765625,88.37890625,41.50390625
1771279775.7335625,24.4140625,111.81640625,8.30078125,29.296875,-35.64453125
1771279775.7374687,37.109375,358.88671875,13.671875,-8.7890625,-10.25390625
1771279775.741375,37.59765625,428.22265625,10.7421875,1.46484375,41.50390625
1771279775.7452812,34.1796875,221.6796875,6.34765625,1.953125,45.41015625
1771279775.7491875,35.15625,191.40625,11.23046875,17.578125,61.5234375
1771279775.7530937,35.15625,339.35546875,11.71875,34.66796875,45.41015625
1771279775.755125,43.45703125,336.42578125,13.671875,34.1796875,10.7421875
1771279775.7590313,42.96875,261.23046875,15.625,20.99609375,31.25
1771279775.7629375,43.45703125,237.79296875,18.06640625,34.1796875,54.19921875
1771279775.7668438,45.41015625,270.5078125,18.06640625,40.0390625,30.76171875
1771279775.77075,47.36328125,299.8046875,13.671875,41.50390625,18.06640625
1771279775.7746563,62.01171875,234.86328125,13.18359375,38.57421875,34.1796875
1771279775.7785625,48.33984375,151.3671875,11.23046875,29.296875,34.66796875
1771279775.7824688,47.8515625,229.4921875,12.6953125,26.3671875,64.453125
1771279775.786375,77.1484375,299.8046875,11.23046875,28.80859375,100.09765625
1771279775.7902813,62.98828125,225.5859375,10.7421875,44.43359375,56.15234375
1771279775.7941875,22.4609375,275.390625,12.6953125,28.80859375,31.73828125
1771279775.7980938,27.83203125,243.1640625,11.71875,12.20703125,16.11328125
1771279775.799125,62.01171875,290.0390625,16.6015625,21.484375,42.48046875
1771279775.8030312,61.5234375,395.5078125,19.04296875,35.64453125,113.76953125
1771279775.8069375,53.22265625,306.15234375,14.6484375,27.34375,109.86328125
1771279775.8108437,51.7578125,104.00390625,11.23046875,37.59765625,48.828125
1771279775.81475,74.21875,109.375,14.16015625,56.640625,-25.390625
1771279775.8186562,80.078125,293.45703125,18.06640625,38.57421875,12.20703125
1771279775.8225625,53.7109375,279.78515625,14.6484375,27.83203125,7.32421875
1771279775.8264687,40.52734375,210.9375,9.27734375,12.20703125,1.953125
1771279775.830375,32.2265625,118.1640625,8.30078125,16.6015625,40.0390625
1771279775.8342812,49.8046875,259.765625,15.13671875,23.4375,34.66796875
1771279775.8381875,64.94140625,435.546875,16.11328125,28.80859375,43.45703125
1771279775.8420937,70.80078125,235.83984375,4.39453125,17.578125,64.453125
1771279775.844125,91.796875,146.97265625,5.859375,8.30078125,38.0859375
1771279775.8480313,106.4453125,299.31640625,14.6484375,25.87890625,-14.6484375
1771279775.8519375,93.75,364.2578125,16.11328125,36.1328125,-10.25390625
1771279775.8558438,87.40234375,206.54296875,9.765625,32.2265625,22.94921875
1771279775.85975,80.56640625,124.51171875,5.859375,20.5078125,52.734375
1771279775.8636563,52.734375,206.54296875,8.30078125,27.34375,11.71875
1771279775.8675625,57.6171875,304.19921875,6.8359375,26.3671875,-4.8828125
1771279775.8714688,80.078125,205.078125,-1.46484375,30.2734375,24.4140625
1771279775.875375,74.70703125,10.7421875,-12.20703125,31.73828125,19.04296875
1771279775.8792813,52.734375,238.28125,-2.9296875,16.11328125,56.640625
1771279775.8831875,59.5703125,440.91796875,4.8828125,17.578125,62.5
1771279775.8870938,74.21875,300.78125,-7.32421875,19.53125,5.37109375
1771279775.889125,62.5,187.5,-14.16015625,14.6484375,-12.6953125
1771279775.8930314,63.96484375,230.95703125,-5.859375,27.83203125,5.37109375
1771279775.8969376,82.03125,323.2421875,-0.9765625,48.33984375,17.08984375
1771279775.9008439,106.4453125,309.5703125,0.9765625,49.31640625,12.20703125
1771279775.90475,79.1015625,215.8203125,0.0,24.90234375,13.671875
1771279775.9086564,53.7109375,143.06640625,-3.41796875,35.15625,11.23046875
1771279775.9125626,39.55078125,280.2734375,5.859375,41.50390625,12.6953125
1771279775.9164689,30.76171875,251.46484375,6.8359375,27.83203125,29.296875
1771279775.920375,36.1328125,153.3203125,3.41796875,12.20703125,48.33984375
1771279775.9242814,38.0859375,295.8984375,7.8125,1.953125,45.41015625
1771279775.9281876,55.17578125,322.75390625,9.27734375,5.37109375,15.625
1771279775.9320939,40.52734375,353.515625,10.7421875,23.4375,10.25390625
1771279775.935125,30.76171875,333.49609375,3.90625,22.4609375,19.53125
1771279775.9390314,18.5546875,227.05078125,-0.9765625,5.37109375,-10.7421875
1771279775.9429376,23.92578125,224.609375,3.41796875,15.13671875,22.94921875
1771279775.9468439,34.1796875,318.359375,12.20703125,27.34375,40.0390625
1771279775.95075,30.76171875,341.796875,13.671875,15.13671875,37.59765625
1771279775.9546564,33.69140625,210.44921875,10.7421875,6.34765625,71.77734375
1771279775.9585626,32.71484375,122.55859375,11.71875,12.6953125,61.03515625
1771279775.9624689,35.64453125,195.3125,11.23046875,20.01953125,5.37109375
1771279775.966375,47.8515625,360.3515625,16.6015625,22.94921875,-46.875
1771279775.9702814,52.24609375,310.05859375,15.625,25.390625,-31.25
1771279775.9741876,38.0859375,143.06640625,14.6484375,24.4140625,20.99609375
1771279775.9780939,47.8515625,221.6796875,21.97265625,32.2265625,14.16015625
1771279775.980125,62.5,405.76171875,25.390625,33.203125,48.33984375
1771279775.9840312,32.2265625,306.15234375,20.99609375,20.99609375,48.828125
1771279775.9879375,29.78515625,167.96875,16.11328125,19.04296875,36.62109375
1771279775.9918437,60.05859375,249.51171875,17.08984375,29.78515625,42.48046875
1771279775.99575,57.6171875,359.375,21.484375,33.69140625,50.29296875
1771279775.9996562,55.6640625,255.37109375,20.01953125,34.66796875,57.12890625
1771279776.0035625,45.8984375,33.69140625,20.5078125,29.78515625,4.8828125
1771279776.0074687,35.64453125,141.11328125,22.4609375,20.01953125,0.0
1771279776.011375,44.43359375,419.921875,24.4140625,26.3671875,75.1953125
1771279776.0152812,44.43359375,323.2421875,18.5546875,24.90234375,64.94140625
1771279776.0191875,32.2265625,163.0859375,13.671875,16.6015625,32.2265625
1771279776.0230937,34.1796875,202.1484375,16.11328125,27.34375,54.6875
1771279776.025125,47.36328125,276.85546875,15.625,38.57421875,45.8984375
1771279776.0290313,41.50390625,242.1875,13.671875,27.83203125,-8.30078125
1771279776.0329375,42.96875,152.34375,14.6484375,22.94921875,27.83203125
1771279776.0368438,54.6875,181.15234375,18.06640625,31.73828125,40.0390625
1771279776.04075,44.43359375,283.69140625,18.06640625,26.3671875,33.69140625
1771279776.0446563,22.94921875,228.515625,16.6015625,27.83203125,30.76171875
1771279776.0485625,12.6953125,92.7734375,14.16015625,24.90234375,7.32421875
1771279776.0524688,2.44140625,187.98828125,19.04296875,20.01953125,25.390625
1771279776.056375,9.27734375,269.53125,20.99609375,21.484375,15.13671875
1771279776.0602813,15.625,286.62109375,17.578125,20.5078125,30.76171875
1771279776.0641875,23.4375,259.765625,19.04296875,23.4375,44.43359375
1771279776.0680938,14.6484375,175.29296875,17.08984375,30.76171875,-14.6484375
1771279776.084125,9.27734375,182.6171875,16.6015625,22.94921875,0.9765625
1771279776.0880313,33.203125,255.859375,21.484375,31.25,32.71484375
1771279776.0919375,37.109375,214.84375,18.5546875,34.66796875,-6.34765625
1771279776.0958438,30.76171875,142.08984375,13.18359375,26.85546875,-39.55078125
1771279776.09975,31.25,208.984375,13.18359375,32.71484375,20.5078125
1771279776.1036563,31.25,150.87890625,10.25390625,31.73828125,49.31640625
1771279776.1075625,22.4609375,170.41015625,13.671875,18.5546875,49.8046875
1771279776.1114688,11.23046875,308.10546875,20.99609375,14.16015625,112.79296875
1771279776.115375,27.34375,205.078125,19.53125,28.80859375,95.21484375
1771279776.1192813,47.36328125,208.0078125,18.06640625,31.73828125,45.41015625
1771279776.1231875,36.1328125,334.47265625,26.3671875,24.90234375,64.94140625
1771279776.1270938,20.99609375,265.625,28.80859375,39.0625,24.90234375
1771279776.130125,26.85546875,125.9765625,20.5078125,39.0625,-10.25390625
1771279776.1340313,40.0390625,152.83203125,19.53125,36.1328125,-8.30078125
1771279776.1379375,28.80859375,280.2734375,20.01953125,33.69140625,-33.203125
1771279776.1418438,24.90234375,284.1796875,17.578125,25.87890625,18.06640625
1771279776.14575,38.57421875,129.39453125,11.23046875,27.83203125,34.66796875
1771279776.1496563,48.33984375,91.796875,7.32421875,24.90234375,8.30078125
1771279776.1535625,46.38671875,230.46875,14.6484375,42.48046875,13.18359375
1771279776.1574688,48.828125,300.78125,20.99609375,62.01171875,46.38671875
1771279776.161375,27.83203125,160.64453125,18.06640625,54.6875,20.99609375
1771279776.1652813,4.8828125,20.5078125,14.16015625,25.87890625,-2.44140625
1771279776.1691875,26.3671875,282.2265625,21.97265625,16.6015625,41.015625
1771279776.1730938,46.38671875,415.0390625,26.85546875,32.2265625,47.36328125
1771279776.175125,51.7578125,255.859375,18.5546875,38.57421875,55.6640625
1771279776.1790311,50.78125,193.359375,12.6953125,36.62109375,64.94140625
1771279776.1829374,43.45703125,248.53515625,14.16015625,37.59765625,14.6484375
1771279776.1868436,55.17578125,306.15234375,16.11328125,39.55078125,-20.01953125
1771279776.19075,59.08203125,238.76953125,14.6484375,36.62109375,6.8359375
1771279776.1946561,49.8046875,128.90625,6.34765625,33.203125,16.11328125
1771279776.1985624,46.875,174.31640625,11.71875,28.3203125,21.97265625
1771279776.2024686,59.5703125,286.1328125,20.01953125,43.45703125,29.78515625
1771279776.206375,59.5703125,164.0625,15.625,57.12890625,-1.46484375
1771279776.2102811,46.38671875,112.79296875,15.625,27.34375,16.11328125
1771279776.2141874,42.96875,284.66796875,19.53125,21.484375,19.53125
1771279776.2180936,52.734375,323.73046875,17.08984375,40.0390625,26.85546875
1771279776.220125,53.7109375,299.31640625,13.671875,41.015625,56.640625
1771279776.2240312,47.8515625,244.140625,12.20703125,22.94921875,29.296875
1771279776.2279375,53.7109375,210.44921875,13.671875,20.5078125,40.0390625
1771279776.2318437,65.4296875,217.28515625,22.94921875,48.33984375,18.06640625
1771279776.23575,64.94140625,285.64453125,23.4375,43.45703125,57.6171875
1771279776.2396562,42.96875,231.4453125,19.04296875,37.59765625,100.5859375
1771279776.2435625,41.015625,162.59765625,15.625,28.80859375,95.21484375
1771279776.2474687,42.96875,175.29296875,15.625,20.5078125,68.84765625
1771279776.251375,40.0390625,193.84765625,22.94921875,32.71484375,20.5078125
1771279776.2552812,36.1328125,284.66796875,24.90234375,33.69140625,45.41015625
1771279776.2591875,41.015625,196.2890625,21.97265625,26.85546875,44.921875
1771279776.2630937,36.1328125,147.4609375,21.484375,24.90234375,43.45703125
1771279776.265125,37.59765625,247.0703125,20.5078125,37.109375,-14.16015625
1771279776.2690313,42.96875,317.87109375,21.484375,44.43359375,6.8359375
1771279776.2729375,41.50390625,191.89453125,15.625,35.15625,34.66796875
1771279776.2768438,40.52734375,150.390625,10.7421875,24.4140625,22.94921875
1771279776.28075,32.2265625,261.23046875,17.08984375,26.3671875,50.29296875
1771279776.2846563,48.33984375,240.72265625,15.625,34.66796875,6.34765625
1771279776.2885625,60.546875,198.2421875,11.71875,30.2734375,89.84375
1771279776.2924688,53.7109375,68.359375,11.71875,24.90234375,95.703125
1771279776.296375,55.6640625,150.390625,17.578125,41.50390625,44.921875
1771279776.3002813,56.640625,358.3984375,20.5078125,45.8984375,47.8515625
1771279776.3041875,51.7578125,241.69921875,11.71875,40.0390625,53.22265625
1771279776.3080938,41.50390625,118.1640625,8.7890625,37.59765625,50.78125
1771279776.311125,30.76171875,165.0390625,16.6015625,30.2734375,7.32421875
1771279776.3150313,33.203125,299.31640625,23.4375,32.71484375,7.32421875
1771279776.3189375,51.7578125,229.4921875,17.578125,41.015625,35.64453125
1771279776.3228438,67.87109375,106.4453125,10.25390625,45.8984375,72.75390625
1771279776.32675,50.29296875,192.3828125,19.53125,47.36328125,52.734375
1771279776.3306563,29.78515625,250.9765625,26.85546875,45.41015625,20.5078125
1771279776.3345625,39.55078125,173.828125,21.484375,40.0390625,17.08984375
1771279776.3384688,51.26953125,98.6328125,23.4375,30.2734375,47.8515625
1771279776.342375,41.50390625,219.7265625,28.80859375,19.53125,76.171875
1771279776.3462813,44.921875,289.0625,22.4609375,22.94921875,-9.27734375
1771279776.3501875,52.24609375,264.16015625,21.484375,37.59765625,-31.73828125
1771279776.3540938,49.8046875,218.75,20.5078125,31.73828125,47.8515625
1771279776.356125,40.52734375,186.5234375,16.11328125,13.671875,83.984375
1771279776.3600314,44.43359375,227.05078125,18.06640625,27.34375,71.77734375
1771279776.3639376,65.4296875,250.48828125,19.53125,37.109375,65.91796875
1771279776.3678439,56.640625,223.6328125,17.578125,24.4140625,85.44921875
1771279776.37175,38.57421875,148.4375,17.08984375,29.78515625,-1.953125
1771279776.3756564,55.17578125,156.25,20.99609375,53.22265625,-16.11328125
1771279776.3795626,90.33203125,175.78125,21.97265625,79.58984375,101.5625
1771279776.3834689,48.828125,166.50390625,19.53125,60.546875,77.63671875
1771279776.387375,-12.20703125,248.046875,19.53125,-2.44140625,16.6015625
1771279776.3912814,-11.71875,228.02734375,24.4140625,-11.23046875,42.96875
1771279776.3951876,-19.53125,243.65234375,30.76171875,-3.90625,9.765625
1771279776.3990939,-20.99609375,284.66796875,27.83203125,-19.04296875,55.6640625
1771279776.400125,8.7890625,205.56640625,20.5078125,-22.94921875,64.453125
1771279776.4040313,-18.06640625,132.32421875,25.390625,-21.484375,8.30078125
1771279776.4079375,-29.296875,192.87109375,33.203125,-0.48828125,14.6484375
1771279776.4118438,-0.48828125,294.921875,32.2265625,6.8359375,-3.41796875
1771279776.41575,-0.9765625,225.09765625,26.85546875,-11.71875,34.66796875
1771279776.4196563,11.23046875,68.84765625,15.625,-16.11328125,28.3203125
1771279776.4235625,7.32421875,89.35546875,16.11328125,-11.23046875,0.0
1771279776.4274688,-7.32421875,295.41015625,27.83203125,3.90625,-15.625
1771279776.431375,14.16015625,304.6875,25.390625,12.20703125,1.953125
1771279776.4352813,15.625,104.00390625,19.04296875,4.8828125,12.6953125
1771279776.4391875,14.16015625,142.08984375,24.90234375,15.13671875,44.43359375
1771279776.4430938,16.11328125,333.49609375,27.83203125,17.578125,116.2109375
1771279776.460125,6.34765625,267.08984375,21.484375,21.97265625,75.1953125
1771279776.4640312,21.97265625,133.30078125,18.5546875,28.3203125,21.484375
1771279776.4679375,19.53125,167.48046875,22.4609375,3.90625,63.4765625
1771279776.4718437,15.13671875,263.671875,26.85546875,16.6015625,27.34375
1771279776.47575,18.06640625,242.67578125,28.80859375,20.99609375,-42.48046875
1771279776.4796562,12.6953125,122.55859375,22.94921875,10.25390625,-0.48828125
1771279776.4835625,14.16015625,121.09375,18.06640625,11.23046875,57.12890625
1771279776.4874687,42.96875,223.6328125,22.4609375,19.04296875,34.66796875
1771279776.491375,44.921875,271.97265625,26.3671875,27.34375,20.99609375
1771279776.4952812,27.34375,108.88671875,19.53125,25.390625,50.78125
1771279776.4991875,21.97265625,76.171875,20.99609375,33.69140625,51.7578125
1771279776.5030937,22.94921875,303.22265625,30.76171875,31.25,117.67578125
1771279776.505125,36.1328125,290.0390625,29.78515625,26.85546875,125.48828125
1771279776.5090313,32.71484375,190.91796875,20.01953125,28.80859375,43.45703125
1771279776.5129375,14.6484375,167.96875,21.97265625,28.3203125,36.62109375
1771279776.5168438,11.23046875,193.359375,27.34375,32.71484375,28.80859375
1771279776.52075,29.78515625,221.19140625,22.94921875,28.80859375,7.32421875
1771279776.5246563,39.0625,182.12890625,26.3671875,34.66796875,20.01953125
1771279776.5285625,37.59765625,148.92578125,28.3203125,47.36328125,10.7421875
1771279776.5324688,25.87890625,213.37890625,23.4375,39.55078125,40.52734375
1771279776.536375,51.26953125,200.68359375,20.99609375,42.96875,67.87109375
1771279776.5402813,59.5703125,124.51171875,23.4375,43.9453125,-21.484375
1771279776.5441875,33.69140625,207.51953125,25.87890625,29.78515625,-31.25
1771279776.5480938,26.85546875,201.66015625,17.08984375,38.0859375,-18.06640625
1771279776.551125,22.94921875,159.1796875,15.625,31.25,-36.1328125
1771279776.5550313,28.80859375,252.44140625,17.578125,39.0625,17.08984375
1771279776.5589375,20.01953125,270.99609375,14.6484375,45.8984375,57.12890625
1771279776.5628438,9.27734375,162.109375,8.7890625,28.3203125,31.25
1771279776.56675,21.484375,174.31640625,11.23046875,27.83203125,27.83203125
1771279776.5706563,27.83203125,224.609375,17.578125,38.0859375,24.90234375
1771279776.5745625,38.57421875,240.234375,15.13671875,39.55078125,45.8984375
1771279776.5784688,42.96875,207.51953125,14.16015625,31.25,62.98828125
1771279776.582375,37.59765625,101.07421875,12.20703125,32.71484375,97.65625
1771279776.5862813,39.55078125,197.265625,14.16015625,34.66796875,61.03515625
1771279776.5901875,31.73828125,324.21875,22.94921875,40.0390625,8.30078125
1771279776.5940938,34.66796875,185.05859375,17.578125,37.59765625,41.9921875
1771279776.596125,35.15625,109.86328125,13.18359375,23.92578125,27.83203125
1771279776.6000311,24.90234375,237.3046875,19.53125,30.76171875,-6.8359375
1771279776.6039374,31.73828125,306.640625,20.99609375,41.015625,-26.3671875
1771279776.6078436,52.24609375,170.41015625,15.625,34.1796875,7.32421875
1771279776.61175,47.36328125,100.09765625,9.765625,45.8984375,78.61328125
1771279776.6156561,34.1796875,190.4296875,17.578125,53.22265625,76.171875
1771279776.6195624,42.48046875,273.4375,22.4609375,29.296875,43.9453125
1771279776.6234686,54.6875,199.21875,17.578125,38.57421875,37.109375
1771279776.627375,53.7109375,68.359375,18.06640625,36.62109375,9.27734375
1771279776.6312811,38.0859375,234.86328125,20.5078125,26.85546875,25.390625
1771279776.6351874,40.52734375,314.94140625,19.04296875,40.0390625,-17.578125
1771279776.6390936,40.52734375,225.5859375,15.625,30.76171875,-53.7109375
1771279776.641125,40.0390625,173.828125,13.18359375,23.4375,19.04296875
1771279776.6450312,49.31640625,204.1015625,18.5546875,31.73828125,36.62109375
1771279776.6489375,55.6640625,219.23828125,18.5546875,39.0625,-9.27734375
1771279776.6528437,47.8515625,195.80078125,19.53125,48.33984375,-8.7890625
1771279776.65675,25.87890625,183.10546875,20.01953125,31.73828125,50.29296875
1771279776.6606562,24.4140625,124.0234375,18.06640625,30.2734375,64.453125
1771279776.6645625,37.59765625,195.80078125,20.99609375,47.8515625,65.91796875
1771279776.6684687,39.55078125,170.8984375,16.6015625,42.96875,53.7109375
1771279776.672375,36.1328125,123.046875,19.04296875,28.3203125,32.71484375
1771279776.6762812,33.203125,198.2421875,20.99609375,27.34375,19.53125
1771279776.6801875,61.5234375,208.0078125,18.06640625,37.59765625,65.91796875
1771279776.6840937,66.89453125,229.00390625,23.92578125,41.015625,57.6171875
1771279776.685125,41.9921875,208.984375,20.99609375,35.15625,2.44140625
1771279776.6890314,23.92578125,158.203125,16.11328125,27.34375,36.1328125
1771279776.6929376,21.97265625,121.58203125,15.625,29.296875,20.5078125
1771279776.6968439,46.875,194.3359375,14.16015625,36.62109375,-4.39453125
1771279776.70075,35.15625,220.21484375,14.16015625,38.0859375,28.3203125
1771279776.7046564,21.484375,117.1875,12.6953125,28.3203125,39.0625
1771279776.7085626,46.875,76.171875,14.16015625,22.94921875,22.4609375
1771279776.7124689,57.12890625,102.5390625,12.20703125,28.3203125,58.59375
1771279776.716375,38.0859375,250.0,17.578125,31.73828125,78.125
1771279776.7202814,30.76171875,234.86328125,20.01953125,30.2734375,28.3203125
1771279776.7241876,32.2265625,122.0703125,16.11328125,24.4140625,5.859375
1771279776.7280939,41.9921875,209.9609375,20.01953125,30.2734375,38.0859375
1771279776.731125,53.22265625,268.06640625,15.625,43.9453125,26.85546875
1771279776.7350314,55.6640625,177.734375,9.27734375,24.90234375,10.7421875
1771279776.7389376,35.15625,96.6796875,12.20703125,13.671875,11.23046875
1771279776.7428439,15.13671875,172.36328125,15.13671875,34.1796875,18.5546875
1771279776.74675,37.109375,247.0703125,17.578125,47.36328125,2.9296875
1771279776.7506564,43.9453125,165.52734375,16.11328125,37.109375,-2.9296875
1771279776.7545626,36.62109375,5.37109375,12.6953125,21.97265625,-15.13671875
1771279776.7584689,41.50390625,74.21875,20.5078125,27.83203125,-24.4140625
1771279776.762375,41.015625,328.61328125,28.3203125,29.78515625,29.78515625
1771279776.7662814,30.76171875,280.76171875,23.92578125,25.390625,52.734375
1771279776.7701876,38.57421875,120.1171875,21.484375,27.34375,63.4765625
1771279776.7740939,37.109375,151.3671875,19.53125,22.4609375,46.875
1771279776.775125,40.0390625,248.53515625,21.97265625,28.80859375,1.46484375
1771279776.7790313,42.96875,225.09765625,25.390625,43.45703125,10.7421875
1771279776.7829375,43.9453125,124.51171875,19.53125,28.80859375,11.71875
1771279776.7868438,52.24609375,119.140625,19.04296875,24.4140625,-38.0859375
1771279776.79075,36.62109375,202.63671875,30.76171875,41.015625,-27.34375
1771279776.7946563,20.01953125,183.59375,29.296875,40.0390625,34.1796875
1771279776.7985625,24.4140625,69.82421875,20.01953125,31.73828125,0.48828125
1771279776.8024688,26.85546875,156.25,25.390625,30.2734375,-12.20703125
1771279776.806375,43.9453125,259.27734375,30.2734375,36.62109375,58.10546875
1771279776.8102813,46.38671875,203.61328125,24.90234375,31.25,72.265625
1771279776.8141875,29.296875,178.7109375,20.99609375,29.78515625,80.078125
1771279776.8180938,33.203125,149.90234375,16.6015625,27.83203125,-0.9765625
1771279776.835125,22.94921875,146.484375,23.4375,20.99609375,-40.0390625
1771279776.8390312,19.04296875,227.05078125,28.80859375,26.3671875,9.765625
1771279776.8429375,26.3671875,230.95703125,22.94921875,40.0390625,7.32421875
1771279776.8468437,51.26953125,176.7578125,21.97265625,34.66796875,9.27734375
1771279776.85075,65.4296875,152.83203125,27.83203125,30.2734375,56.640625
1771279776.8546562,46.38671875,149.4140625,28.3203125,25.390625,49.31640625
1771279776.8585625,27.34375,213.37890625,28.80859375,10.25390625,36.62109375
1771279776.8624687,10.7421875,229.98046875,28.3203125,2.9296875,59.08203125
1771279776.866375,5.37109375,153.3203125,22.4609375,3.41796875,71.77734375
1771279776.8702812,13.18359375,129.8828125,27.83203125,10.7421875,61.5234375
1771279776.8741875,39.0625,243.1640625,36.1328125,10.25390625,16.11328125
1771279776.8780937,48.33984375,241.2109375,30.2734375,0.9765625,72.75390625
1771279776.880125,16.11328125,96.6796875,21.97265625,16.6015625,112.3046875
1771279776.8840313,-9.765625,115.72265625,27.83203125,20.99609375,48.33984375
1771279776.8879375,5.37109375,261.23046875,34.66796875,14.16015625,44.921875
1771279776.8918438,24.4140625,266.11328125,28.80859375,16.6015625,86.42578125
1771279776.89575,36.1328125,107.91015625,17.08984375,7.8125,50.78125
1771279776.8996563,41.015625,69.3359375,20.01953125,12.20703125,-15.13671875
1771279776.9035625,41.50390625,213.37890625,23.92578125,21.97265625,22.94921875
1771279776.9074688,46.875,301.26953125,23.92578125,25.87890625,60.546875
1771279776.911375,44.43359375,133.7890625,15.625,19.53125,41.50390625
1771279776.9152813,18.5546875,30.76171875,11.23046875,20.5078125,-0.9765625
1771279776.9191875,18.5546875,251.46484375,23.92578125,31.73828125,17.08984375
1771279776.9230938,20.5078125,300.78125,26.3671875,27.83203125,37.59765625
1771279776.927125,16.6015625,184.5703125,22.4609375,15.625,46.38671875
1771279776.9310312,23.4375,125.48828125,23.4375,18.06640625,37.109375
1771279776.9349375,18.06640625,160.64453125,25.390625,28.3203125,13.18359375
1771279776.9388437,29.296875,254.39453125,26.85546875,32.71484375,31.73828125
1771279776.94275,49.8046875,174.31640625,20.5078125,29.78515625,20.99609375
1771279776.9466562,41.015625,72.75390625,19.53125,25.390625,-17.578125
1771279776.9505625,36.1328125,154.296875,25.390625,28.80859375,18.5546875
1771279776.9544687,39.0625,280.2734375,24.4140625,38.57421875,50.78125
1771279776.958375,42.48046875,174.8046875,20.01953125,39.55078125,48.33984375
1771279776.9622812,33.69140625,95.21484375,24.90234375,30.76171875,34.66796875
1771279776.9661875,31.25,209.47265625,27.34375,38.57421875,25.390625
1771279776.9700937,43.45703125,228.515625,20.01953125,43.45703125,43.45703125
1771279776.970125,41.015625,222.65625,22.4609375,33.69140625,62.01171875
1771279776.9740312,60.546875,180.6640625,22.94921875,32.71484375,38.0859375
1771279776.9779375,62.5,153.3203125,20.99609375,33.69140625,35.64453125
1771279776.9818437,39.0625,186.5234375,25.87890625,23.92578125,69.3359375
1771279776.98575,31.73828125,199.70703125,25.390625,20.99609375,83.49609375
1771279776.9896562,27.83203125,147.94921875,20.99609375,23.92578125,66.40625
1771279776.9935625,22.4609375,125.0,24.90234375,27.83203125,64.453125
1771279776.9974687,26.3671875,146.484375,26.85546875,38.57421875,47.8515625
1771279777.001375,47.8515625,111.81640625,25.390625,40.0390625,11.23046875
1771279777.0052812,56.15234375,211.9140625,30.2734375,39.55078125,31.25
1771279777.0091875,50.78125,223.14453125,30.76171875,43.9453125,37.59765625
1771279777.0130937,49.31640625,158.69140625,23.92578125,46.875,33.203125
1771279777.015125,48.33984375,225.5859375,20.5078125,39.55078125,10.7421875
1771279777.0190313,48.828125,260.7421875,21.97265625,39.0625,37.109375
1771279777.0229375,46.875,168.9453125,20.99609375,38.0859375,93.26171875
1771279777.0268438,43.9453125,125.9765625,20.5078125,25.390625,73.2421875
1771279777.03075,48.33984375,206.0546875,23.92578125,24.4140625,50.78125
1771279777.0346563,53.22265625,199.21875,18.5546875,33.69140625,44.43359375
1771279777.0385625,53.7109375,120.60546875,19.53125,37.59765625,41.015625
1771279777.0424688,42.48046875,26.85546875,18.5546875,38.57421875,32.2265625
1771279777.046375,41.015625,129.39453125,24.90234375,49.8046875,83.0078125
1771279777.0502813,44.921875,322.265625,28.80859375,46.875,67.87109375
1771279777.0541875,33.203125,231.93359375,19.53125,37.109375,74.70703125
1771279777.0580938,20.01953125,104.98046875,20.99609375,42.96875,64.94140625
1771279777.061125,41.9921875,181.640625,22.94921875,42.48046875,21.484375
1771279777.0650313,41.50390625,267.578125,21.97265625,33.69140625,-6.34765625
1771279777.0689375,29.78515625,176.7578125,22.4609375,51.26953125,-44.43359375
1771279777.0728438,32.2265625,107.91015625,23.4375,52.734375,31.73828125
1771279777.07675,37.59765625,157.2265625,22.4609375,37.109375,46.875
1771279777.0806563,51.7578125,218.26171875,29.78515625,54.6875,29.78515625
1771279777.0845625,38.0859375,152.34375,36.1328125,56.15234375,21.484375
1771279777.0884688,24.90234375,38.57421875,30.76171875,36.62109375,-41.50390625
1771279777.092375,23.4375,152.34375,23.4375,27.34375,-23.92578125
1771279777.0962813,22.4609375,255.37109375,17.08984375,20.99609375,49.31640625
1771279777.1001875,33.69140625,207.03125,18.06640625,30.2734375,57.12890625
1771279777.1040938,37.59765625,152.83203125,21.97265625,33.69140625,48.828125
1771279777.105125,31.25,169.921875,23.4375,39.0625,73.2421875
1771279777.1090312,40.0390625,191.89453125,24.90234375,52.734375,40.52734375
1771279777.1129375,48.33984375,228.515625,22.94921875,37.109375,9.765625
1771279777.1168437,44.43359375,191.40625,19.53125,30.76171875,-36.1328125
1771279777.12075,49.31640625,146.484375,20.99609375,41.015625,-26.3671875
1771279777.1246562,57.6171875,147.94921875,25.87890625,48.33984375,33.203125
1771279777.1285625,63.4765625,139.6484375,23.4375,60.546875,68.84765625
1771279777.1324687,56.15234375,165.0390625,20.5078125,46.38671875,33.69140625
1771279777.136375,43.9453125,205.56640625,23.4375,28.80859375,-8.7890625
1771279777.1402812,44.921875,169.43359375,21.97265625,32.2265625,56.15234375
1771279777.1441875,60.05859375,201.171875,19.53125,44.43359375,52.734375
1771279777.1480937,38.57421875,208.984375,19.53125,49.8046875,-2.9296875
1771279777.152125,20.01953125,163.0859375,21.97265625,28.80859375,18.06640625
1771279777.1560311,31.73828125,99.12109375,17.578125,24.4140625,13.671875
1771279777.1599374,41.015625,125.0,24.4140625,35.15625,0.9765625
1771279777.1638436,49.31640625,257.32421875,29.296875,34.66796875,27.34375
1771279777.16775,42.96875,204.1015625,25.390625,34.66796875,31.73828125
1771279777.1716561,41.9921875,53.22265625,24.90234375,32.71484375,29.78515625
1771279777.1755624,37.59765625,98.6328125,29.78515625,40.0390625,26.85546875
1771279777.1794686,38.57421875,276.85546875,31.25,45.41015625,28.3203125
1771279777.183375,41.015625,231.4453125,21.97265625,34.66796875,14.16015625
1771279777.1872811,36.1328125,67.3828125,14.6484375,22.4609375,-8.30078125
1771279777.1911874,41.50390625,119.62890625,18.06640625,21.484375,47.36328125
1771279777.1950936,49.8046875,265.13671875,26.85546875,36.1328125,73.73046875
1771279777.210125,50.29296875,222.16796875,28.80859375,41.9921875,25.87890625
1771279777.2140312,45.8984375,95.21484375,27.34375,33.203125,21.97265625
1771279777.2179375,43.9453125,94.23828125,19.53125,38.0859375,47.36328125
1771279777.2218437,35.15625,231.4453125,20.01953125,37.59765625,57.12890625
1771279777.22575,30.2734375,256.34765625,20.99609375,36.1328125,58.10546875
1771279777.2296562,30.2734375,53.22265625,12.6953125,28.80859375,-2.44140625
1771279777.2335625,26.3671875,39.0625,15.625,20.99609375,44.43359375
1771279777.2374687,29.296875,282.71484375,24.90234375,31.25,127.44140625
1771279777.241375,34.66796875,272.4609375,21.97265625,35.64453125,73.2421875
1771279777.2452812,47.8515625,164.0625,13.18359375,41.50390625,47.36328125
1771279777.2491875,44.921875,141.11328125,17.578125,35.64453125,47.36328125
1771279777.2530937,37.59765625,169.43359375,29.78515625,34.1796875,20.99609375
1771279777.255125,41.015625,204.58984375,31.25,34.66796875,-5.859375
1771279777.2590313,57.12890625,179.19921875,29.78515625,34.1796875,3.90625
1771279777.2629375,47.36328125,146.97265625,27.34375,26.3671875,20.5078125
1771279777.2668438,27.34375,174.8046875,27.34375,28.3203125,64.453125
1771279777.27075,43.45703125,149.4140625,24.4140625,42.48046875,20.5078125
1771279777.2746563,37.59765625,119.62890625,26.3671875,31.73828125,-12.20703125
1771279777.2785625,39.55078125,161.1328125,28.80859375,22.94921875,25.87890625
1771279777.2824688,46.38671875,205.078125,31.25,39.55078125,52.734375
1771279777.286375,35.15625,177.734375,30.2734375,47.8515625,84.47265625
1771279777.2902813,46.38671875,133.7890625,23.92578125,35.64453125,28.80859375
1771279777.2941875,38.57421875,187.5,25.87890625,31.25,-38.0859375
1771279777.2980938,34.1796875,169.921875,29.78515625,31.73828125,-15.625
1771279777.300125,41.50390625,199.21875,30.76171875,35.64453125,79.58984375
1771279777.3040311,34.66796875,258.30078125,23.4375,47.36328125,113.28125
1771279777.3079374,49.31640625,210.9375,15.13671875,45.41015625,63.4765625
1771279777.3118436,45.41015625,125.0,9.765625,28.3203125,-0.9765625
1771279777.31575,37.59765625,132.8125,12.20703125,36.62109375,-22.4609375
1771279777.3196561,46.875,191.89453125,16.11328125,58.59375,3.90625
1771279777.3235624,42.96875,189.453125,20.5078125,41.015625,42.48046875
1771279777.3274686,30.76171875,120.60546875,16.11328125,17.08984375,37.59765625
1771279777.331375,13.18359375,44.921875,12.20703125,19.04296875,7.8125
1771279777.3352811,2.9296875,164.0625,18.06640625,35.15625,49.8046875
1771279777.3391874,21.97265625,306.15234375,23.4375,36.1328125,62.01171875
1771279777.3430936,42.48046875,167.48046875,20.5078125,26.85546875,41.015625
1771279777.345125,29.296875,112.3046875,15.625,26.3671875,47.36328125
1771279777.3490312,32.2265625,220.703125,22.4609375,43.45703125,32.2265625
1771279777.3529375,36.1328125,240.72265625,28.3203125,54.19921875,-3.90625
1771279777.3568437,29.78515625,138.18359375,21.484375,37.59765625,-2.9296875
1771279777.36075,35.15625,89.35546875,20.01953125,27.34375,9.27734375
1771279777.3646562,37.59765625,144.04296875,25.87890625,36.1328125,4.8828125
1771279777.3685625,49.31640625,226.07421875,26.85546875,39.0625,48.828125
1771279777.3724687,43.45703125,160.15625,20.01953125,34.66796875,60.05859375
1771279777.376375,22.4609375,68.84765625,15.13671875,24.4140625,113.28125
1771279777.3802812,55.17578125,179.6875,21.484375,28.80859375,88.8671875
1771279777.3841875,65.4296875,279.78515625,28.3203125,35.64453125,40.0390625
1771279777.3880937,30.76171875,172.8515625,24.4140625,39.55078125,28.3203125
1771279777.390125,21.484375,88.8671875,25.87890625,36.1328125,-8.7890625
1771279777.3940313,24.90234375,175.29296875,25.87890625,29.78515625,31.73828125
1771279777.3979375,20.5078125,214.84375,26.3671875,31.73828125,6.8359375
1771279777.4018438,30.2734375,202.63671875,27.34375,38.0859375,-15.13671875
1771279777.40575,31.73828125,140.13671875,13.671875,27.83203125,-5.37109375
1771279777.4096563,28.80859375,87.40234375,9.765625,15.13671875,-0.48828125
1771279777.4135625,51.26953125,142.08984375,18.06640625,17.08984375,22.94921875
1771279777.4174688,54.19921875,115.72265625,18.5546875,27.34375,-30.2734375
1771279777.421375,21.97265625,115.72265625,23.92578125,28.80859375,-30.76171875
1771279777.4252813,-3.41796875,195.3125,27.34375,36.62109375,43.9453125
1771279777.4291875,20.99609375,183.10546875,23.4375,34.1796875,64.94140625
1771279777.4330938,37.59765625,169.43359375,21.97265625,38.57421875,26.3671875
1771279777.435125,30.2734375,168.45703125,17.08984375,34.1796875,-27.83203125
1771279777.4390314,21.484375,157.2265625,13.18359375,23.4375,21.97265625
1771279777.4429376,37.109375,104.4921875,14.6484375,32.71484375,30.2734375
1771279777.4468439,56.15234375,158.69140625,19.04296875,36.62109375,46.38671875
1771279777.45075,33.203125,226.07421875,20.99609375,29.78515625,68.359375
1771279777.4546564,26.85546875,118.65234375,17.578125,28.3203125,21.97265625
1771279777.4585626,27.34375,61.5234375,20.01953125,20.01953125,67.87109375
1771279777.4624689,41.015625,123.53515625,20.01953125,24.4140625,88.8671875
1771279777.466375,52.734375,251.46484375,19.53125,29.296875,68.359375
1771279777.4702814,21.484375,198.73046875,23.4375,21.97265625,47.36328125
1771279777.4741876,8.30078125,108.88671875,25.87890625,32.2265625,43.9453125
1771279777.4780939,39.55078125,188.4765625,26.85546875,37.59765625,90.33203125
1771279777.486125,59.5703125,261.23046875,21.97265625,38.57421875,110.3515625
1771279777.4900312,15.625,137.6953125,18.5546875,23.92578125,75.68359375
1771279777.4939375,5.37109375,16.11328125,18.5546875,29.78515625,30.2734375
1771279777.4978437,27.83203125,130.37109375,20.99609375,41.015625,9.27734375
1771279777.50175,33.203125,243.65234375,22.94921875,32.2265625,8.30078125
1771279777.5056562,50.78125,172.36328125,20.99609375,31.25,40.52734375
1771279777.5095625,50.29296875,11.71875,10.7421875,32.2265625,24.4140625
1771279777.5134687,33.69140625,69.3359375,11.23046875,27.34375,-8.30078125
1771279777.517375,35.64453125,263.671875,20.5078125,29.296875,2.44140625
1771279777.5212812,24.4140625,222.16796875,19.53125,26.85546875,19.04296875
1771279777.5251875,29.78515625,104.4921875,11.23046875,10.25390625,14.6484375
1771279777.5290937,46.875,121.09375,13.18359375,14.16015625,20.99609375
1771279777.525125,42.96875,197.75390625,15.13671875,36.1328125,-1.46484375
1771279777.5290313,38.0859375,187.01171875,10.25390625,40.0390625,12.6953125
1771279777.5329375,18.06640625,113.76953125,14.16015625,23.92578125,42.96875
1771279777.5368438,16.6015625,95.703125,9.765625,17.08984375,-18.06640625
1771279777.54075,33.69140625,133.7890625,15.13671875,32.2265625,-30.2734375
1771279777.5446563,34.1796875,169.43359375,24.90234375,44.921875,42.96875
1771279777.5485625,49.8046875,77.1484375,20.5078125,34.1796875,100.5859375
1771279777.5524688,56.15234375,96.6796875,16.11328125,20.99609375,47.8515625
1771279777.556375,40.0390625,202.63671875,20.01953125,19.04296875,-3.41796875
1771279777.5602813,37.109375,206.54296875,23.4375,36.1328125,11.23046875
1771279777.5641875,37.109375,195.80078125,21.97265625,46.38671875,20.5078125
1771279777.5680938,27.34375,154.296875,20.01953125,28.80859375,33.69140625
1771279777.585125,10.7421875,125.0,20.99609375,19.53125,-11.71875
1771279777.5890312,16.11328125,168.9453125,26.3671875,28.3203125,-23.4375
1771279777.5929375,26.3671875,199.70703125,25.390625,35.64453125,6.34765625
1771279777.5968437,32.2265625,148.4375,24.90234375,36.1328125,4.8828125
1771279777.60075,47.36328125,123.53515625,18.06640625,35.64453125,13.18359375
1771279777.6046562,42.96875,101.07421875,11.71875,25.390625,44.921875
1771279777.6085625,40.52734375,136.71875,17.08984375,35.64453125,46.38671875
1771279777.6124687,40.0390625,205.56640625,18.5546875,30.2734375,59.5703125
1771279777.616375,32.2265625,121.09375,12.20703125,22.4609375,25.390625
1771279777.6202812,47.36328125,98.6328125,13.671875,39.0625,6.8359375
1771279777.6241875,54.19921875,211.42578125,23.92578125,46.38671875,30.2734375
1771279777.6280937,45.8984375,203.125,23.92578125,30.76171875,-15.13671875
1771279777.630125,57.6171875,85.44921875,20.01953125,31.73828125,-26.3671875
1771279777.6340313,63.4765625,88.37890625,25.87890625,59.5703125,-42.96875
1771279777.6379375,65.91796875,211.42578125,26.85546875,58.10546875,-15.625
1771279777.6418438,46.875,217.7734375,20.5078125,35.15625,41.015625
1771279777.64575,23.92578125,92.28515625,26.85546875,26.85546875,39.55078125
1771279777.6496563,37.109375,49.8046875,26.3671875,43.9453125,10.7421875
1771279777.6535625,45.41015625,172.8515625,26.3671875,57.12890625,20.01953125
1771279777.6574688,42.48046875,239.2578125,28.3203125,55.6640625,9.27734375
1771279777.661375,37.59765625,90.8203125,21.484375,42.48046875,34.1796875
1771279777.6652813,44.921875,-54.6875,10.7421875,23.92578125,-12.20703125
1771279777.6691875,42.48046875,167.48046875,16.6015625,27.83203125,-2.9296875
1771279777.6730938,40.0390625,275.390625,23.4375,43.9453125,58.59375
1771279777.675125,41.015625,138.671875,18.06640625,31.25,19.04296875
1771279777.6790311,34.1796875,102.5390625,15.13671875,35.15625,15.625
1771279777.6829374,40.52734375,178.22265625,20.99609375,41.9921875,47.8515625
1771279777.6868436,49.8046875,222.16796875,19.53125,24.90234375,43.45703125
1771279777.69075,47.8515625,149.4140625,13.18359375,31.25,-9.27734375
1771279777.6946561,38.57421875,75.68359375,13.671875,29.78515625,47.36328125
1771279777.6985624,41.015625,107.91015625,17.578125,20.99609375,78.125
1771279777.7024686,48.828125,208.49609375,18.06640625,32.71484375,29.296875
1771279777.706375,35.15625,104.00390625,14.16015625,31.73828125,22.4609375
1771279777.7102811,25.390625,68.84765625,20.99609375,17.578125,51.26953125
1771279777.7141874,31.73828125,168.45703125,19.53125,21.97265625,25.390625
1771279777.7180936,43.45703125,138.18359375,15.625,50.29296875,-49.31640625
1771279777.719125,51.26953125,181.640625,19.53125,38.0859375,30.76171875
1771279777.7230313,41.015625,165.52734375,19.53125,14.6484375,27.34375
1771279777.7269375,17.08984375,116.2109375,18.06640625,25.390625,-22.94921875
1771279777.7308438,15.625,150.390625,18.5546875,27.83203125,52.24609375
1771279777.73475,20.99609375,168.9453125,19.53125,38.0859375,26.3671875
1771279777.7386563,19.04296875,109.86328125,15.625,37.59765625,-2.44140625
1771279777.7425625,32.71484375,87.40234375,14.16015625,30.76171875,-19.53125
1771279777.7464688,25.390625,112.79296875,20.99609375,35.15625,16.6015625
1771279777.750375,25.390625,127.9296875,20.5078125,41.015625,67.3828125
1771279777.7542813,34.66796875,205.56640625,22.4609375,35.15625,51.26953125
1771279777.7581875,13.671875,134.27734375,18.06640625,29.296875,30.76171875
1771279777.7620938,24.4140625,81.0546875,20.99609375,35.64453125,-11.71875
1771279777.765125,34.66796875,185.05859375,28.3203125,36.62109375,19.53125
1771279777.7690313,19.04296875,188.4765625,22.4609375,34.66796875,61.03515625
1771279777.7729375,25.390625,108.88671875,16.11328125,30.76171875,42.96875
1771279777.7768438,39.55078125,88.37890625,15.625,25.390625,57.6171875
1771279777.78075,37.109375,157.71484375,16.6015625,17.08984375,57.12890625
1771279777.7846563,38.0859375,187.5,16.6015625,30.2734375,61.5234375
1771279777.7885625,30.76171875,131.34765625,14.6484375,46.38671875,41.9921875
1771279777.7924688,33.203125,20.01953125,16.11328125,26.85546875,11.71875
1771279777.796375,22.94921875,102.05078125,25.87890625,24.90234375,56.640625
1771279777.8002813,24.4140625,274.90234375,29.296875,42.48046875,79.58984375
1771279777.8041875,32.71484375,166.50390625,24.90234375,30.2734375,80.078125
1771279777.8080938,21.97265625,74.21875,25.390625,22.94921875,82.51953125
1771279777.810125,34.1796875,145.99609375,24.90234375,40.0390625,89.35546875
1771279777.8140314,51.7578125,211.9140625,28.3203125,34.1796875,70.3125
1771279777.8179376,35.64453125,154.78515625,26.85546875,23.4375,93.26171875
1771279777.8218439,9.765625,48.828125,13.18359375,20.5078125,34.66796875
1771279777.82575,16.6015625,68.359375,17.08984375,19.53125,8.7890625
1771279777.8296564,31.73828125,166.015625,32.71484375,34.1796875,76.171875
1771279777.8335626,42.48046875,148.4375,25.390625,23.92578125,47.36328125
1771279777.8374689,44.921875,11.23046875,16.11328125,13.671875,-1.46484375
1771279777.841375,27.34375,101.07421875,21.484375,22.94921875,2.9296875
1771279777.8452814,36.62109375,240.234375,24.90234375,38.57421875,9.765625
1771279777.8491876,33.203125,200.68359375,24.90234375,40.0390625,10.25390625
1771279777.8530939,17.578125,137.6953125,20.99609375,30.76171875,-21.484375
1771279777.855125,27.83203125,125.9765625,18.06640625,21.484375,-20.01953125
1771279777.8590312,30.2734375,177.734375,25.87890625,28.80859375,28.80859375
1771279777.8629375,22.94921875,203.125,25.390625,30.76171875,42.96875
1771279777.8668437,20.01953125,168.45703125,16.6015625,30.76171875,42.48046875
1771279777.87075,28.3203125,106.4453125,18.5546875,35.15625,40.52734375
1771279777.8746562,46.38671875,87.40234375,20.99609375,28.3203125,10.25390625
1771279777.8785625,67.3828125,100.5859375,17.578125,26.3671875,15.13671875
1771279777.8824687,44.43359375,149.90234375,17.578125,28.80859375,37.59765625
1771279777.886375,19.04296875,200.68359375,20.5078125,24.90234375,54.6875
1771279777.8902812,29.78515625,133.30078125,18.06640625,22.4609375,9.765625
1771279777.8941875,37.109375,159.1796875,17.578125,21.97265625,-20.01953125
1771279777.8980937,30.2734375,222.16796875,16.6015625,28.3203125,27.34375
1771279777.900125,47.36328125,162.59765625,13.18359375,29.296875,9.765625
1771279777.9040313,44.921875,87.40234375,12.6953125,14.6484375,2.9296875
1771279777.9079375,37.59765625,140.625,17.08984375,15.625,44.921875
1771279777.9118438,40.52734375,212.40234375,20.5078125,27.34375,3.90625
1771279777.91575,44.43359375,167.48046875,17.578125,37.109375,-8.30078125
1771279777.9196563,40.0390625,49.8046875,17.08984375,29.296875,41.50390625
1771279777.9235625,31.25,45.41015625,17.578125,26.3671875,14.6484375
1771279777.9274688,33.69140625,235.83984375,28.80859375,33.69140625,16.6015625
1771279777.931375,32.71484375,231.93359375,31.73828125,39.55078125,92.28515625
1771279777.9352813,30.76171875,54.19921875,20.99609375,30.76171875,79.58984375
1771279777.9391875,16.6015625,81.54296875,24.4140625,31.25,25.390625
1771279777.9430938,34.66796875,235.83984375,27.34375,36.62109375,52.734375
1771279777.959125,56.640625,209.9609375,30.76171875,38.0859375,82.51953125
1771279777.9630313,36.1328125,100.5859375,34.1796875,34.66796875,42.96875
1771279777.9669375,25.87890625,100.09765625,29.296875,36.62109375,11.71875
1771279777.9708438,28.3203125,187.98828125,26.85546875,40.52734375,55.17578125
1771279777.97475,39.55078125,202.1484375,24.4140625,31.25,47.36328125
1771279777.9786563,45.8984375,49.31640625,17.578125,27.34375,45.41015625
1771279777.9825625,29.296875,50.29296875,17.08984375,26.85546875,67.87109375
1771279777.9864688,27.83203125,222.65625,23.4375,32.71484375,69.3359375
1771279777.990375,38.0859375,219.7265625,28.3203125,28.80859375,88.8671875
1771279777.9942813,31.73828125,130.37109375,22.4609375,26.3671875,23.92578125
1771279777.9981875,39.0625,92.28515625,16.6015625,24.4140625,31.73828125
1771279778.0020938,42.48046875,141.11328125,23.92578125,30.76171875,67.3828125
1771279778.004125,48.828125,183.59375,25.87890625,39.0625,7.8125
1771279778.0080314,55.6640625,144.53125,21.484375,31.73828125,29.296875
1771279778.0119376,23.4375,136.23046875,17.578125,22.4609375,43.45703125
1771279778.0158439,0.0,146.97265625,18.5546875,21.97265625,20.5078125
1771279778.01975,11.71875,159.66796875,21.484375,37.109375,47.36328125
1771279778.0236564,35.64453125,129.8828125,22.4609375,41.015625,53.7109375
1771279778.0275626,30.2734375,104.4921875,24.4140625,25.87890625,69.82421875
1771279778.0314689,29.296875,145.5078125,22.94921875,25.87890625,76.66015625
1771279778.035375,39.55078125,138.671875,19.04296875,23.92578125,61.03515625
1771279778.0392814,37.109375,111.81640625,21.97265625,26.85546875,29.296875
1771279778.0431876,33.203125,185.546875,26.85546875,26.85546875,50.78125
1771279778.0470939,20.5078125,141.11328125,26.3671875,40.52734375,50.29296875
1771279778.050125,20.01953125,121.58203125,28.3203125,51.7578125,33.69140625
1771279778.0540311,41.015625,175.29296875,29.296875,34.66796875,69.3359375
1771279778.0579374,53.22265625,166.9921875,31.73828125,39.55078125,28.3203125
1771279778.0618436,31.73828125,127.44140625,27.83203125,33.203125,37.59765625
1771279778.06575,31.73828125,101.5625,26.85546875,32.71484375,86.9140625
1771279778.0696561,52.734375,139.6484375,29.296875,45.41015625,36.62109375
1771279778.0735624,50.29296875,167.48046875,27.34375,37.59765625,-8.30078125
1771279778.0774686,53.22265625,130.37109375,24.90234375,25.87890625,-22.4609375
1771279778.081375,49.31640625,38.57421875,22.4609375,28.80859375,-51.7578125
1771279778.0852811,34.1796875,143.06640625,27.83203125,40.0390625,9.27734375
1771279778.0891874,32.2265625,246.58203125,29.296875,39.55078125,-4.39453125
1771279778.0930936,34.66796875,112.3046875,20.99609375,25.87890625,-32.71484375
1771279778.094125,26.3671875,98.6328125,18.06640625,18.5546875,40.52734375
1771279778.0980313,17.578125,180.17578125,18.5546875,26.85546875,11.71875
1771279778.1019375,62.98828125,212.40234375,21.97265625,28.80859375,-15.13671875
1771279778.1058438,40.52734375,99.12109375,20.99609375,24.4140625,9.765625
1771279778.10975,2.44140625,31.73828125,20.99609375,20.01953125,23.92578125
1771279778.1136563,32.71484375,129.8828125,23.92578125,23.4375,54.19921875
1771279778.1175625,42.96875,190.4296875,25.87890625,36.1328125,4.8828125
1771279778.1214688,34.66796875,123.046875,22.94921875,29.78515625,-35.15625
1771279778.125375,25.390625,40.52734375,13.671875,23.92578125,12.20703125
1771279778.1292813,15.625,162.109375,24.90234375,26.85546875,16.6015625
1771279778.1331875,30.2734375,233.88671875,28.3203125,34.66796875,0.9765625
1771279778.1370938,36.62109375,169.921875,21.484375,35.15625,-3.90625
1771279778.140125,27.83203125,117.67578125,22.94921875,34.66796875,34.1796875
1771279778.1440313,20.99609375,125.0,23.4375,35.64453125,23.92578125
1771279778.1479375,25.390625,169.921875,24.90234375,49.31640625,-35.64453125
1771279778.1518438,49.31640625,198.73046875,27.34375,40.0390625,34.1796875
1771279778.15575,42.96875,136.23046875,21.484375,28.3203125,87.890625
1771279778.1596563,13.18359375,54.6875,16.11328125,30.2734375,23.4375
1771279778.1635625,33.69140625,128.90625,22.4609375,35.64453125,31.73828125
1771279778.1674688,62.5,136.23046875,22.94921875,43.45703125,67.87109375
1771279778.171375,47.8515625,104.4921875,20.01953125,32.2265625,48.828125
1771279778.1752813,48.33984375,180.17578125,25.87890625,34.1796875,57.6171875
1771279778.1791875,54.6875,161.62109375,27.83203125,41.015625,57.6171875
1771279778.1830938,46.38671875,178.7109375,22.94921875,40.0390625,62.01171875
1771279778.184125,41.9921875,179.6875,20.99609375,29.296875,19.04296875
1771279778.1880312,34.66796875,135.7421875,21.97265625,33.203125,46.875
1771279778.1919374,33.203125,107.421875,23.92578125,41.9921875,96.6796875
1771279778.1958437,38.0859375,158.203125,28.80859375,43.45703125,104.98046875
1771279778.19975,49.8046875,178.22265625,29.78515625,47.36328125,82.03125
1771279778.2036562,65.91796875,72.265625,23.92578125,49.8046875,16.11328125
1771279778.2075624,52.734375,31.25,20.99609375,54.6875,3.90625
1771279778.2114687,29.78515625,100.09765625,20.01953125,50.78125,15.625
1771279778.215375,33.203125,207.51953125,29.296875,47.36328125,20.5078125
1771279778.2192812,37.109375,179.19921875,31.25,48.828125,11.71875
1771279778.2231874,24.4140625,79.1015625,20.99609375,34.1796875,5.37109375
1771279778.2270937,19.53125,127.44140625,19.53125,42.96875,35.64453125
1771279778.229125,33.203125,230.95703125,24.90234375,47.8515625,46.875
1771279778.2330313,45.41015625,166.50390625,25.87890625,42.48046875,11.23046875
1771279778.2369375,33.69140625,95.21484375,23.92578125,40.0390625,12.20703125
1771279778.2408438,26.3671875,137.20703125,25.390625,35.64453125,28.3203125
1771279778.24475,40.52734375,195.80078125,25.390625,34.1796875,21.97265625
1771279778.2486563,49.8046875,138.671875,20.99609375,29.78515625,28.3203125
1771279778.2525625,30.76171875,16.11328125,18.06640625,22.4609375,33.203125
1771279778.2564688,13.18359375,67.87109375,22.94921875,41.9921875,5.37109375
1771279778.260375,42.48046875,239.74609375,30.2734375,47.8515625,-15.625
1771279778.2642813,47.36328125,221.6796875,27.34375,35.64453125,38.0859375
1771279778.2681875,39.0625,105.46875,14.6484375,31.73828125,92.28515625
1771279778.2720938,40.52734375,94.23828125,15.625,29.296875,72.75390625
1771279778.275125,39.0625,192.87109375,25.87890625,30.2734375,34.1796875
1771279778.2790313,64.453125,177.24609375,21.484375,35.64453125,17.578125
1771279778.2829375,41.015625,90.33203125,21.484375,39.55078125,19.53125
1771279778.2868438,8.30078125,116.69921875,27.34375,23.4375,23.92578125
1771279778.29075,20.01953125,175.29296875,25.390625,28.3203125,42.48046875
1771279778.2946563,33.69140625,130.859375,21.484375,40.0390625,17.08984375
1771279778.2985625,36.1328125,64.453125,21.484375,35.15625,6.8359375
1771279778.3024688,36.62109375,124.51171875,23.4375,28.80859375,4.39453125
1771279778.306375,45.41015625,170.8984375,31.25,30.76171875,9.765625
1771279778.3102813,42.96875,175.29296875,31.25,34.1796875,34.66796875
1771279778.3141875,27.34375,173.33984375,28.80859375,30.76171875,53.7109375
1771279778.3180938,21.97265625,131.34765625,31.73828125,25.390625,48.33984375
1771279778.320125,14.16015625,112.79296875,24.4140625,27.83203125,29.78515625
1771279778.3240314,24.4140625,106.93359375,24.4140625,40.52734375,2.9296875
1771279778.3279376,41.50390625,150.390625,31.25,40.52734375,-7.8125
1771279778.3318439,46.875,162.59765625,28.3203125,41.015625,11.71875
1771279778.33575,42.96875,123.53515625,25.390625,35.64453125,37.59765625
1771279778.3396564,60.05859375,102.5390625,24.90234375,26.85546875,76.171875
1771279778.3435626,50.78125,156.25,26.3671875,34.1796875,73.2421875
1771279778.3474689,26.85546875,175.78125,27.34375,38.0859375,8.30078125
1771279778.351375,22.94921875,102.5390625,22.94921875,24.90234375,0.9765625
1771279778.3552814,19.53125,106.93359375,17.578125,16.11328125,26.3671875
1771279778.3591876,25.87890625,182.6171875,19.04296875,26.85546875,2.44140625
1771279778.3630939,19.53125,188.4765625,20.5078125,22.94921875,35.15625
1771279778.379125,25.87890625,92.7734375,25.390625,27.34375,45.41015625
1771279778.3830314,41.9921875,98.14453125,31.73828125,37.59765625,39.0625
1771279778.3869376,48.33984375,194.3359375,27.34375,30.76171875,45.8984375
1771279778.3908439,62.5,179.19921875,23.4375,32.71484375,62.98828125
1771279778.39475,57.6171875,65.91796875,15.13671875,37.59765625,36.62109375
1771279778.3986564,21.97265625,16.6015625,13.671875,34.1796875,-8.30078125
1771279778.4025626,21.484375,180.17578125,24.4140625,27.34375,49.31640625
1771279778.4064689,30.2734375,250.48828125,26.85546875,34.66796875,91.30859375
1771279778.410375,39.55078125,78.61328125,18.06640625,43.9453125,26.85546875
1771279778.4142814,47.8515625,39.0625,18.06640625,40.0390625,12.6953125
1771279778.4181876,29.78515625,198.73046875,25.390625,34.1796875,63.4765625
1771279778.4220939,20.01953125,211.9140625,22.4609375,30.76171875,53.7109375
1771279778.425125,45.8984375,122.0703125,20.01953125,21.97265625,6.8359375
1771279778.4290311,44.921875,102.05078125,26.3671875,26.85546875,38.57421875
1771279778.4329374,29.296875,146.97265625,32.2265625,33.69140625,53.22265625
1771279778.4368436,43.45703125,175.29296875,22.94921875,41.50390625,10.25390625
1771279778.44075,36.1328125,137.6953125,16.11328125,40.0390625,-2.44140625
1771279778.4446561,41.9921875,73.2421875,20.5078125,26.85546875,22.94921875
1771279778.4485624,46.875,95.21484375,23.4375,39.0625,44.43359375
1771279778.4524686,33.69140625,161.62109375,31.25,53.22265625,40.52734375
1771279778.456375,38.0859375,107.421875,30.76171875,43.45703125,54.6875
1771279778.4602811,61.03515625,75.68359375,21.484375,27.34375,68.359375
1771279778.4641874,56.15234375,171.38671875,24.4140625,26.85546875,39.0625
1771279778.4680936,23.92578125,174.8046875,24.4140625,40.52734375,-5.37109375
1771279778.470125,23.4375,171.38671875,22.94921875,37.109375,11.71875
1771279778.4740312,29.296875,154.78515625,31.73828125,32.2265625,31.73828125
1771279778.4779375,32.71484375,127.9296875,27.34375,39.55078125,72.75390625
1771279778.4818437,44.921875,130.37109375,22.94921875,37.59765625,110.3515625
1771279778.48575,51.26953125,134.765625,20.01953125,50.29296875,19.04296875
1771279778.4896562,42.48046875,118.65234375,15.13671875,45.41015625,-7.32421875
1771279778.4935625,35.64453125,103.02734375,21.97265625,30.76171875,54.6875
1771279778.4974687,39.0625,114.2578125,24.90234375,40.52734375,75.1953125
1771279778.501375,37.59765625,71.2890625,20.5078125,41.015625,17.578125
1771279778.5052812,42.48046875,156.73828125,26.3671875,36.62109375,-15.625
1771279778.5091875,39.55078125,169.43359375,28.3203125,41.9921875,-27.34375
1771279778.5130937,35.15625,109.375,30.76171875,41.015625,-35.64453125
1771279778.515125,36.62109375,178.22265625,31.73828125,40.52734375,21.484375
1771279778.5190313,36.1328125,213.8671875,29.296875,41.015625,69.3359375
1771279778.5229375,44.921875,143.06640625,24.4140625,37.109375,55.6640625
1771279778.5268438,52.24609375,97.65625,19.04296875,42.96875,9.27734375
1771279778.53075,68.359375,158.69140625,21.97265625,51.26953125,17.08984375
1771279778.5346563,64.453125,163.57421875,20.5078125,48.33984375,7.8125
1771279778.5385625,51.26953125,104.98046875,17.578125,47.8515625,-26.3671875
1771279778.5424688,42.96875,28.80859375,15.625,46.38671875,14.16015625
1771279778.546375,35.64453125,112.3046875,22.94921875,39.55078125,47.36328125
1771279778.5502813,38.0859375,262.20703125,31.25,38.0859375,49.31640625
1771279778.5541875,29.296875,153.80859375,29.296875,45.8984375,53.7109375
1771279778.5580938,41.50390625,70.3125,25.87890625,34.66796875,64.94140625
1771279778.560125,43.45703125,163.0859375,24.4140625,24.90234375,86.9140625
1771279778.5640314,46.875,228.515625,26.3671875,44.43359375,110.83984375
1771279778.5679376,50.29296875,146.97265625,24.4140625,43.45703125,64.94140625
1771279778.5718439,29.296875,79.58984375,19.04296875,35.64453125,46.875
1771279778.57575,20.5078125,100.09765625,20.01953125,32.2265625,-5.859375
1771279778.5796564,25.87890625,137.20703125,20.99609375,33.203125,-10.7421875
1771279778.5835626,32.71484375,121.09375,20.99609375,41.50390625,40.0390625
1771279778.5874689,41.50390625,57.12890625,20.99609375,30.76171875,38.0859375
1771279778.591375,51.26953125,125.9765625,24.4140625,24.4140625,22.94921875
1771279778.5952814,51.7578125,198.2421875,23.92578125,26.3671875,36.62109375
1771279778.5991876,24.90234375,166.9921875,24.90234375,28.3203125,48.828125
1771279778.6030939,0.48828125,114.2578125,27.83203125,28.3203125,-15.625
1771279778.606125,2.44140625,84.47265625,27.34375,24.4140625,-20.5078125
1771279778.6100314,19.53125,129.39453125,28.3203125,28.3203125,64.453125
1771279778.6139376,31.73828125,139.16015625,27.34375,33.203125,27.83203125
1771279778.6178439,19.04296875,129.8828125,28.3203125,38.57421875,18.06640625
1771279778.62175,10.25390625,126.953125,32.2265625,33.203125,54.19921875
1771279778.6256564,24.4140625,91.30859375,27.83203125,21.484375,29.296875
1771279778.6295626,47.8515625,73.2421875,29.78515625,32.2265625,-5.859375
1771279778.6334689,24.4140625,106.93359375,35.15625,32.2265625,-50.29296875
1771279778.637375,10.7421875,171.38671875,30.76171875,40.0390625,-1.953125
1771279778.6412814,29.296875,122.55859375,30.76171875,41.50390625,48.828125
1771279778.6451876,30.2734375,142.578125,24.90234375,28.80859375,56.640625
1771279778.6490939,32.2265625,184.08203125,26.3671875,36.1328125,29.78515625
1771279778.650125,43.9453125,148.92578125,30.2734375,30.76171875,41.015625
1771279778.6540313,48.33984375,89.84375,25.390625,29.78515625,66.89453125
1771279778.6579375,36.1328125,103.02734375,27.83203125,41.9921875,48.33984375
1771279778.6618438,21.484375,157.2265625,27.34375,37.59765625,40.52734375
1771279778.66575,10.7421875,133.7890625,27.83203125,43.9453125,20.01953125
1771279778.6696563,24.90234375,53.7109375,25.87890625,48.33984375,27.83203125
1771279778.6735625,30.2734375,-1.46484375,17.578125,30.76171875,-1.46484375
1771279778.6774688,37.109375,156.73828125,23.4375,28.80859375,15.625
1771279778.681375,39.0625,219.23828125,28.80859375,36.62109375,37.59765625
1771279778.6852813,31.25,87.890625,22.94921875,37.59765625,17.578125
1771279778.6891875,33.69140625,106.93359375,20.99609375,35.64453125,41.015625
1771279778.6930938,35.64453125,184.5703125,23.92578125,32.71484375,45.41015625
1771279778.710125,42.96875,165.52734375,25.87890625,49.31640625,38.0859375
1771279778.7140312,31.73828125,87.40234375,27.83203125,51.26953125,20.01953125
1771279778.7179375,12.20703125,95.703125,28.80859375,41.9921875,28.80859375
1771279778.7218437,22.94921875,167.48046875,30.2734375,44.43359375,56.15234375
1771279778.72575,38.0859375,166.50390625,28.3203125,37.59765625,41.50390625
1771279778.7296562,35.15625,66.89453125,22.94921875,36.1328125,-47.36328125
1771279778.7335625,29.296875,53.22265625,23.4375,33.69140625,-41.015625
1771279778.7374687,41.015625,144.53125,28.3203125,31.73828125,38.57421875
1771279778.741375,48.33984375,212.890625,27.83203125,24.4140625,33.69140625
1771279778.7452812,48.33984375,78.125,20.01953125,15.13671875,18.06640625
1771279778.7491875,46.38671875,48.33984375,20.99609375,22.4609375,20.99609375
1771279778.7530937,41.9921875,202.63671875,33.203125,28.80859375,11.23046875
1771279778.755125,42.48046875,188.96484375,36.62109375,42.48046875,30.76171875
1771279778.7590313,40.0390625,127.9296875,34.1796875,43.9453125,21.97265625
1771279778.7629375,41.9921875,112.3046875,31.25,30.2734375,12.20703125
1771279778.7668438,32.2265625,130.37109375,29.296875,35.15625,40.0390625
1771279778.77075,25.390625,143.5546875,25.390625,31.73828125,70.3125
1771279778.7746563,36.62109375,107.91015625,20.99609375,26.85546875,83.49609375
1771279778.7785625,26.3671875,93.26171875,22.94921875,23.92578125,27.83203125
1771279778.7824688,24.4140625,121.58203125,25.87890625,28.3203125,40.0390625
1771279778.786375,45.41015625,102.5390625,23.4375,36.62109375,42.48046875
1771279778.7902813,48.33984375,68.84765625,22.94921875,29.296875,12.6953125
1771279778.7941875,43.45703125,143.06640625,26.3671875,30.2734375,6.34765625
1771279778.7980938,34.66796875,169.43359375,26.85546875,32.2265625,26.3671875
1771279778.800125,36.1328125,140.13671875,31.25,38.57421875,36.62109375
1771279778.8040311,40.52734375,169.921875,30.2734375,32.71484375,4.39453125
1771279778.8079374,33.203125,163.0859375,23.4375,22.94921875,25.87890625
1771279778.8118436,41.50390625,104.00390625,21.484375,34.1796875,13.18359375
1771279778.81575,50.29296875,113.28125,23.92578125,43.45703125,35.15625
1771279778.8196561,59.5703125,137.20703125,22.94921875,49.8046875,17.08984375
1771279778.8235624,59.08203125,139.6484375,23.4375,46.38671875,-0.48828125
1771279778.8274686,45.8984375,129.39453125,19.53125,36.62109375,25.87890625
1771279778.831375,47.36328125,40.0390625,12.20703125,33.69140625,24.4140625
1771279778.8352811,49.8046875,104.98046875,19.04296875,42.48046875,15.13671875
1771279778.8391874,41.9921875,220.21484375,27.34375,45.8984375,2.44140625
1771279778.8430936,39.55078125,143.5546875,25.390625,35.64453125,32.2265625
1771279778.845125,44.921875,90.33203125,24.90234375,33.203125,45.8984375
1771279778.8490312,44.921875,160.15625,23.4375,43.9453125,20.01953125
1771279778.8529375,38.0859375,202.63671875,28.3203125,47.36328125,22.94921875
1771279778.8568437,48.33984375,128.90625,26.85546875,33.69140625,83.49609375
1771279778.86075,36.62109375,57.6171875,17.08984375,24.4140625,49.31640625
1771279778.8646562,28.3203125,99.12109375,19.53125,33.69140625,30.2734375
1771279778.8685625,53.7109375,188.96484375,26.3671875,36.1328125,54.6875
1771279778.8724687,47.36328125,128.41796875,24.90234375,36.62109375,63.96484375
1771279778.876375,34.1796875,20.01953125,22.4609375,40.52734375,42.96875
1771279778.8802812,41.015625,140.13671875,27.34375,40.52734375,7.8125
1771279778.8841875,40.0390625,204.1015625,25.390625,51.7578125,12.6953125
1771279778.8880937,38.0859375,148.4375,20.99609375,31.25,20.5078125
1771279778.890125,57.12890625,74.70703125,19.04296875,21.484375,18.06640625
1771279778.8940313,50.78125,92.28515625,20.01953125,28.3203125,7.32421875
1771279778.8979375,41.9921875,180.6640625,27.34375,39.0625,18.5546875
1771279778.9018438,41.50390625,150.87890625,25.87890625,38.0859375,38.0859375
1771279778.90575,23.92578125,108.88671875,23.4375,22.4609375,68.359375
1771279778.9096563,27.34375,78.125,22.94921875,38.0859375,30.2734375
1771279778.9135625,34.66796875,116.69921875,20.01953125,39.55078125,5.37109375
1771279778.9174688,30.2734375,110.3515625,20.99609375,28.80859375,40.52734375
1771279778.921375,22.4609375,101.07421875,21.97265625,30.2734375,46.875
1771279778.9252813,20.01953125,158.69140625,23.4375,26.85546875,69.82421875
1771279778.9291875,36.62109375,134.765625,22.94921875,28.3203125,39.0625
1771279778.9330938,26.3671875,152.83203125,21.97265625,26.85546875,49.31640625
1771279778.934125,20.5078125,169.921875,23.4375,20.5078125,110.3515625
1771279778.9380312,34.1796875,127.44140625,22.94921875,24.90234375,79.58984375
1771279778.9419374,20.01953125,86.9140625,20.99609375,25.87890625,68.359375
1771279778.9458437,28.3203125,127.44140625,25.390625,36.1328125,69.82421875
1771279778.94975,51.26953125,168.45703125,28.80859375,37.109375,39.0625
1771279778.9536562,44.921875,104.00390625,24.4140625,34.1796875,50.29296875
1771279778.9575624,36.62109375,51.26953125,19.04296875,38.0859375,72.75390625
1771279778.9614687,42.48046875,30.2734375,16.6015625,33.203125,14.6484375
1771279778.965375,49.8046875,154.78515625,21.97265625,34.66796875,-23.4375
1771279778.9692812,40.0390625,203.61328125,26.3671875,35.15625,39.55078125
1771279778.9731874,18.06640625,99.609375,18.06640625,16.6015625,67.3828125
1771279778.9770937,11.23046875,120.60546875,16.11328125,36.1328125,34.1796875
1771279778.979125,20.5078125,183.10546875,24.4140625,45.41015625,20.5078125
1771279778.9830313,16.6015625,145.01953125,21.97265625,15.13671875,47.36328125
1771279778.9869375,21.97265625,69.3359375,15.625,21.484375,46.38671875
1771279778.9908438,56.15234375,101.07421875,20.99609375,37.59765625,-25.87890625
1771279778.99475,55.6640625,169.921875,26.85546875,37.59765625,-12.6953125
1771279778.9986563,19.53125,133.30078125,23.4375,37.109375,48.828125
1771279779.0025625,17.08984375,15.625,15.625,27.83203125,76.171875
1771279779.0064688,28.3203125,33.203125,15.625,18.06640625,26.3671875
1771279779.010375,37.109375,212.40234375,21.97265625,30.76171875,12.6953125
1771279779.0142813,45.8984375,191.40625,17.08984375,43.9453125,27.34375
1771279779.0181875,48.828125,95.703125,15.13671875,39.55078125,7.32421875
1771279779.0220938,38.57421875,104.4921875,16.11328125,31.73828125,10.7421875
1771279779.025125,18.06640625,155.76171875,12.6953125,40.0390625,35.15625
1771279779.0290313,21.484375,145.01953125,11.71875,33.203125,21.97265625
1771279779.0329375,34.1796875,86.42578125,13.671875,18.06640625,37.59765625
1771279779.0368438,24.90234375,86.9140625,17.578125,22.94921875,66.40625
1771279779.04075,26.85546875,140.13671875,21.484375,32.2265625,101.07421875
1771279779.0446563,50.29296875,106.93359375,16.11328125,43.45703125,92.7734375
1771279779.0485625,45.41015625,48.828125,11.23046875,38.57421875,66.40625
1771279779.0524688,32.2265625,84.9609375,22.94921875,39.55078125,40.52734375
1771279779.056375,29.296875,126.46484375,24.90234375,41.015625,33.203125
1771279779.0602813,30.76171875,118.65234375,21.484375,35.15625,30.76171875
1771279779.0641875,33.69140625,109.86328125,20.01953125,32.71484375,67.3828125
1771279779.0680938,32.2265625,116.69921875,20.5078125,35.64453125,73.73046875
1771279779.084125,36.62109375,99.12109375,20.5078125,25.87890625,27.83203125
1771279779.0880313,52.734375,135.7421875,18.5546875,44.921875,31.73828125
1771279779.0919375,32.71484375,143.5546875,21.484375,61.5234375,-26.3671875
1771279779.0958438,16.11328125,119.62890625,20.5078125,23.4375,-23.4375
1771279779.09975,30.2734375,94.7265625,21.97265625,20.5078125,5.37109375
1771279779.1036563,35.64453125,98.14453125,27.34375,29.78515625,22.4609375
1771279779.1075625,46.38671875,126.46484375,24.90234375,22.4609375,29.296875
1771279779.1114688,45.41015625,137.6953125,24.4140625,29.78515625,24.4140625
1771279779.115375,36.1328125,100.5859375,22.94921875,33.203125,17.08984375
1771279779.1192813,31.25,41.50390625,21.97265625,26.3671875,0.48828125
1771279779.1231875,21.97265625,118.1640625,22.4609375,34.1796875,19.04296875
1771279779.1270938,22.94921875,187.98828125,21.484375,32.71484375,44.921875
1771279779.129125,27.34375,79.1015625,16.6015625,23.92578125,23.92578125
1771279779.1330314,38.57421875,62.01171875,15.625,34.66796875,7.8125
1771279779.1369376,48.828125,173.33984375,29.296875,35.15625,31.25
1771279779.1408439,41.50390625,169.43359375,26.3671875,27.34375,-1.46484375
1771279779.14475,38.0859375,82.03125,17.08984375,35.15625,20.5078125
1771279779.1486564,35.15625,52.734375,19.53125,45.41015625,95.703125
1771279779.1525626,55.17578125,113.28125,20.5078125,37.109375,71.2890625
1771279779.1564689,61.03515625,169.43359375,19.53125,34.1796875,-4.39453125
1771279779.160375,27.83203125,70.80078125,16.11328125,43.45703125,-24.90234375
1771279779.1642814,31.73828125,1.953125,12.6953125,37.109375,-14.6484375
1771279779.1681876,55.17578125,147.4609375,22.94921875,41.015625,-36.1328125
1771279779.1720939,41.9921875,211.9140625,28.3203125,41.50390625,33.69140625
1771279779.175125,40.52734375,118.65234375,25.390625,28.80859375,81.0546875
1771279779.1790311,44.43359375,63.4765625,21.484375,33.203125,20.5078125
1771279779.1829374,43.9453125,124.51171875,23.4375,44.921875,9.765625
1771279779.1868436,36.62109375,166.50390625,31.73828125,53.22265625,-5.859375
1771279779.19075,34.66796875,114.74609375,31.25,46.875,-9.765625
1771279779.1946561,34.1796875,52.734375,22.94921875,46.875,11.23046875
1771279779.1985624,34.1796875,99.12109375,25.390625,39.0625,28.80859375
1771279779.2024686,51.26953125,180.6640625,33.203125,42.96875,21.484375
1771279779.206375,46.875,85.9375,25.390625,41.9921875,-5.859375
1771279779.2102811,38.0859375,43.45703125,22.4609375,25.87890625,3.90625
1771279779.2141874,26.85546875,137.6953125,24.4140625,28.3203125,19.53125
1771279779.2180936,31.73828125,148.4375,24.4140625,36.62109375,74.70703125
1771279779.220125,39.0625,141.6015625,28.80859375,45.8984375,83.49609375
1771279779.2240312,33.69140625,137.20703125,31.25,40.52734375,75.1953125
1771279779.2279375,43.45703125,99.12109375,27.34375,39.0625,117.1875
1771279779.2318437,57.6171875,78.125,22.94921875,39.55078125,94.23828125
1771279779.23575,56.15234375,108.3984375,24.4140625,40.0390625,16.6015625
1771279779.2396562,43.45703125,108.88671875,31.73828125,41.9921875,-1.46484375
1771279779.2435625,31.73828125,99.12109375,27.83203125,37.109375,57.6171875
1771279779.2474687,32.2265625,78.125,16.11328125,36.1328125,40.0390625
1771279779.251375,34.66796875,87.40234375,21.484375,31.25,15.625
1771279779.2552812,26.3671875,167.96875,26.3671875,23.4375,21.484375
1771279779.2591875,23.92578125,137.6953125,20.5078125,23.92578125,46.38671875
1771279779.2630937,45.41015625,93.75,21.97265625,35.64453125,65.91796875
1771279779.264125,54.19921875,145.5078125,26.85546875,37.109375,47.8515625
1771279779.2680314,48.828125,168.9453125,27.83203125,36.62109375,21.484375
1771279779.2719376,38.0859375,97.65625,29.296875,34.66796875,14.6484375
1771279779.2758439,21.484375,77.1484375,29.296875,26.3671875,51.7578125
1771279779.27975,28.80859375,135.7421875,28.3203125,31.73828125,80.56640625
1771279779.2836564,39.0625,128.90625,28.80859375,28.80859375,49.31640625
1771279779.2875626,40.52734375,82.51953125,24.4140625,30.2734375,25.390625
1771279779.2914689,38.57421875,9.27734375,17.578125,41.015625,25.87890625
1771279779.295375,47.8515625,60.546875,24.4140625,46.875,15.13671875
1771279779.2992814,54.6875,222.65625,33.203125,42.96875,41.50390625
1771279779.3031876,44.921875,158.203125,25.87890625,41.015625,68.84765625
1771279779.3070939,39.55078125,56.15234375,18.5546875,38.57421875,10.25390625
1771279779.310125,43.9453125,105.95703125,21.484375,34.66796875,-11.23046875
1771279779.3140314,39.55078125,172.36328125,27.83203125,51.26953125,32.2265625
1771279779.3179376,41.015625,117.1875,24.90234375,47.8515625,38.57421875
1771279779.3218439,43.9453125,70.3125,21.97265625,31.25,59.08203125
1771279779.32575,49.31640625,88.37890625,23.92578125,34.1796875,19.53125
1771279779.3296564,45.41015625,98.6328125,25.87890625,39.55078125,-22.94921875
1771279779.3335626,30.76171875,108.88671875,21.97265625,41.9921875,4.39453125
1771279779.3374689,26.85546875,18.06640625,20.5078125,39.55078125,31.25
1771279779.341375,22.94921875,83.49609375,26.3671875,27.83203125,46.38671875
1771279779.3452814,36.1328125,200.1953125,28.80859375,27.83203125,54.6875
1771279779.3491876,57.12890625,154.296875,26.85546875,43.9453125,31.25
1771279779.3530939,52.734375,110.83984375,16.11328125,45.41015625,39.55078125
1771279779.355125,39.55078125,106.93359375,11.71875,38.0859375,79.58984375
1771279779.3590312,26.85546875,113.76953125,20.01953125,33.69140625,4.8828125
1771279779.3629375,34.66796875,143.06640625,26.3671875,33.203125,-7.8125
1771279779.3668437,22.4609375,144.04296875,24.90234375,25.87890625,49.31640625
1771279779.37075,20.5078125,94.7265625,22.94921875,20.99609375,17.08984375
1771279779.3746562,29.296875,70.3125,21.97265625,26.85546875,20.5078125
1771279779.3785625,37.59765625,82.03125,18.5546875,35.15625,62.01171875
1771279779.3824687,43.45703125,138.18359375,20.01953125,45.41015625,82.51953125
1771279779.386375,30.2734375,137.20703125,21.97265625,36.62109375,47.8515625
1771279779.3902812,24.90234375,82.51953125,19.53125,14.6484375,40.52734375
1771279779.3941875,31.25,65.91796875,22.4609375,20.01953125,57.6171875
1771279779.3980937,43.45703125,143.06640625,27.83203125,26.3671875,37.109375
1771279779.400125,47.36328125,158.69140625,18.5546875,23.92578125,58.10546875
1771279779.4040313,16.6015625,64.453125,15.625,32.71484375,46.38671875
1771279779.4079375,20.99609375,95.21484375,22.94921875,38.57421875,34.1796875
1771279779.4118438,40.0390625,169.43359375,16.6015625,33.69140625,7.32421875
1771279779.41575,26.3671875,128.90625,16.11328125,24.90234375,1.46484375
1771279779.4196563,40.0390625,23.4375,20.99609375,27.83203125,15.13671875
1771279779.4235625,28.80859375,9.765625,22.94921875,28.80859375,-20.01953125
1771279779.4274688,24.90234375,161.1328125,30.76171875,28.80859375,-31.25
1771279779.431375,41.015625,180.17578125,23.92578125,37.59765625,-12.6953125
1771279779.4352813,25.390625,77.63671875,18.5546875,24.4140625,20.99609375
1771279779.4391875,12.20703125,94.7265625,22.94921875,20.01953125,62.98828125
1771279779.4430938,28.80859375,152.34375,26.85546875,31.73828125,34.66796875
1771279779.445125,41.50390625,131.34765625,21.484375,30.2734375,16.11328125
1771279779.4490314,35.15625,59.08203125,12.6953125,17.08984375,37.59765625
1771279779.4529376,38.0859375,61.5234375,15.625,23.92578125,12.6953125
1771279779.4568439,32.2265625,150.87890625,24.90234375,28.80859375,12.20703125
1771279779.46075,35.15625,155.76171875,26.3671875,29.296875,12.20703125
1771279779.4646564,46.875,79.58984375,22.4609375,43.9453125,-3.90625
1771279779.4685626,42.96875,55.17578125,19.53125,42.48046875,24.4140625
1771279779.4724689,39.0625,136.23046875,20.99609375,29.78515625,38.57421875
1771279779.476375,43.45703125,164.0625,24.90234375,38.0859375,20.01953125
1771279779.4802814,43.45703125,58.10546875,21.484375,41.9921875,13.671875
1771279779.4841876,41.50390625,65.91796875,18.06640625,30.76171875,37.59765625
1771279779.4880939,34.66796875,144.04296875,20.01953125,42.96875,16.11328125
1771279779.506125,32.71484375,133.30078125,23.92578125,48.828125,-25.87890625
1771279779.5100312,30.2734375,111.328125,21.484375,37.59765625,-11.23046875
1771279779.5139375,29.296875,56.640625,18.06640625,33.203125,-16.6015625
1771279779.5178437,46.38671875,88.37890625,21.484375,28.3203125,13.18359375
1771279779.52175,54.6875,121.58203125,21.484375,43.9453125,19.53125
1771279779.5256562,42.48046875,73.73046875,19.53125,45.8984375,-9.765625
1771279779.5295625,39.0625,113.76953125,20.5078125,38.0859375,52.734375
1771279779.5334687,39.55078125,133.30078125,20.01953125,35.15625,49.31640625
1771279779.537375,23.92578125,98.14453125,18.06640625,25.87890625,68.84765625
1771279779.5412812,18.5546875,101.5625,15.625,32.2265625,89.84375
1771279779.5451875,38.57421875,137.6953125,19.04296875,35.15625,19.53125
1771279779.5490937,37.59765625,98.14453125,17.578125,21.97265625,14.6484375
1771279779.550125,36.1328125,98.6328125,16.6015625,19.53125,54.19921875
1771279779.5540311,28.80859375,141.11328125,16.11328125,28.80859375,26.3671875
1771279779.5579374,15.625,129.8828125,16.6015625,37.109375,-13.671875
1771279779.5618436,33.203125,82.03125,26.85546875,38.0859375,16.6015625
1771279779.56575,44.921875,75.1953125,27.34375,32.71484375,39.0625
1771279779.5696561,41.015625,105.46875,25.390625,46.875,35.64453125
1771279779.5735624,42.48046875,111.81640625,27.34375,37.109375,34.66796875
1771279779.5774686,32.2265625,88.8671875,27.83203125,21.97265625,62.98828125
1771279779.581375,36.62109375,28.3203125,26.3671875,24.4140625,59.08203125
1771279779.5852811,41.015625,84.47265625,30.76171875,31.25,28.3203125
1771279779.5891874,41.50390625,198.2421875,35.64453125,41.50390625,3.90625
1771279779.5930936,37.59765625,104.4921875,31.25,45.41015625,-33.203125
1771279779.595125,40.0390625,58.10546875,26.85546875,37.109375,-15.625
1771279779.5990312,36.1328125,138.671875,34.66796875,36.1328125,34.66796875
1771279779.6029375,42.96875,170.41015625,39.0625,43.9453125,28.3203125
1771279779.6068437,56.15234375,94.7265625,28.3203125,34.66796875,-29.296875
1771279779.61075,26.85546875,48.33984375,20.5078125,30.2734375,-26.85546875
1771279779.6146562,21.97265625,90.33203125,26.85546875,34.1796875,25.87890625
1771279779.6185625,43.45703125,135.25390625,27.83203125,30.76171875,16.11328125
1771279779.6224687,35.64453125,96.6796875,22.94921875,28.80859375,3.90625
1771279779.626375,27.34375,-9.765625,18.5546875,22.4609375,20.5078125
1771279779.6302812,28.3203125,92.7734375,21.484375,26.3671875,45.8984375
1771279779.6341875,20.01953125,206.0546875,26.85546875,37.109375,72.265625
1771279779.6380937,27.34375,144.04296875,26.3671875,30.2734375,64.453125
1771279779.640125,31.25,98.6328125,23.92578125,23.92578125,57.6171875
1771279779.6440313,33.69140625,113.76953125,22.94921875,19.53125,86.9140625
1771279779.6479375,36.62109375,132.8125,20.99609375,30.2734375,54.19921875
1771279779.6518438,41.50390625,132.8125,16.11328125,34.1796875,22.4609375
1771279779.65575,38.0859375,92.7734375,14.6484375,20.5078125,58.59375
1771279779.6596563,30.2734375,41.9921875,16.11328125,18.06640625,43.9453125
1771279779.6635625,34.1796875,102.05078125,19.04296875,28.3203125,36.1328125
1771279779.6674688,41.9921875,94.23828125,17.08984375,35.64453125,3.41796875
1771279779.671375,38.0859375,85.44921875,15.625,27.34375,9.27734375
1771279779.6752813,38.57421875,125.48828125,19.04296875,22.94921875,51.7578125
1771279779.6791875,48.828125,105.95703125,23.4375,34.1796875,30.2734375
1771279779.6830938,36.62109375,138.671875,26.85546875,43.9453125,23.92578125
1771279779.685125,39.0625,158.69140625,28.3203125,39.55078125,41.015625
1771279779.6890314,34.66796875,111.81640625,26.85546875,30.76171875,40.52734375
1771279779.6929376,28.3203125,69.82421875,24.90234375,30.2734375,75.1953125
1771279779.6968439,40.0390625,114.2578125,23.92578125,30.76171875,81.0546875
1771279779.70075,40.52734375,135.25390625,23.4375,30.2734375,13.671875
1771279779.7046564,31.73828125,77.63671875,23.92578125,30.76171875,27.83203125
1771279779.7085626,42.48046875,38.0859375,20.01953125,29.296875,90.33203125
1771279779.7124689,48.33984375,61.03515625,20.5078125,33.203125,68.84765625
1771279779.716375,34.66796875,179.19921875,28.3203125,41.9921875,58.59375
1771279779.7202814,29.296875,152.83203125,25.87890625,41.50390625,75.1953125
1771279779.7241876,34.66796875,60.546875,23.92578125,54.19921875,30.76171875
1771279779.7280939,43.45703125,101.07421875,28.3203125,53.22265625,-15.13671875
1771279779.731125,36.1328125,147.4609375,24.90234375,32.71484375,15.625
1771279779.7350314,24.4140625,124.0234375,21.484375,32.2265625,32.71484375
1771279779.7389376,29.296875,33.203125,17.578125,32.71484375,-7.32421875
1771279779.7428439,31.73828125,66.89453125,17.578125,29.296875,5.859375
1771279779.74675,46.875,162.109375,23.4375,34.66796875,29.296875
1771279779.7506564,63.4765625,113.28125,25.87890625,37.59765625,23.4375
1771279779.7545626,56.640625,7.32421875,21.484375,39.55078125,11.71875
1771279779.7584689,16.11328125,46.875,22.4609375,42.48046875,-0.9765625
1771279779.762375,11.71875,193.359375,26.3671875,34.66796875,15.13671875
1771279779.7662814,30.76171875,171.38671875,30.2734375,36.62109375,41.9921875
1771279779.7701876,25.87890625,89.84375,22.4609375,29.78515625,11.23046875
1771279779.7740939,33.69140625,73.2421875,20.5078125,30.2734375,-16.6015625
1771279779.776125,60.05859375,144.04296875,29.296875,37.109375,31.73828125
1771279779.7800312,65.4296875,156.73828125,20.01953125,40.0390625,65.4296875
1771279779.7839375,45.41015625,70.3125,13.671875,32.2265625,36.1328125
1771279779.7878437,41.50390625,75.68359375,19.04296875,32.71484375,7.32421875
1771279779.79175,56.640625,114.2578125,25.390625,43.45703125,-33.69140625
1771279779.7956562,62.01171875,109.375,27.83203125,53.7109375,-14.6484375
1771279779.7995625,47.36328125,22.4609375,19.04296875,44.43359375,29.296875
1771279779.8034687,28.80859375,58.10546875,18.5546875,35.64453125,-17.578125
1771279779.807375,41.50390625,166.50390625,24.90234375,38.57421875,10.25390625
1771279779.8112812,61.5234375,148.92578125,26.85546875,42.48046875,19.53125
1771279779.8151875,53.22265625,135.7421875,25.390625,44.921875,-2.9296875
1771279779.8190937,36.62109375,101.07421875,20.99609375,38.57421875,3.41796875
1771279779.835125,29.78515625,94.23828125,22.94921875,40.0390625,7.8125
1771279779.8390312,41.50390625,146.484375,27.83203125,44.43359375,51.26953125
1771279779.8429375,49.8046875,162.59765625,25.390625,40.52734375,63.96484375
1771279779.8468437,38.57421875,122.55859375,21.484375,45.8984375,73.2421875
1771279779.85075,34.66796875,59.08203125,19.04296875,38.0859375,44.43359375
1771279779.8546562,45.41015625,12.6953125,17.578125,26.3671875,-39.55078125
1771279779.8585625,41.9921875,91.796875,23.92578125,36.62109375,41.50390625
1771279779.8624687,33.69140625,172.8515625,23.92578125,39.55078125,94.23828125
1771279779.866375,36.1328125,101.07421875,19.53125,34.66796875,45.41015625
1771279779.8702812,38.0859375,100.09765625,21.484375,40.0390625,60.05859375
1771279779.8741875,42.48046875,162.59765625,25.390625,53.7109375,50.29296875
1771279779.8780937,43.45703125,141.6015625,23.4375,45.8984375,3.90625
1771279779.880125,36.62109375,73.73046875,17.08984375,34.1796875,21.97265625
1771279779.8840313,35.64453125,79.1015625,23.4375,42.48046875,52.734375
1771279779.8879375,36.62109375,163.57421875,30.2734375,46.38671875,70.3125
1771279779.8918438,43.45703125,166.50390625,22.4609375,35.15625,106.93359375
1771279779.89575,40.52734375,66.40625,17.08984375,28.3203125,73.2421875
1771279779.8996563,31.25,32.71484375,18.5546875,30.2734375,59.08203125
1771279779.9035625,21.484375,117.67578125,23.92578125,30.76171875,71.2890625
1771279779.9074688,18.5546875,158.69140625,24.90234375,25.87890625,46.875
1771279779.911375,34.1796875,85.9375,16.6015625,28.3203125,58.59375
1771279779.9152813,34.66796875,-15.625,11.23046875,26.85546875,51.26953125
1771279779.9191875,30.76171875,110.3515625,15.13671875,26.85546875,10.7421875
1771279779.9230938,40.0390625,196.2890625,16.6015625,36.1328125,-10.7421875
1771279779.925125,33.203125,117.1875,20.99609375,34.66796875,22.94921875
1771279779.9290311,31.25,86.42578125,24.90234375,35.64453125,39.55078125
1771279779.9329374,38.0859375,119.140625,23.4375,38.57421875,38.0859375
1771279779.9368436,38.57421875,154.78515625,26.85546875,53.7109375,46.875
1771279779.94075,46.875,117.1875,25.87890625,55.6640625,20.99609375
1771279779.9446561,35.64453125,47.8515625,19.53125,29.296875,-8.30078125
1771279779.9485624,26.85546875,66.40625,20.99609375,23.92578125,0.48828125
1771279779.9524686,33.69140625,156.73828125,21.97265625,31.25,18.06640625
1771279779.956375,44.43359375,93.75,14.16015625,28.3203125,39.0625
1771279779.9602811,42.96875,41.015625,11.71875,20.5078125,51.26953125
1771279779.9641874,41.015625,132.8125,18.5546875,20.99609375,33.203125
1771279779.9680936,30.2734375,134.27734375,24.4140625,31.73828125,4.39453125
1771279779.970125,20.5078125,134.27734375,24.4140625,37.59765625,72.75390625
1771279779.9740312,23.4375,136.71875,22.94921875,23.4375,121.09375
1771279779.9779375,32.71484375,95.21484375,22.94921875,26.85546875,57.6171875
1771279779.9818437,57.12890625,98.14453125,17.08984375,37.109375,57.12890625
1771279779.98575,45.8984375,125.9765625,19.53125,38.0859375,65.91796875
1771279779.9896562,22.94921875,91.796875,21.97265625,31.25,41.50390625
1771279779.9935625,27.34375,73.2421875,16.6015625,21.484375,24.90234375
1771279779.9974687,41.9921875,73.2421875,17.08984375,26.85546875,3.90625
1771279780.001375,44.921875,72.265625,18.5546875,41.50390625,0.48828125
1771279780.0052812,42.48046875,157.71484375,22.4609375,60.05859375,26.85546875
1771279780.0091875,33.69140625,120.1171875,18.5546875,55.6640625,13.18359375
1771279780.0130937,25.87890625,66.89453125,17.578125,32.71484375,23.92578125
1771279780.015125,34.1796875,120.1171875,28.80859375,35.15625,41.9921875
1771279780.0190313,38.57421875,155.2734375,32.2265625,49.31640625,6.8359375
1771279780.0229375,44.43359375,108.88671875,25.390625,48.33984375,17.578125
1771279780.0268438,37.59765625,57.12890625,20.01953125,20.99609375,68.84765625
1771279780.03075,32.2265625,98.6328125,20.99609375,16.11328125,53.7109375
1771279780.0346563,41.9921875,125.9765625,20.99609375,43.45703125,12.6953125
1771279780.0385625,45.8984375,125.9765625,18.5546875,45.8984375,57.12890625
1771279780.0424688,38.57421875,40.52734375,19.04296875,39.0625,57.6171875
1771279780.046375,44.43359375,64.453125,28.80859375,42.96875,47.36328125
1771279780.0502813,52.734375,202.63671875,31.73828125,50.29296875,47.36328125
1771279780.0541875,51.7578125,138.18359375,22.4609375,53.7109375,38.57421875
1771279780.0580938,58.59375,60.05859375,20.01953125,50.78125,19.04296875
1771279780.060125,53.22265625,92.28515625,24.90234375,45.8984375,-13.18359375
1771279780.0640314,47.8515625,148.92578125,26.85546875,42.48046875,23.92578125
1771279780.0679376,35.64453125,90.33203125,20.99609375,38.0859375,38.57421875
1771279780.0718439,12.20703125,51.26953125,23.92578125,30.76171875,31.25
1771279780.07575,18.5546875,110.83984375,24.90234375,33.203125,87.890625
1771279780.0796564,32.71484375,117.1875,22.94921875,42.96875,62.5
1771279780.0835626,35.15625,82.51953125,24.90234375,43.9453125,0.9765625
1771279780.0874689,37.59765625,50.29296875,23.92578125,39.55078125,69.3359375
1771279780.091375,45.8984375,103.02734375,28.80859375,48.828125,55.6640625
1771279780.0952814,51.26953125,151.3671875,28.80859375,54.19921875,41.9921875
1771279780.0991876,49.8046875,136.71875,31.25,43.45703125,92.28515625
1771279780.1030939,39.55078125,98.14453125,28.3203125,45.8984375,48.828125
1771279780.105125,42.48046875,72.75390625,19.04296875,44.43359375,-23.4375
1771279780.1090312,50.29296875,98.14453125,18.5546875,33.203125,4.39453125
1771279780.1129375,44.43359375,121.09375,20.01953125,32.71484375,22.94921875
1771279780.1168437,39.55078125,120.60546875,22.4609375,33.69140625,39.0625
1771279780.12075,33.69140625,68.359375,20.5078125,20.99609375,63.96484375
1771279780.1246562,40.52734375,49.8046875,22.94921875,18.06640625,46.38671875
1771279780.1285625,52.24609375,62.01171875,25.87890625,27.34375,50.78125
1771279780.1324687,47.36328125,73.73046875,22.94921875,29.78515625,25.87890625
1771279780.136375,39.0625,137.20703125,22.4609375,24.4140625,30.2734375
1771279780.1402812,30.76171875,113.76953125,22.4609375,25.87890625,46.38671875
1771279780.1441875,30.76171875,113.76953125,25.87890625,31.73828125,31.25
1771279780.1480937,28.80859375,144.04296875,29.78515625,32.71484375,8.30078125
1771279780.150125,29.296875,113.76953125,26.85546875,29.296875,4.8828125
1771279780.1540313,25.87890625,73.2421875,21.97265625,23.92578125,49.31640625
1771279780.1579375,37.59765625,95.21484375,24.90234375,35.15625,61.03515625
1771279780.1618438,36.1328125,160.64453125,30.2734375,41.50390625,65.91796875
1771279780.16575,34.1796875,130.37109375,28.3203125,35.64453125,81.0546875
1771279780.1696563,32.71484375,20.01953125,24.90234375,28.80859375,38.0859375
1771279780.1735625,17.08984375,10.25390625,28.3203125,28.3203125,45.41015625
1771279780.1774688,35.64453125,137.6953125,29.78515625,28.80859375,48.33984375
1771279780.181375,53.7109375,179.19921875,25.87890625,32.71484375,72.265625
1771279780.1852813,43.9453125,43.45703125,20.99609375,27.34375,54.19921875
1771279780.1891875,25.87890625,29.296875,22.4609375,28.3203125,-12.20703125
1771279780.1930938,29.296875,150.87890625,31.73828125,41.9921875,50.78125
1771279780.210125,42.96875,139.6484375,30.76171875,53.22265625,55.17578125
1771279780.2140312,34.1796875,68.359375,24.90234375,49.8046875,29.296875
1771279780.2179375,40.52734375,57.12890625,22.4609375,32.2265625,16.11328125
1771279780.2218437,35.15625,119.62890625,27.34375,27.83203125,22.94921875
1771279780.22575,34.1796875,132.8125,25.87890625,41.015625,16.6015625
1771279780.2296562,44.43359375,20.99609375,17.578125,27.34375,-14.6484375
1771279780.2335625,37.109375,36.1328125,20.01953125,16.6015625,28.3203125
1771279780.2374687,45.8984375,147.94921875,26.85546875,28.80859375,-0.9765625
1771279780.241375,56.640625,140.625,30.2734375,34.66796875,-6.34765625
1771279780.2452812,29.296875,94.7265625,31.25,29.78515625,33.203125
1771279780.2491875,28.3203125,75.1953125,29.78515625,31.73828125,23.4375
1771279780.2530937,42.96875,109.375,27.34375,34.1796875,17.08984375
1771279780.254125,43.9453125,124.0234375,27.34375,43.45703125,48.828125
1771279780.2580314,43.9453125,83.0078125,27.83203125,41.9921875,33.69140625
1771279780.2619376,36.1328125,91.30859375,22.94921875,16.6015625,26.85546875
1771279780.2658439,37.109375,104.98046875,22.94921875,20.01953125,25.87890625
1771279780.26975,40.0390625,109.86328125,30.2734375,33.69140625,28.80859375
1771279780.2736564,36.62109375,93.26171875,29.296875,52.734375,50.29296875
1771279780.2775626,42.48046875,86.42578125,23.92578125,43.9453125,39.55078125
1771279780.2814689,34.1796875,111.328125,25.390625,29.78515625,20.99609375
1771279780.285375,34.1796875,91.30859375,25.87890625,36.62109375,25.87890625
1771279780.2892814,50.29296875,100.5859375,25.87890625,35.64453125,62.98828125
1771279780.2931876,39.0625,128.41796875,23.92578125,29.296875,63.96484375
1771279780.2970939,42.96875,81.54296875,20.5078125,35.64453125,45.8984375
1771279780.299125,62.5,50.78125,21.484375,36.62109375,47.36328125
1771279780.3030312,55.17578125,87.40234375,22.94921875,30.76171875,25.87890625
1771279780.3069375,40.0390625,160.15625,24.4140625,26.3671875,21.484375
1771279780.3108437,38.57421875,120.1171875,23.92578125,26.3671875,86.42578125
1771279780.31475,20.5078125,80.078125,26.85546875,23.92578125,70.3125
1771279780.3186562,23.92578125,102.5390625,30.2734375,42.48046875,20.5078125
1771279780.3225625,50.29296875,122.55859375,26.85546875,54.19921875,27.83203125
1771279780.3264687,40.52734375,111.328125,27.34375,27.83203125,31.73828125
1771279780.330375,23.4375,34.1796875,27.34375,33.69140625,30.2734375
1771279780.3342812,33.69140625,83.49609375,26.85546875,43.9453125,29.296875
1771279780.3381875,45.41015625,184.5703125,32.2265625,32.2265625,31.25
1771279780.3420937,47.8515625,104.00390625,28.3203125,26.85546875,39.55078125
1771279780.345125,41.015625,63.4765625,29.78515625,29.78515625,30.2734375
1771279780.3490312,31.73828125,96.19140625,30.76171875,38.0859375,-2.9296875
1771279780.3529375,38.57421875,137.20703125,30.2734375,42.96875,8.30078125
1771279780.3568437,57.12890625,107.91015625,30.2734375,40.52734375,51.26953125
1771279780.36075,44.43359375,31.25,27.34375,32.2265625,50.78125
1771279780.3646562,33.69140625,79.58984375,32.71484375,48.828125,54.6875
1771279780.3685625,33.203125,133.7890625,33.69140625,56.640625,54.6875
1771279780.3724687,40.52734375,93.26171875,25.390625,38.0859375,21.484375
1771279780.376375,33.203125,33.69140625,18.06640625,36.62109375,20.5078125
1771279780.3802812,26.3671875,114.2578125,21.484375,24.4140625,17.08984375
1771279780.3841875,34.1796875,175.29296875,34.66796875,24.4140625,47.36328125
1771279780.3880937,37.59765625,129.8828125,33.203125,36.62109375,56.15234375
1771279780.390125,59.08203125,88.8671875,22.4609375,27.83203125,20.99609375
1771279780.3940313,41.9921875,90.33203125,23.4375,27.34375,5.37109375
1771279780.3979375,26.85546875,123.046875,29.296875,39.55078125,9.765625
1771279780.4018438,41.9921875,134.765625,29.296875,46.38671875,33.69140625
1771279780.40575,29.78515625,81.54296875,30.76171875,37.59765625,39.55078125
1771279780.4096563,24.90234375,42.96875,29.78515625,31.25,-14.16015625
1771279780.4135625,32.71484375,88.37890625,32.71484375,37.59765625,-14.6484375
1771279780.4174688,38.57421875,96.6796875,26.85546875,39.0625,65.4296875
1771279780.421375,32.2265625,74.21875,20.99609375,43.9453125,73.73046875
1771279780.4252813,29.296875,116.69921875,28.3203125,30.2734375,12.6953125
1771279780.4291875,32.2265625,126.953125,33.69140625,27.83203125,42.96875
1771279780.4330938,28.3203125,142.08984375,34.66796875,44.43359375,83.0078125
1771279780.435125,27.34375,145.01953125,31.73828125,40.52734375,73.2421875
1771279780.4390314,33.203125,89.35546875,27.34375,29.296875,69.3359375
1771279780.4429376,38.57421875,46.38671875,24.4140625,38.57421875,32.71484375
1771279780.4468439,32.2265625,89.35546875,25.87890625,39.0625,1.46484375
1771279780.45075,34.66796875,125.48828125,28.3203125,20.5078125,-20.5078125
1771279780.4546564,37.59765625,65.91796875,23.92578125,21.484375,15.13671875
1771279780.4585626,31.73828125,24.90234375,19.04296875,25.390625,38.57421875
1771279780.4624689,35.64453125,23.4375,25.390625,29.296875,26.85546875
1771279780.466375,20.99609375,124.51171875,30.76171875,32.71484375,2.9296875
1771279780.4702814,26.3671875,147.94921875,25.87890625,22.4609375,1.953125
1771279780.4741876,56.15234375,60.546875,26.3671875,26.3671875,33.69140625
1771279780.4780939,50.78125,105.46875,29.78515625,38.0859375,96.19140625
1771279780.480125,37.109375,152.83203125,25.390625,35.64453125,64.94140625
1771279780.4840312,30.76171875,103.515625,22.94921875,26.85546875,-4.8828125
1771279780.4879375,31.73828125,41.50390625,17.578125,26.3671875,-33.203125
1771279780.4918437,33.69140625,73.73046875,20.5078125,27.83203125,-18.06640625
1771279780.49575,40.52734375,127.9296875,32.2265625,39.0625,19.04296875
1771279780.4996562,31.73828125,96.19140625,23.4375,45.8984375,44.43359375
1771279780.5035625,39.0625,-3.41796875,12.20703125,29.78515625,39.0625
1771279780.5074687,39.0625,34.66796875,24.4140625,26.3671875,49.31640625
1771279780.511375,13.18359375,161.62109375,31.25,33.203125,73.2421875
1771279780.5152812,36.1328125,116.69921875,31.73828125,30.2734375,39.0625
1771279780.5191875,51.26953125,62.98828125,28.80859375,35.15625,24.90234375
1771279780.5230937,8.7890625,67.87109375,27.83203125,47.36328125,-4.8828125
1771279780.525125,33.203125,113.28125,32.71484375,53.7109375,-2.44140625
1771279780.5290313,62.5,127.44140625,29.78515625,45.8984375,48.828125
1771279780.5329375,38.57421875,80.56640625,29.78515625,40.52734375,74.70703125
1771279780.5368438,38.57421875,72.265625,27.34375,41.015625,79.58984375
1771279780.54075,51.7578125,88.8671875,24.4140625,36.62109375,16.6015625
1771279780.5446563,54.6875,80.56640625,26.3671875,46.38671875,12.20703125
1771279780.5485625,49.31640625,49.31640625,25.87890625,45.41015625,63.4765625
1771279780.5524688,46.875,84.9609375,27.83203125,33.69140625,70.80078125
1771279780.556375,57.12890625,103.515625,29.78515625,38.57421875,59.08203125
1771279780.5602813,58.59375,89.35546875,30.2734375,45.8984375,-24.4140625
1771279780.5641875,37.59765625,112.3046875,27.83203125,44.43359375,-2.9296875
1771279780.5680938,27.34375,84.9609375,24.90234375,39.0625,56.15234375
1771279780.570125,19.53125,64.453125,21.97265625,27.83203125,10.25390625
1771279780.5740314,28.3203125,76.66015625,24.4140625,29.78515625,-5.37109375
1771279780.5779376,42.48046875,114.2578125,26.85546875,32.71484375,37.59765625
1771279780.5818439,38.57421875,110.83984375,23.92578125,21.97265625,29.296875
1771279780.58575,32.2265625,59.5703125,20.99609375,24.4140625,-24.4140625
1771279780.5896564,31.73828125,37.109375,24.4140625,39.55078125,-0.48828125
1771279780.5935626,28.80859375,101.07421875,31.73828125,42.96875,34.66796875
1771279780.5974689,29.78515625,141.11328125,31.25,31.25,-19.04296875
1771279780.601375,34.1796875,62.98828125,28.80859375,36.62109375,0.9765625
1771279780.6052814,26.3671875,64.94140625,23.4375,42.96875,11.71875
1771279780.6091876,16.6015625,139.16015625,25.390625,37.59765625,17.08984375
1771279780.6130939,24.4140625,133.30078125,34.1796875,27.83203125,54.6875
1771279780.630125,36.62109375,59.5703125,32.2265625,31.73828125,27.34375
1771279780.6340313,40.52734375,37.109375,28.3203125,47.8515625,33.69140625
1771279780.6379375,50.29296875,105.95703125,31.25,39.55078125,17.578125
1771279780.6418438,46.875,163.0859375,34.1796875,38.57421875,49.31640625
1771279780.64575,32.71484375,62.01171875,30.2734375,47.8515625,31.25
1771279780.6496563,33.203125,-43.9453125,27.34375,22.94921875,4.8828125
1771279780.6535625,43.45703125,96.19140625,32.2265625,18.06640625,63.96484375
1771279780.6574688,44.43359375,192.87109375,31.25,33.69140625,38.0859375
1771279780.661375,29.78515625,82.51953125,19.53125,19.04296875,18.06640625
1771279780.6652813,13.18359375,47.36328125,20.01953125,12.20703125,45.41015625
1771279780.6691875,27.83203125,115.72265625,29.296875,32.2265625,36.62109375
1771279780.6730938,54.6875,145.01953125,22.94921875,40.52734375,18.06640625
1771279780.674125,48.828125,96.6796875,19.53125,41.015625,22.4609375
1771279780.6780312,29.78515625,55.6640625,25.87890625,34.1796875,47.8515625
1771279780.6819375,17.578125,83.49609375,22.94921875,28.80859375,41.015625
1771279780.6858437,29.78515625,122.55859375,21.484375,39.55078125,24.4140625
1771279780.68975,50.29296875,78.61328125,21.484375,38.0859375,41.015625
1771279780.6936562,39.0625,29.78515625,23.92578125,26.3671875,40.0390625
1771279780.6975625,28.80859375,45.8984375,23.92578125,34.1796875,-6.8359375
1771279780.7014687,20.99609375,112.3046875,26.3671875,48.828125,-25.87890625
1771279780.705375,26.3671875,72.265625,28.3203125,48.33984375,-47.36328125
1771279780.7092812,39.0625,43.45703125,29.296875,42.96875,-8.7890625
1771279780.7131875,28.3203125,101.07421875,26.85546875,44.43359375,0.48828125
1771279780.7170937,42.96875,111.81640625,21.97265625,41.50390625,37.109375
1771279780.720125,47.36328125,114.2578125,25.87890625,36.62109375,48.33984375
1771279780.7240312,36.1328125,86.42578125,25.390625,39.0625,-1.953125
1771279780.7279375,36.62109375,65.91796875,21.97265625,35.15625,26.3671875
1771279780.7318437,32.71484375,69.3359375,20.5078125,30.76171875,48.828125
1771279780.73575,31.73828125,96.6796875,23.92578125,42.48046875,15.625
1771279780.7396562,38.0859375,87.40234375,29.78515625,41.015625,18.06640625
1771279780.7435625,49.8046875,54.19921875,26.85546875,30.2734375,69.82421875
1771279780.7474687,35.64453125,53.22265625,27.34375,45.41015625,46.875
1771279780.751375,41.015625,43.9453125,29.78515625,52.734375,11.71875
1771279780.7552812,41.9921875,112.79296875,32.2265625,52.24609375,3.90625
1771279780.7591875,12.20703125,130.37109375,27.83203125,30.2734375,39.55078125
1771279780.7630937,26.3671875,70.3125,24.4140625,34.66796875,89.84375
1771279780.764125,44.921875,103.515625,27.83203125,46.875,59.08203125
1771279780.7680314,36.1328125,131.34765625,25.390625,31.25,-7.8125
1771279780.7719376,29.78515625,71.77734375,19.53125,22.4609375,-25.390625
1771279780.7758439,33.203125,39.55078125,21.97265625,24.4140625,-2.44140625
1771279780.77975,41.50390625,101.07421875,24.90234375,20.99609375,40.0390625
1771279780.7836564,30.2734375,106.4453125,18.5546875,23.4375,15.13671875
1771279780.7875626,37.109375,97.65625,20.01953125,36.62109375,41.9921875
1771279780.7914689,38.57421875,26.85546875,26.85546875,29.78515625,42.48046875
1771279780.795375,39.55078125,9.765625,27.34375,23.4375,-28.3203125
1771279780.7992814,41.9921875,155.2734375,26.3671875,30.76171875,18.5546875
1771279780.8031876,34.1796875,144.04296875,25.390625,36.62109375,74.21875
1771279780.8070939,35.15625,38.57421875,23.4375,31.73828125,27.83203125
1771279780.809125,32.71484375,81.54296875,23.92578125,27.34375,15.625
1771279780.8130312,21.484375,161.1328125,27.34375,30.2734375,55.6640625
1771279780.8169374,16.6015625,118.1640625,28.80859375,36.62109375,43.45703125
1771279780.8208437,18.06640625,48.33984375,25.390625,30.76171875,28.80859375
1771279780.82475,23.4375,63.4765625,23.4375,29.296875,33.203125
1771279780.8286562,33.69140625,96.19140625,21.97265625,31.73828125,52.24609375
1771279780.8325624,44.43359375,83.984375,22.4609375,31.25,25.390625
1771279780.8364687,36.1328125,32.2265625,22.4609375,37.59765625,-15.13671875
1771279780.840375,31.73828125,88.37890625,27.34375,23.4375,27.34375
1771279780.8442812,32.71484375,134.27734375,26.3671875,26.3671875,58.59375
1771279780.8481874,47.8515625,110.83984375,23.4375,44.921875,29.296875
1771279780.8520937,55.17578125,87.890625,24.4140625,30.2734375,39.0625
1771279780.854125,45.41015625,85.44921875,24.4140625,24.90234375,91.30859375
1771279780.8580313,38.57421875,90.8203125,25.87890625,38.0859375,110.3515625
1771279780.8619375,29.296875,72.75390625,23.4375,41.015625,41.9921875
1771279780.8658438,34.66796875,87.40234375,24.90234375,45.41015625,35.64453125
1771279780.86975,40.0390625,74.70703125,20.99609375,29.296875,17.578125
1771279780.8736563,43.45703125,41.015625,17.578125,32.2265625,21.484375
1771279780.8775625,41.015625,41.015625,22.94921875,42.96875,44.43359375
1771279780.8814688,30.2734375,102.05078125,26.3671875,40.0390625,90.33203125
1771279780.885375,36.62109375,129.8828125,24.4140625,36.62109375,65.91796875
1771279780.8892813,28.80859375,70.80078125,23.4375,28.80859375,36.62109375
1771279780.8931875,30.76171875,90.8203125,24.4140625,38.0859375,11.23046875
1771279780.8970938,55.17578125,142.578125,23.92578125,41.9921875,0.48828125
1771279780.900125,34.1796875,106.93359375,22.4609375,42.48046875,15.13671875
1771279780.9040313,20.01953125,32.71484375,20.99609375,30.2734375,14.16015625
1771279780.9079375,41.015625,56.15234375,23.4375,30.76171875,13.18359375
1771279780.9118438,39.0625,151.85546875,21.484375,31.25,22.4609375
1771279780.91575,32.71484375,130.859375,19.04296875,24.90234375,38.57421875
1771279780.9196563,49.31640625,17.578125,16.6015625,19.04296875,1.953125
1771279780.9235625,47.8515625,11.23046875,22.94921875,33.69140625,-9.765625
1771279780.9274688,43.9453125,155.76171875,29.78515625,47.36328125,29.78515625
1771279780.931375,46.38671875,161.62109375,27.34375,50.78125,26.85546875
1771279780.9352813,40.0390625,56.640625,25.390625,42.96875,21.97265625
1771279780.9391875,31.73828125,54.19921875,22.94921875,34.1796875,28.80859375
1771279780.9430938,28.80859375,132.32421875,25.87890625,41.9921875,58.59375
1771279780.959125,26.3671875,140.13671875,22.94921875,34.66796875,61.5234375
1771279780.9630313,27.83203125,63.96484375,20.5078125,37.109375,10.25390625
1771279780.9669375,55.6640625,57.6171875,24.4140625,41.50390625,2.44140625
1771279780.9708438,58.10546875,113.76953125,28.3203125,39.55078125,85.44921875
1771279780.97475,30.76171875,123.53515625,30.2734375,42.96875,63.4765625
1771279780.9786563,30.2734375,43.45703125,25.87890625,30.76171875,34.66796875
1771279780.9825625,24.4140625,22.4609375,22.94921875,23.4375,32.71484375
1771279780.9864688,33.203125,123.046875,25.87890625,45.41015625,29.78515625
1771279780.990375,48.828125,152.34375,24.90234375,36.62109375,51.26953125
1771279780.9942813,51.7578125,62.01171875,21.97265625,22.94921875,41.50390625
1771279780.9981875,45.8984375,41.9921875,24.4140625,31.73828125,22.94921875
1771279781.0020938,25.87890625,114.74609375,29.296875,30.76171875,-13.18359375
1771279781.005125,21.97265625,121.58203125,32.71484375,32.2265625,33.69140625
1771279781.0090313,34.1796875,90.33203125,25.87890625,39.55078125,1.953125
1771279781.0129375,31.25,72.75390625,17.578125,28.80859375,-40.52734375
1771279781.0168438,33.69140625,79.1015625,19.53125,21.484375,12.6953125
1771279781.02075,41.015625,86.9140625,21.97265625,35.15625,6.34765625
1771279781.0246563,42.96875,95.703125,27.83203125,43.45703125,43.45703125
1771279781.0285625,37.109375,72.75390625,32.71484375,41.50390625,79.58984375
1771279781.0324688,23.4375,72.75390625,28.3203125,33.69140625,49.8046875
1771279781.036375,31.25,78.61328125,21.97265625,28.80859375,26.3671875
1771279781.0402813,37.109375,23.92578125,26.3671875,52.24609375,-2.9296875
1771279781.0441875,32.71484375,93.75,33.69140625,50.78125,13.18359375
1771279781.0480938,34.66796875,101.5625,25.390625,22.94921875,60.05859375
1771279781.050125,40.52734375,59.5703125,20.5078125,25.390625,23.4375
1771279781.0540311,51.26953125,128.41796875,24.4140625,41.9921875,15.13671875
1771279781.0579374,35.64453125,130.37109375,28.3203125,50.78125,48.33984375
1771279781.0618436,23.4375,63.96484375,24.4140625,34.66796875,25.390625
1771279781.06575,30.2734375,48.33984375,21.484375,22.4609375,11.23046875
1771279781.0696561,28.80859375,89.84375,27.34375,38.0859375,37.109375
1771279781.0735624,33.203125,101.07421875,26.3671875,36.1328125,23.92578125
1771279781.0774686,35.64453125,95.703125,22.94921875,26.85546875,43.9453125
1771279781.081375,36.62109375,24.4140625,21.484375,27.83203125,108.3984375
1771279781.0852811,45.8984375,52.734375,25.390625,31.25,94.7265625
1771279781.0891874,45.41015625,184.08203125,33.203125,49.31640625,63.96484375
1771279781.0930936,26.3671875,99.609375,31.25,52.24609375,1.953125
1771279781.095125,13.671875,34.1796875,28.80859375,25.87890625,-20.99609375
1771279781.0990312,19.04296875,100.09765625,27.34375,27.34375,22.4609375
1771279781.1029375,24.90234375,144.53125,33.203125,44.43359375,46.38671875
1771279781.1068437,35.64453125,101.5625,28.80859375,33.203125,80.56640625
1771279781.11075,40.0390625,41.015625,15.625,15.625,71.2890625
1771279781.1146562,37.59765625,48.33984375,21.484375,23.4375,20.5078125
1771279781.1185625,48.828125,120.60546875,29.296875,34.66796875,34.66796875
1771279781.1224687,40.0390625,89.35546875,24.90234375,36.1328125,24.90234375
1771279781.126375,38.57421875,0.48828125,22.94921875,40.0390625,-22.94921875
1771279781.1302812,42.48046875,97.16796875,34.1796875,34.66796875,6.34765625
1771279781.1341875,38.0859375,140.625,33.69140625,39.0625,18.06640625
1771279781.1380937,40.52734375,78.125,27.34375,54.19921875,57.12890625
1771279781.139125,28.3203125,63.4765625,25.87890625,49.31640625,41.9921875
1771279781.1430314,19.04296875,90.8203125,23.4375,29.78515625,-2.44140625
1771279781.1469376,41.50390625,116.2109375,30.76171875,31.73828125,32.2265625
1771279781.1508439,58.59375,118.1640625,30.2734375,33.203125,8.30078125
1771279781.15475,37.59765625,92.28515625,28.3203125,23.4375,-7.32421875
1771279781.1586564,23.4375,52.24609375,23.4375,27.83203125,48.828125
1771279781.1625626,27.34375,103.02734375,20.01953125,36.1328125,90.8203125
1771279781.1664689,49.31640625,89.35546875,23.92578125,39.0625,83.49609375
1771279781.170375,31.73828125,56.640625,26.85546875,32.71484375,55.17578125
1771279781.1742814,25.87890625,99.609375,29.78515625,27.83203125,28.3203125
1771279781.1781876,36.1328125,77.63671875,29.78515625,32.71484375,0.48828125
1771279781.1820939,16.6015625,110.83984375,26.3671875,30.76171875,12.6953125
1771279781.186125,38.57421875,125.48828125,20.99609375,25.390625,49.8046875
1771279781.1900313,44.921875,73.73046875,15.13671875,17.578125,68.359375
1771279781.1939375,28.80859375,45.41015625,19.04296875,26.85546875,26.3671875
1771279781.1978438,26.3671875,81.0546875,23.92578125,42.96875,-5.859375
1771279781.20175,37.59765625,134.765625,25.87890625,36.62109375,18.5546875
1771279781.2056563,50.29296875,85.44921875,25.390625,38.0859375,57.12890625
1771279781.2095625,42.48046875,21.97265625,23.92578125,40.52734375,57.6171875
1771279781.2134688,33.69140625,39.0625,31.25,48.33984375,53.22265625
1771279781.217375,31.73828125,143.06640625,33.203125,46.38671875,30.2734375
1771279781.2212813,34.66796875,124.51171875,26.3671875,28.80859375,10.25390625
1771279781.2251875,23.4375,50.78125,21.484375,26.85546875,37.109375
1771279781.2290938,25.87890625,85.44921875,23.92578125,31.73828125,78.61328125
1771279781.230125,46.38671875,129.8828125,29.78515625,40.52734375,7.8125
1771279781.2340312,56.15234375,103.515625,25.87890625,42.96875,-45.8984375
1771279781.2379375,38.57421875,58.59375,21.484375,33.203125,8.7890625
1771279781.2418437,26.85546875,48.828125,19.04296875,22.94921875,1.953125
1771279781.24575,37.59765625,110.3515625,17.08984375,24.90234375,-8.30078125
1771279781.2496562,46.38671875,119.62890625,16.11328125,34.1796875,29.296875
1771279781.2535625,41.50390625,7.32421875,12.6953125,28.80859375,3.90625
1771279781.2574687,30.76171875,20.99609375,18.5546875,27.34375,16.11328125
1771279781.261375,33.203125,159.1796875,31.25,26.85546875,15.625
1771279781.2652812,22.4609375,168.9453125,29.296875,33.203125,70.3125
1771279781.2691875,19.04296875,86.9140625,21.97265625,38.57421875,42.96875
1771279781.2730937,33.69140625,76.66015625,18.06640625,46.38671875,26.85546875
1771279781.275125,42.48046875,112.3046875,22.4609375,51.26953125,48.33984375
1771279781.2790313,41.015625,116.69921875,23.92578125,40.52734375,15.13671875
1771279781.2829375,31.73828125,83.0078125,21.484375,27.83203125,13.671875
1771279781.2868438,31.25,73.2421875,24.90234375,20.01953125,6.8359375
1771279781.29075,42.48046875,91.796875,26.85546875,25.87890625,-9.27734375
1771279781.2946563,50.78125,96.19140625,22.94921875,36.62109375,63.96484375
1771279781.2985625,61.5234375,13.18359375,17.578125,37.59765625,53.7109375
1771279781.3024688,54.19921875,40.0390625,23.4375,35.15625,-29.78515625
1771279781.306375,41.015625,141.11328125,26.85546875,32.71484375,61.5234375
1771279781.3102813,34.66796875,129.39453125,19.53125,34.1796875,164.55078125
1771279781.3141875,22.94921875,106.4453125,20.99609375,40.0390625,64.453125
1771279781.3180938,34.1796875,96.6796875,24.4140625,33.203125,47.8515625
1771279781.334125,41.015625,73.73046875,22.94921875,36.1328125,38.57421875
1771279781.3380313,41.50390625,98.14453125,33.203125,50.78125,3.41796875
1771279781.3419375,46.875,133.30078125,36.1328125,53.22265625,63.4765625
1771279781.3458438,39.0625,92.7734375,25.390625,46.38671875,57.6171875
1771279781.34975,43.45703125,50.29296875,23.4375,41.9921875,-22.94921875
1771279781.3536563,51.26953125,21.484375,23.92578125,32.2265625,-38.57421875
1771279781.3575625,43.45703125,92.28515625,25.87890625,31.25,42.96875
1771279781.3614688,31.25,149.90234375,24.4140625,36.1328125,49.8046875
1771279781.365375,38.0859375,72.265625,16.11328125,27.83203125,76.66015625
1771279781.3692813,38.0859375,39.55078125,24.4140625,32.71484375,81.0546875
1771279781.3731875,48.33984375,119.140625,32.71484375,42.48046875,4.8828125
1771279781.3770938,53.7109375,158.69140625,27.34375,35.15625,43.9453125
1771279781.380125,31.25,68.84765625,19.53125,26.3671875,55.6640625
1771279781.3840313,26.3671875,45.41015625,14.6484375,23.4375,25.87890625
1771279781.3879375,28.3203125,118.65234375,21.484375,27.83203125,21.484375
1771279781.3918438,31.73828125,142.578125,24.4140625,36.1328125,51.26953125
1771279781.39575,38.0859375,66.40625,17.08984375,36.62109375,73.73046875
1771279781.3996563,39.55078125,-3.41796875,18.5546875,41.9921875,13.671875
1771279781.4035625,41.50390625,68.359375,25.87890625,39.0625,-8.7890625
1771279781.4074688,33.69140625,146.484375,24.90234375,33.69140625,-17.08984375
1771279781.411375,32.2265625,62.01171875,21.484375,37.109375,7.8125
1771279781.4152813,44.43359375,-6.34765625,22.94921875,28.80859375,0.48828125
1771279781.4191875,54.19921875,91.30859375,24.90234375,25.390625,20.99609375
1771279781.4230938,44.921875,148.4375,25.390625,35.64453125,66.89453125
1771279781.424125,29.296875,83.49609375,20.99609375,27.34375,13.18359375
1771279781.4280312,26.3671875,47.8515625,19.04296875,24.90234375,20.99609375
1771279781.4319375,31.73828125,109.375,26.85546875,35.64453125,54.6875
1771279781.4358437,29.78515625,128.41796875,21.97265625,36.62109375,11.71875
1771279781.43975,29.78515625,109.86328125,19.53125,52.24609375,3.41796875
1771279781.4436562,28.80859375,42.96875,18.5546875,30.2734375,14.16015625
1771279781.4475625,27.83203125,48.828125,15.625,12.20703125,8.7890625
1771279781.4514687,34.1796875,141.11328125,26.85546875,34.66796875,78.61328125
1771279781.455375,32.71484375,76.66015625,26.3671875,37.109375,64.453125
1771279781.4592812,32.71484375,46.38671875,19.53125,26.3671875,18.5546875
1771279781.4631875,41.50390625,108.88671875,21.484375,31.25,-12.6953125
1771279781.4670937,55.6640625,101.07421875,24.4140625,38.0859375,23.4375
1771279781.470125,70.3125,123.53515625,26.85546875,55.6640625,101.07421875
1771279781.4740312,58.10546875,105.46875,26.85546875,61.5234375,73.73046875
1771279781.4779375,23.4375,85.44921875,26.85546875,27.83203125,41.9921875
1771279781.4818437,12.20703125,81.54296875,22.4609375,26.85546875,44.921875
1771279781.48575,30.76171875,91.30859375,18.5546875,39.0625,61.5234375
1771279781.4896562,33.69140625,88.8671875,18.06640625,30.2734375,37.109375
1771279781.4935625,20.01953125,67.3828125,23.92578125,23.92578125,41.9921875
1771279781.4974687,20.01953125,52.24609375,25.390625,35.15625,56.15234375
1771279781.501375,26.85546875,55.17578125,25.390625,38.57421875,12.6953125
1771279781.5052812,32.71484375,150.390625,34.1796875,34.1796875,51.7578125
1771279781.5091875,35.15625,110.3515625,30.76171875,27.34375,58.59375
1771279781.5130937,33.203125,54.19921875,28.3203125,39.0625,54.19921875
1771279781.514125,30.76171875,104.4921875,32.71484375,41.9921875,54.19921875
1771279781.5180314,37.109375,135.7421875,34.1796875,34.66796875,9.27734375
1771279781.5219376,35.15625,101.07421875,32.2265625,32.2265625,60.546875
1771279781.5258439,22.4609375,46.38671875,25.390625,31.25,69.3359375
1771279781.52975,28.3203125,73.2421875,22.4609375,31.25,1.953125
1771279781.5336564,46.38671875,100.09765625,27.83203125,40.0390625,-12.20703125
1771279781.5375626,37.59765625,104.00390625,30.76171875,38.0859375,20.99609375
1771279781.5414689,21.484375,17.578125,26.85546875,15.625,46.38671875
1771279781.545375,30.2734375,23.4375,29.78515625,26.85546875,35.64453125
1771279781.5492814,33.203125,166.9921875,30.76171875,41.9921875,-3.41796875
1771279781.5531876,34.66796875,133.30078125,28.80859375,42.96875,17.578125
1771279781.5570939,41.015625,60.05859375,34.66796875,48.828125,20.01953125
1771279781.561125,43.9453125,76.66015625,32.71484375,48.33984375,-3.90625
1771279781.5650313,46.38671875,119.62890625,30.76171875,51.7578125,-15.13671875
1771279781.5689375,44.43359375,106.93359375,34.66796875,55.17578125,0.9765625
1771279781.5728438,39.55078125,63.4765625,23.92578125,37.59765625,37.59765625
1771279781.57675,20.99609375,61.5234375,14.16015625,26.85546875,13.18359375
1771279781.5806563,33.69140625,84.47265625,20.99609375,32.2265625,44.43359375
1771279781.5845625,44.921875,73.73046875,24.4140625,43.45703125,29.78515625
1771279781.5884688,44.921875,53.7109375,25.390625,38.0859375,24.4140625
1771279781.592375,52.24609375,95.21484375,26.3671875,28.80859375,57.6171875
1771279781.5962813,40.52734375,131.8359375,27.34375,44.43359375,52.734375
1771279781.6001875,35.15625,91.796875,23.4375,45.41015625,49.31640625
1771279781.6040938,50.29296875,56.640625,15.625,31.25,44.921875
1771279781.605125,46.875,97.65625,22.94921875,28.3203125,31.73828125
1771279781.6090312,30.76171875,95.21484375,25.87890625,31.73828125,-10.7421875
1771279781.6129375,37.59765625,116.69921875,28.80859375,32.2265625,8.30078125
1771279781.6168437,37.59765625,121.58203125,32.71484375,35.64453125,27.83203125
1771279781.62075,25.87890625,68.359375,22.4609375,37.109375,-35.64453125
1771279781.6246562,31.73828125,44.43359375,10.7421875,23.92578125,10.7421875
1771279781.6285625,35.15625,44.921875,18.06640625,24.90234375,39.55078125
1771279781.6324687,26.3671875,75.68359375,31.25,31.73828125,-2.44140625
1771279781.636375,20.5078125,107.91015625,28.80859375,23.4375,-7.8125
1771279781.6402812,18.5546875,91.796875,25.87890625,22.94921875,27.34375
1771279781.6441875,26.85546875,95.21484375,28.80859375,39.0625,16.11328125
1771279781.6480937,31.73828125,137.20703125,28.80859375,32.71484375,3.90625
1771279781.649125,41.50390625,121.09375,21.97265625,20.5078125,-11.71875
1771279781.6530313,61.5234375,69.3359375,17.578125,22.94921875,2.44140625
1771279781.6569376,50.29296875,74.70703125,24.4140625,33.69140625,25.87890625
1771279781.6608438,38.57421875,128.41796875,32.2265625,39.55078125,-2.44140625
1771279781.66475,31.73828125,121.09375,33.69140625,24.90234375,-15.13671875
1771279781.6686563,31.25,23.4375,28.3203125,35.64453125,52.24609375
1771279781.6725626,53.22265625,-17.08984375,27.34375,64.453125,10.25390625
1771279781.6764688,32.71484375,114.74609375,38.57421875,51.26953125,-38.0859375
1771279781.680375,14.16015625,164.0625,37.59765625,10.25390625,2.9296875
1771279781.6842813,4.8828125,75.68359375,29.296875,-19.53125,-13.671875
1771279781.6881876,-14.6484375,65.91796875,30.2734375,-22.4609375,14.6484375
1771279781.6920938,-22.4609375,148.4375,33.69140625,-40.52734375,34.1796875
1771279781.695125,-33.203125,171.875,28.80859375,-62.98828125,9.765625
1771279781.6990314,-60.546875,96.6796875,24.90234375,-76.66015625,54.19921875
1771279781.7029376,-73.73046875,74.70703125,29.296875,-104.98046875,41.015625
1771279781.7068439,-69.82421875,158.203125,40.52734375,-106.93359375,19.04296875
1771279781.71075,-75.68359375,189.453125,38.57421875,-107.421875,61.03515625
1771279781.7146564,-89.84375,135.25390625,37.59765625,-123.53515625,98.6328125
1771279781.7185626,-89.84375,112.79296875,37.59765625,-141.11328125,70.3125
1771279781.7224689,-109.86328125,159.1796875,35.64453125,-154.78515625,43.45703125
1771279781.726375,-122.0703125,206.54296875,34.1796875,-157.2265625,46.875
1771279781.7302814,-100.5859375,104.00390625,32.71484375,-158.69140625,31.25
1771279781.7341876,-122.0703125,83.984375,34.1796875,-170.8984375,65.91796875
1771279781.7380939,-136.71875,200.1953125,29.296875,-174.8046875,71.77734375
1771279781.755125,-125.0,216.30859375,30.76171875,-170.41015625,30.76171875
