timestamps,TP9,AF7,AF8,TP10,Right AUX
1771542026.202125,20.01953125,27.34375,19.04296875,41.015625,-1.46484375
1771542026.2060313,24.90234375,36.1328125,17.578125,41.015625,1.46484375
1771542026.2099376,80.56640625,41.015625,16.11328125,43.9453125,73.2421875
1771542026.2138438,95.703125,29.296875,13.671875,39.55078125,59.08203125
1771542026.21775,55.17578125,29.78515625,15.13671875,33.203125,43.45703125
1771542026.2216563,22.94921875,29.296875,14.6484375,23.4375,18.5546875
1771542026.2255626,52.734375,31.25,18.5546875,22.94921875,-7.8125
1771542026.2294688,90.8203125,34.1796875,23.92578125,25.87890625,21.97265625
1771542026.233375,57.6171875,29.296875,17.578125,19.04296875,38.0859375
1771542026.2372813,0.9765625,32.2265625,18.5546875,7.8125,-16.11328125
1771542026.2411876,19.53125,34.1796875,18.5546875,4.8828125,10.25390625
1771542026.2450938,63.4765625,25.390625,14.16015625,9.27734375,59.08203125
1771542026.247125,54.6875,26.3671875,19.04296875,16.11328125,86.9140625
1771542026.2510312,-2.44140625,27.83203125,15.13671875,4.8828125,61.03515625
1771542026.2549374,-4.39453125,28.3203125,16.11328125,-3.90625,35.64453125
1771542026.2588437,59.5703125,32.2265625,20.01953125,12.20703125,32.71484375
1771542026.26275,74.21875,35.15625,16.6015625,19.53125,5.859375
1771542026.2666562,26.3671875,33.69140625,18.5546875,11.23046875,33.69140625
1771542026.2705624,3.90625,29.296875,20.5078125,4.39453125,57.12890625
1771542026.2744687,37.59765625,20.99609375,16.6015625,6.34765625,5.37109375
1771542026.278375,68.84765625,32.71484375,17.578125,21.484375,-15.13671875
1771542026.2822812,32.71484375,35.64453125,15.13671875,19.04296875,8.30078125
1771542026.2861874,-9.27734375,24.4140625,14.16015625,1.46484375,13.671875
1771542026.2900937,34.66796875,30.2734375,12.6953125,9.27734375,18.06640625
1771542026.292125,74.21875,32.71484375,9.27734375,21.484375,36.62109375
1771542026.2960312,50.29296875,33.69140625,16.6015625,23.4375,54.19921875
1771542026.2999375,8.7890625,36.1328125,19.04296875,11.23046875,102.05078125
1771542026.3038437,22.94921875,34.66796875,11.71875,11.71875,102.5390625
1771542026.30775,71.77734375,31.73828125,8.7890625,34.1796875,51.7578125
1771542026.3116562,62.01171875,27.83203125,10.25390625,40.52734375,12.20703125
1771542026.3155625,0.48828125,36.62109375,16.11328125,27.34375,56.640625
1771542026.3194687,-5.37109375,28.80859375,12.20703125,23.4375,95.21484375
1771542026.323375,50.29296875,15.625,12.6953125,34.66796875,22.94921875
1771542026.3272812,66.40625,31.73828125,15.625,37.59765625,62.01171875
1771542026.3311875,28.80859375,29.296875,9.27734375,29.78515625,84.9609375
1771542026.3350937,5.859375,20.99609375,12.6953125,21.484375,27.34375
1771542026.337125,36.1328125,25.87890625,20.01953125,26.85546875,23.4375
1771542026.3410313,63.4765625,31.73828125,21.97265625,41.50390625,47.8515625
1771542026.3449376,35.64453125,34.1796875,19.53125,40.0390625,81.0546875
1771542026.3488438,0.48828125,17.578125,16.11328125,32.71484375,54.6875
1771542026.35275,23.92578125,12.20703125,22.94921875,41.50390625,52.734375
1771542026.3566563,66.40625,19.04296875,26.85546875,54.19921875,44.921875
1771542026.3605626,55.6640625,19.53125,26.85546875,59.5703125,0.48828125
1771542026.3644688,5.859375,19.53125,24.90234375,50.29296875,20.5078125
1771542026.368375,24.4140625,22.4609375,21.97265625,41.50390625,51.26953125
1771542026.3722813,82.03125,30.2734375,28.3203125,51.7578125,38.0859375
1771542026.3761876,67.3828125,30.2734375,28.3203125,57.6171875,44.921875
1771542026.3800938,4.39453125,25.87890625,27.83203125,46.875,52.24609375
1771542026.381125,-3.90625,25.87890625,30.2734375,53.7109375,30.2734375
1771542026.3850312,52.24609375,32.71484375,23.92578125,65.91796875,26.85546875
1771542026.3889375,69.3359375,23.4375,20.99609375,66.40625,41.015625
1771542026.3928437,25.87890625,20.99609375,21.484375,58.59375,-12.20703125
1771542026.39675,2.9296875,32.2265625,21.97265625,49.8046875,-24.90234375
1771542026.4006562,43.45703125,30.76171875,21.97265625,55.17578125,22.94921875
1771542026.4045625,86.42578125,27.34375,24.90234375,74.21875,48.33984375
1771542026.4084687,50.29296875,23.4375,25.390625,76.66015625,35.64453125
1771542026.412375,2.9296875,31.73828125,22.4609375,56.15234375,31.73828125
1771542026.4162812,22.94921875,33.203125,16.6015625,49.31640625,21.484375
1771542026.4201875,68.359375,24.90234375,11.23046875,57.6171875,17.578125
1771542026.4240937,64.94140625,27.83203125,19.53125,64.94140625,44.43359375
1771542026.427125,14.6484375,34.66796875,22.94921875,51.26953125,30.76171875
1771542026.4310312,17.578125,32.71484375,18.5546875,42.96875,44.43359375
1771542026.4349375,74.70703125,34.66796875,17.578125,55.6640625,23.4375
1771542026.4388437,86.42578125,36.1328125,20.5078125,61.03515625,20.99609375
1771542026.44275,40.0390625,33.203125,26.85546875,55.17578125,40.0390625
1771542026.4466562,28.80859375,33.203125,23.4375,55.17578125,-13.18359375
1771542026.4505625,71.2890625,31.25,16.11328125,59.08203125,-5.37109375
1771542026.4544687,81.0546875,20.99609375,14.6484375,55.6640625,62.98828125
1771542026.458375,39.55078125,26.3671875,19.53125,50.29296875,46.38671875
1771542026.4622812,8.30078125,36.62109375,20.5078125,47.36328125,45.41015625
1771542026.4661875,34.66796875,31.25,15.13671875,48.33984375,61.03515625
1771542026.4700937,76.66015625,26.85546875,12.20703125,52.24609375,38.0859375
1771542026.472125,57.12890625,32.2265625,13.671875,51.26953125,63.4765625
1771542026.4760313,7.8125,34.66796875,15.625,52.734375,64.453125
1771542026.4799376,23.4375,33.203125,23.92578125,54.6875,41.015625
1771542026.4838438,72.265625,33.69140625,20.99609375,57.12890625,69.82421875
1771542026.48775,71.77734375,31.73828125,11.71875,64.453125,152.34375
1771542026.4916563,27.34375,34.1796875,14.6484375,62.98828125,111.328125
1771542026.4955626,22.94921875,31.73828125,17.578125,53.22265625,53.22265625
1771542026.4994688,69.3359375,26.85546875,21.97265625,42.48046875,64.453125
1771542026.503375,79.1015625,30.76171875,21.97265625,45.41015625,20.01953125
1771542026.5072813,29.78515625,30.76171875,22.94921875,55.17578125,31.73828125
1771542026.5111876,12.20703125,33.69140625,24.90234375,49.8046875,32.71484375
1771542026.5150938,68.84765625,36.62109375,22.4609375,53.22265625,8.30078125
1771542026.517125,96.6796875,29.78515625,18.06640625,64.453125,-7.32421875
1771542026.5210311,53.7109375,33.203125,20.01953125,63.4765625,30.76171875
1771542026.5249374,15.625,35.64453125,21.97265625,52.24609375,39.55078125
1771542026.5288436,46.875,37.109375,22.4609375,53.22265625,26.3671875
1771542026.53275,85.44921875,36.1328125,20.5078125,63.4765625,29.78515625
1771542026.5366561,60.546875,22.94921875,17.08984375,59.08203125,53.7109375
1771542026.5405624,12.6953125,29.296875,19.53125,45.41015625,58.10546875
1771542026.5444686,23.92578125,43.45703125,18.06640625,46.875,37.59765625
1771542026.548375,69.82421875,36.1328125,15.625,56.15234375,81.0546875
1771542026.5522811,59.08203125,33.69140625,18.06640625,53.7109375,89.35546875
1771542026.5561874,11.23046875,42.96875,13.671875,42.48046875,32.2265625
1771542026.5600936,24.4140625,36.1328125,12.20703125,37.109375,2.44140625
1771542026.577125,79.1015625,37.109375,18.5546875,47.36328125,38.57421875
1771542026.5810313,78.125,42.96875,17.578125,62.01171875,50.29296875
1771542026.5849376,26.85546875,34.66796875,15.625,53.7109375,43.9453125
1771542026.5888438,8.7890625,37.59765625,19.04296875,40.0390625,49.8046875
1771542026.59275,53.22265625,36.62109375,17.08984375,45.8984375,47.36328125
1771542026.5966563,83.49609375,22.94921875,10.25390625,54.6875,44.43359375
1771542026.6005626,47.8515625,28.3203125,10.25390625,48.33984375,41.50390625
1771542026.6044688,8.30078125,39.0625,20.99609375,33.203125,11.71875
1771542026.608375,28.3203125,29.78515625,20.99609375,31.25,49.8046875
1771542026.6122813,82.51953125,38.0859375,18.06640625,48.828125,25.87890625
1771542026.6161876,62.98828125,53.22265625,25.390625,48.33984375,-47.8515625
1771542026.6200938,2.9296875,39.0625,25.87890625,30.2734375,34.66796875
1771542026.621125,19.53125,31.73828125,21.97265625,33.69140625,38.0859375
1771542026.6250312,60.05859375,30.76171875,21.484375,45.41015625,22.94921875
1771542026.6289375,62.98828125,36.62109375,17.578125,43.9453125,49.31640625
1771542026.6328437,22.4609375,39.55078125,14.6484375,32.71484375,45.8984375
1771542026.63675,11.71875,31.73828125,21.97265625,29.78515625,48.33984375
1771542026.6406562,51.7578125,29.78515625,27.83203125,44.921875,64.453125
1771542026.6445625,62.5,40.52734375,27.83203125,57.12890625,86.42578125
1771542026.6484687,16.11328125,37.59765625,24.4140625,48.33984375,-6.34765625
1771542026.652375,-6.8359375,25.390625,23.92578125,43.45703125,-3.90625
1771542026.6562812,26.85546875,23.4375,22.4609375,40.52734375,94.23828125
1771542026.6601875,58.10546875,31.25,25.87890625,37.109375,78.125
1771542026.6640937,40.52734375,31.25,25.87890625,42.96875,57.12890625
1771542026.667125,0.9765625,32.2265625,20.99609375,32.2265625,23.4375
1771542026.6710312,22.4609375,31.73828125,24.90234375,36.1328125,16.11328125
1771542026.6749375,72.265625,30.76171875,28.3203125,54.6875,40.52734375
1771542026.6788437,62.98828125,51.7578125,26.85546875,53.22265625,56.15234375
1771542026.68275,9.27734375,50.78125,17.08984375,40.0390625,30.76171875
1771542026.6866562,5.859375,25.87890625,12.6953125,33.203125,-9.27734375
1771542026.6905625,61.03515625,30.2734375,18.06640625,39.0625,62.5
1771542026.6944687,61.5234375,32.2265625,16.6015625,42.96875,67.3828125
1771542026.698375,-4.8828125,20.01953125,20.01953125,38.57421875,-1.953125
1771542026.7022812,-17.08984375,21.97265625,25.390625,28.3203125,3.90625
1771542026.7061875,37.59765625,39.0625,21.484375,32.2265625,-16.11328125
1771542026.7100937,72.265625,45.41015625,22.4609375,42.48046875,11.23046875
1771542026.727125,20.01953125,47.36328125,26.3671875,33.203125,80.56640625
1771542026.7310312,-14.6484375,43.45703125,19.04296875,25.87890625,35.64453125
1771542026.7349374,27.34375,32.2265625,16.6015625,25.87890625,20.99609375
1771542026.7388437,59.5703125,32.2265625,21.484375,27.34375,94.7265625
1771542026.74275,32.71484375,32.2265625,22.94921875,33.69140625,50.78125
1771542026.7466562,-15.625,39.0625,21.97265625,25.390625,56.640625
1771542026.7505624,11.23046875,43.9453125,20.5078125,20.99609375,69.82421875
1771542026.7544687,55.17578125,28.80859375,19.04296875,33.69140625,42.48046875
1771542026.758375,46.38671875,27.83203125,19.04296875,33.203125,62.5
1771542026.7622812,2.44140625,46.875,23.4375,21.97265625,53.22265625
1771542026.7661874,0.48828125,39.0625,19.04296875,20.01953125,18.5546875
1771542026.7700937,52.24609375,21.97265625,19.53125,25.390625,7.32421875
1771542026.757125,57.12890625,35.15625,19.04296875,25.87890625,59.08203125
1771542026.7610312,-0.9765625,43.9453125,14.16015625,21.484375,107.421875
1771542026.7649374,-7.8125,36.1328125,17.578125,16.6015625,105.95703125
1771542026.7688437,45.8984375,32.2265625,18.06640625,20.5078125,23.92578125
1771542026.77275,65.91796875,37.59765625,18.06640625,30.2734375,-4.8828125
1771542026.7766562,17.578125,35.64453125,21.97265625,31.73828125,36.1328125
1771542026.7805624,-6.34765625,38.57421875,16.6015625,22.94921875,52.734375
1771542026.7844687,35.64453125,48.828125,11.71875,21.97265625,29.78515625
1771542026.788375,52.734375,43.9453125,14.16015625,28.3203125,90.33203125
1771542026.7922812,27.83203125,34.1796875,16.11328125,23.92578125,83.984375
1771542026.7961874,-16.11328125,30.2734375,20.99609375,15.13671875,40.52734375
1771542026.8000937,-1.953125,24.4140625,17.578125,13.18359375,77.1484375
1771542026.802125,50.29296875,32.71484375,16.11328125,17.08984375,67.3828125
1771542026.8060312,35.64453125,41.50390625,23.92578125,31.73828125,-3.41796875
1771542026.8099375,-4.8828125,49.31640625,25.87890625,35.15625,-6.8359375
1771542026.8138437,-0.9765625,41.50390625,17.578125,29.78515625,-7.32421875
1771542026.81775,47.36328125,26.3671875,15.13671875,32.2265625,-17.08984375
1771542026.8216562,68.359375,30.2734375,15.625,40.0390625,38.57421875
1771542026.8255625,21.97265625,25.87890625,17.08984375,42.96875,14.16015625
1771542026.8294687,-0.9765625,27.83203125,26.3671875,34.66796875,9.27734375
1771542026.833375,37.59765625,37.59765625,24.4140625,33.69140625,67.3828125
1771542026.8372812,72.75390625,41.50390625,20.5078125,52.24609375,47.36328125
1771542026.8411875,45.8984375,36.62109375,22.4609375,54.6875,51.7578125
1771542026.8450937,20.99609375,40.52734375,23.92578125,46.875,69.3359375
1771542026.847125,42.96875,34.66796875,20.5078125,41.9921875,73.73046875
1771542026.8510313,79.1015625,21.484375,13.18359375,37.59765625,8.7890625
1771542026.8549376,57.6171875,24.4140625,19.04296875,40.52734375,-18.5546875
1771542026.8588438,20.01953125,28.80859375,24.4140625,42.48046875,33.69140625
1771542026.86275,36.1328125,31.25,20.99609375,39.0625,-25.87890625
1771542026.8666563,67.3828125,32.71484375,15.13671875,43.9453125,-7.32421875
1771542026.8705626,67.3828125,23.92578125,20.5078125,56.640625,41.015625
1771542026.8744688,18.06640625,17.08984375,31.25,41.015625,41.50390625
1771542026.878375,6.8359375,28.80859375,36.1328125,23.92578125,4.8828125
1771542026.8822813,52.24609375,23.92578125,25.390625,38.57421875,16.11328125
1771542026.8861876,60.546875,15.13671875,15.13671875,44.43359375,66.40625
1771542026.8900938,13.18359375,20.5078125,26.85546875,31.25,23.92578125
1771542026.906125,-14.6484375,24.90234375,34.66796875,20.01953125,-7.32421875
1771542026.9100313,18.5546875,23.92578125,35.64453125,31.73828125,-3.41796875
1771542026.9139376,50.78125,28.80859375,34.66796875,39.55078125,20.99609375
1771542026.9178438,20.01953125,25.390625,32.2265625,37.59765625,33.203125
1771542026.92175,-7.32421875,27.34375,33.69140625,37.109375,39.0625
1771542026.9256563,22.4609375,27.34375,28.80859375,34.1796875,93.26171875
1771542026.9295626,64.453125,17.08984375,24.90234375,38.57421875,74.21875
1771542026.9334688,61.5234375,20.99609375,26.85546875,42.96875,37.59765625
1771542026.937375,17.08984375,34.1796875,23.4375,35.64453125,22.94921875
1771542026.9412813,26.3671875,39.55078125,25.87890625,37.109375,45.41015625
1771542026.9451876,75.68359375,37.109375,23.4375,46.875,62.5
1771542026.9490938,73.2421875,45.41015625,21.97265625,49.8046875,71.77734375
1771542026.952125,28.80859375,41.50390625,22.94921875,47.8515625,20.01953125
1771542026.9560313,23.4375,39.0625,21.484375,41.50390625,30.76171875
1771542026.9599376,70.3125,45.41015625,17.08984375,31.25,34.66796875
1771542026.9638438,75.1953125,44.43359375,15.13671875,32.71484375,4.8828125
1771542026.96775,8.7890625,46.38671875,19.53125,35.15625,5.37109375
1771542026.9716563,-21.97265625,41.015625,16.6015625,24.90234375,14.6484375
1771542026.9755626,26.85546875,35.15625,15.13671875,21.484375,47.36328125
1771542026.9794688,61.5234375,35.15625,16.6015625,25.390625,63.4765625
1771542026.983375,27.83203125,39.0625,14.16015625,28.3203125,23.92578125
1771542026.9872813,-21.97265625,29.78515625,13.671875,18.5546875,46.38671875
1771542026.9911876,7.32421875,33.69140625,23.4375,26.3671875,71.77734375
1771542026.9950938,58.59375,39.55078125,26.85546875,33.203125,54.6875
1771542026.997125,38.57421875,29.296875,18.5546875,20.5078125,30.2734375
1771542027.0010312,-14.6484375,32.71484375,17.578125,17.578125,9.765625
1771542027.0049374,-2.9296875,36.1328125,20.99609375,23.4375,-12.20703125
1771542027.0088437,41.015625,28.3203125,24.90234375,31.25,23.4375
1771542027.01275,47.36328125,34.1796875,25.390625,30.76171875,67.3828125
1771542027.0166562,3.90625,35.15625,20.5078125,25.87890625,36.1328125
1771542027.0205624,-11.71875,24.4140625,20.5078125,25.390625,3.90625
1771542027.0244687,40.0390625,31.73828125,27.83203125,33.69140625,14.6484375
1771542027.028375,68.359375,28.3203125,20.5078125,46.38671875,74.21875
1771542027.0322812,26.3671875,31.73828125,11.71875,28.3203125,61.5234375
1771542027.0361874,0.0,37.109375,22.94921875,20.01953125,3.90625
1771542027.0400937,40.0390625,40.52734375,28.80859375,37.59765625,50.78125
1771542027.042125,83.0078125,32.71484375,23.4375,49.31640625,7.8125
1771542027.0460312,54.6875,27.34375,20.01953125,51.26953125,-0.9765625
1771542027.0499375,7.8125,33.203125,20.01953125,42.48046875,41.015625
1771542027.0538437,39.0625,34.1796875,24.90234375,34.66796875,21.97265625
1771542027.05775,75.68359375,32.71484375,21.97265625,41.9921875,85.44921875
1771542027.0616562,58.59375,24.4140625,14.6484375,47.8515625,58.10546875
1771542027.0655625,19.53125,34.66796875,20.99609375,42.96875,79.1015625
1771542027.0694687,20.99609375,42.48046875,17.578125,37.109375,116.69921875
1771542027.073375,64.453125,30.76171875,8.7890625,34.1796875,17.578125
1771542027.0772812,74.70703125,39.0625,18.5546875,38.0859375,12.6953125
1771542027.0811875,11.23046875,38.0859375,21.97265625,35.15625,26.85546875
1771542027.0850937,-1.953125,29.78515625,19.04296875,27.83203125,-16.6015625
1771542027.087125,55.17578125,34.1796875,19.04296875,38.57421875,-16.11328125
1771542027.0910313,63.96484375,37.109375,22.4609375,48.828125,-14.6484375
1771542027.0949376,28.80859375,31.25,20.99609375,43.45703125,22.94921875
1771542027.0988438,2.44140625,28.80859375,18.5546875,39.55078125,46.38671875
1771542027.10275,32.2265625,37.59765625,23.92578125,34.66796875,67.3828125
1771542027.1066563,74.21875,44.921875,21.97265625,35.64453125,99.12109375
1771542027.1105626,44.43359375,37.59765625,8.7890625,39.55078125,5.859375
1771542027.1144688,0.48828125,26.3671875,8.30078125,33.203125,-19.04296875
1771542027.118375,18.5546875,30.2734375,16.6015625,29.296875,70.3125
1771542027.1222813,62.98828125,33.69140625,19.53125,32.2265625,56.640625
1771542027.1261876,57.6171875,32.2265625,20.5078125,36.62109375,22.94921875
1771542027.1300938,11.23046875,39.0625,25.390625,34.66796875,26.85546875
1771542027.132125,12.20703125,37.59765625,20.5078125,28.3203125,8.30078125
1771542027.1360312,63.96484375,44.43359375,12.6953125,32.2265625,92.7734375
1771542027.1399374,74.21875,45.8984375,14.16015625,37.109375,85.9375
1771542027.1438437,17.08984375,32.2265625,19.04296875,25.390625,-26.3671875
1771542027.14775,-7.32421875,35.15625,23.92578125,19.53125,19.53125
1771542027.1516562,29.296875,34.1796875,21.484375,26.85546875,44.43359375
1771542027.1555624,53.22265625,33.203125,20.99609375,32.71484375,67.3828125
1771542027.1594687,16.11328125,33.203125,21.97265625,29.78515625,62.5
1771542027.163375,-18.06640625,43.45703125,23.4375,21.484375,79.1015625
1771542027.1672812,10.7421875,39.0625,18.06640625,14.6484375,32.2265625
1771542027.1711874,51.26953125,27.83203125,18.5546875,27.34375,22.4609375
1771542027.1750937,47.8515625,43.45703125,20.01953125,31.73828125,69.82421875
1771542027.177125,5.37109375,46.875,18.5546875,22.94921875,54.19921875
1771542027.1810312,8.7890625,29.296875,15.13671875,17.578125,17.08984375
1771542027.1849375,46.38671875,26.3671875,6.8359375,22.4609375,28.80859375
1771542027.1888437,39.55078125,33.203125,8.30078125,27.34375,47.36328125
1771542027.19275,-1.953125,37.59765625,16.6015625,17.08984375,5.37109375
1771542027.1966562,-5.37109375,34.66796875,19.04296875,14.16015625,49.8046875
1771542027.2005625,40.52734375,41.50390625,18.06640625,23.92578125,84.9609375
1771542027.2044687,44.921875,42.96875,15.13671875,23.4375,23.92578125
1771542027.208375,-7.8125,25.87890625,12.6953125,19.04296875,56.640625
1771542027.2122812,-5.859375,22.4609375,15.13671875,35.15625,11.23046875
1771542027.2161875,48.33984375,38.0859375,14.16015625,43.45703125,-37.109375
1771542027.2200937,54.6875,47.8515625,11.71875,27.34375,12.6953125
1771542027.223125,-20.01953125,41.9921875,16.6015625,0.9765625,9.27734375
1771542027.2270312,-79.1015625,48.33984375,22.4609375,-34.1796875,0.9765625
1771542027.2309375,-74.70703125,53.7109375,20.99609375,-51.26953125,30.76171875
1771542027.2348437,-56.15234375,44.921875,18.06640625,-47.36328125,48.828125
1771542027.23875,-90.33203125,41.50390625,18.06640625,-65.4296875,44.43359375
1771542027.2426562,-139.16015625,50.78125,21.484375,-80.56640625,74.21875
1771542027.2465625,-114.2578125,47.8515625,11.23046875,-83.0078125,74.70703125
1771542027.2504687,-66.40625,38.0859375,2.9296875,-81.0546875,56.640625
1771542027.254375,-44.921875,44.43359375,10.7421875,-60.546875,48.828125
1771542027.2582812,-76.66015625,47.36328125,15.625,-43.9453125,41.015625
1771542027.2621875,-87.890625,46.875,13.671875,-40.0390625,-26.3671875
1771542027.2660937,-34.1796875,42.96875,13.18359375,-37.59765625,56.640625
1771542027.282125,-10.25390625,35.64453125,10.7421875,-33.203125,98.6328125
1771542027.2860312,-48.33984375,40.0390625,10.25390625,-28.3203125,52.734375
1771542027.2899375,-69.82421875,43.9453125,13.18359375,-27.34375,20.5078125
1771542027.2938437,-31.25,31.73828125,7.8125,-23.4375,-8.30078125
1771542027.29775,6.34765625,31.73828125,9.765625,-9.27734375,33.203125
1771542027.3016562,-12.20703125,34.1796875,15.625,0.48828125,11.23046875
1771542027.3055625,-48.828125,32.71484375,13.18359375,-0.48828125,-12.20703125
1771542027.3094687,-27.83203125,34.1796875,19.04296875,-1.46484375,37.109375
1771542027.313375,20.01953125,36.1328125,15.13671875,10.25390625,50.29296875
1771542027.3172812,13.671875,38.0859375,2.9296875,16.6015625,31.25
1771542027.3211875,-35.15625,29.78515625,8.30078125,13.18359375,-0.9765625
1771542027.3250937,-35.64453125,29.78515625,18.06640625,3.41796875,-1.953125
1771542027.327125,21.97265625,39.55078125,13.18359375,5.37109375,39.0625
1771542027.3310313,39.0625,43.45703125,11.23046875,14.16015625,37.109375
1771542027.3349376,-16.11328125,40.0390625,16.11328125,6.34765625,70.80078125
1771542027.3388438,-34.66796875,34.1796875,17.578125,0.9765625,84.9609375
1771542027.34275,4.8828125,29.78515625,15.625,8.7890625,47.8515625
1771542027.3466563,32.2265625,37.109375,16.6015625,20.01953125,57.6171875
1771542027.3505626,0.0,45.41015625,18.06640625,13.671875,69.82421875
1771542027.3544688,-35.15625,37.109375,15.625,0.9765625,62.01171875
1771542027.358375,8.30078125,28.3203125,19.53125,8.7890625,22.94921875
1771542027.3622813,51.26953125,30.76171875,14.6484375,18.06640625,-62.98828125
1771542027.3661876,17.08984375,39.55078125,12.20703125,15.13671875,49.8046875
1771542027.3700938,-19.53125,37.109375,18.06640625,0.48828125,101.5625
1771542027.371125,-0.9765625,27.34375,17.578125,1.46484375,13.18359375
1771542027.3750312,21.97265625,27.34375,17.578125,11.23046875,53.22265625
1771542027.3789375,22.94921875,34.1796875,18.5546875,10.7421875,64.94140625
1771542027.3828437,-16.6015625,39.55078125,19.53125,8.7890625,25.390625
1771542027.38675,-19.53125,44.921875,19.53125,5.37109375,67.3828125
1771542027.3906562,26.3671875,30.76171875,18.06640625,8.7890625,34.66796875
1771542027.3945625,45.41015625,24.90234375,14.16015625,14.6484375,17.578125
1771542027.3984687,1.46484375,31.73828125,10.7421875,8.30078125,41.015625
1771542027.402375,-20.99609375,28.3203125,9.27734375,3.41796875,36.1328125
1771542027.4062812,27.83203125,28.80859375,20.99609375,9.27734375,48.828125
1771542027.4101875,54.6875,35.64453125,24.90234375,18.06640625,36.1328125
1771542027.4140937,21.484375,39.55078125,16.11328125,22.94921875,48.828125
1771542027.418125,-12.20703125,33.203125,17.08984375,19.53125,40.0390625
1771542027.4220312,21.97265625,31.73828125,12.20703125,23.4375,38.57421875
1771542027.4259374,66.89453125,36.62109375,10.7421875,24.90234375,49.31640625
1771542027.4298437,39.55078125,40.52734375,18.06640625,29.78515625,49.31640625
1771542027.43375,-4.39453125,38.0859375,12.6953125,26.3671875,56.640625
1771542027.4376562,8.30078125,34.1796875,14.16015625,19.53125,52.734375
1771542027.4415624,52.734375,33.203125,20.99609375,27.34375,44.43359375
1771542027.4454687,47.8515625,26.3671875,20.5078125,34.66796875,48.828125
1771542027.449375,4.39453125,25.87890625,25.87890625,21.97265625,56.640625
1771542027.4532812,0.9765625,30.2734375,28.80859375,9.27734375,93.26171875
1771542027.4571874,36.1328125,34.66796875,21.97265625,11.71875,83.984375
1771542027.4610937,52.24609375,40.0390625,18.06640625,17.08984375,45.41015625
1771542027.462125,11.71875,40.52734375,20.01953125,16.6015625,6.34765625
1771542027.4660313,-17.08984375,39.55078125,20.01953125,11.71875,9.27734375
1771542027.4699376,25.87890625,32.71484375,16.6015625,12.6953125,32.2265625
1771542027.4738438,63.4765625,27.83203125,19.04296875,20.5078125,55.6640625
1771542027.47775,16.6015625,30.76171875,18.5546875,17.08984375,43.9453125
1771542027.4816563,-17.08984375,32.71484375,20.5078125,14.16015625,40.0390625
1771542027.4855626,15.625,39.0625,20.01953125,11.71875,1.953125
1771542027.4894688,45.41015625,28.80859375,19.53125,17.08984375,24.4140625
1771542027.493375,44.43359375,31.25,29.296875,26.3671875,74.70703125
1771542027.4972813,-0.9765625,47.8515625,28.80859375,16.11328125,85.44921875
1771542027.5011876,8.7890625,35.64453125,23.92578125,23.4375,72.265625
1771542027.5050938,59.5703125,27.83203125,25.87890625,34.66796875,50.29296875
1771542027.506125,56.15234375,33.203125,23.92578125,34.66796875,85.9375
1771542027.5100312,7.32421875,35.64453125,19.04296875,27.83203125,46.875
1771542027.5139375,-5.859375,37.109375,19.53125,19.04296875,47.8515625
1771542027.5178437,41.50390625,47.8515625,27.34375,36.1328125,70.80078125
1771542027.52175,59.5703125,46.38671875,34.66796875,43.45703125,87.890625
1771542027.5256562,9.765625,26.85546875,25.390625,28.80859375,101.5625
1771542027.5295625,-12.6953125,23.92578125,20.01953125,25.390625,47.36328125
1771542027.5334687,26.3671875,21.484375,19.04296875,24.90234375,13.671875
1771542027.537375,61.5234375,29.78515625,20.01953125,27.83203125,33.203125
1771542027.5412812,31.73828125,42.48046875,19.53125,25.87890625,74.70703125
1771542027.5451875,-2.44140625,41.9921875,17.578125,21.484375,92.28515625
1771542027.5490937,21.484375,34.66796875,21.484375,18.06640625,36.1328125
1771542027.551125,61.5234375,40.52734375,25.87890625,27.34375,12.20703125
1771542027.5550313,59.5703125,41.9921875,27.83203125,32.71484375,16.6015625
1771542027.5589375,7.8125,46.875,23.4375,18.5546875,-4.39453125
1771542027.5628438,0.9765625,43.45703125,23.4375,19.04296875,15.13671875
1771542027.56675,47.8515625,21.97265625,22.94921875,24.4140625,0.0
1771542027.5706563,54.19921875,29.78515625,21.97265625,32.2265625,37.59765625
1771542027.5745625,17.08984375,32.2265625,18.06640625,34.66796875,68.359375
1771542027.5784688,2.44140625,28.80859375,15.625,23.92578125,47.36328125
1771542027.582375,37.109375,40.52734375,19.53125,22.94921875,43.45703125
1771542027.5862813,63.96484375,41.9921875,18.5546875,29.296875,-8.30078125
1771542027.5901875,20.01953125,33.203125,20.5078125,26.85546875,17.578125
1771542027.5940938,-9.765625,35.15625,28.3203125,19.53125,62.01171875
1771542027.596125,37.109375,37.59765625,24.90234375,22.4609375,21.97265625
1771542027.6000311,73.73046875,44.43359375,20.99609375,33.203125,18.5546875
1771542027.6039374,45.8984375,41.015625,19.04296875,30.2734375,25.390625
1771542027.6078436,4.39453125,38.57421875,22.94921875,24.90234375,54.6875
1771542027.61175,24.4140625,36.62109375,20.99609375,24.4140625,69.3359375
1771542027.6156561,72.75390625,38.57421875,13.18359375,29.296875,12.20703125
1771542027.6195624,62.5,36.1328125,15.13671875,31.25,-23.4375
1771542027.6234686,0.0,33.69140625,25.390625,26.3671875,-5.37109375
1771542027.627375,-7.32421875,34.66796875,27.83203125,25.87890625,29.78515625
1771542027.6312811,49.31640625,30.76171875,23.4375,39.0625,15.13671875
1771542027.6351874,72.265625,40.52734375,23.92578125,46.875,7.32421875
1771542027.6390936,31.25,41.50390625,21.484375,34.66796875,40.0390625
1771542027.642125,-0.48828125,31.73828125,17.578125,24.90234375,44.43359375
1771542027.6460311,45.8984375,36.62109375,23.4375,36.1328125,31.25
1771542027.6499374,73.73046875,34.66796875,25.390625,41.50390625,47.36328125
1771542027.6538436,31.73828125,35.64453125,22.94921875,30.76171875,10.7421875
1771542027.65775,9.27734375,38.0859375,22.4609375,23.92578125,24.4140625
1771542027.6616561,48.33984375,31.73828125,15.13671875,33.69140625,31.25
1771542027.6655624,89.35546875,40.0390625,7.8125,42.96875,62.01171875
1771542027.6694686,69.82421875,49.8046875,17.08984375,44.921875,100.09765625
1771542027.673375,9.765625,32.71484375,30.76171875,37.109375,61.5234375
1771542027.6772811,3.90625,21.484375,36.62109375,28.3203125,41.50390625
1771542027.6811874,64.453125,32.71484375,34.66796875,45.8984375,32.2265625
1771542027.6850936,67.87109375,30.2734375,26.85546875,52.24609375,63.4765625
1771542027.702125,16.6015625,20.01953125,24.4140625,48.33984375,45.8984375
1771542027.7060313,16.11328125,29.78515625,26.85546875,49.31640625,59.08203125
1771542027.7099376,61.5234375,31.73828125,25.87890625,44.43359375,42.48046875
1771542027.7138438,71.77734375,27.34375,24.90234375,47.36328125,9.27734375
1771542027.71775,35.15625,34.1796875,29.296875,47.36328125,70.80078125
1771542027.7216563,15.13671875,31.25,31.25,42.48046875,26.85546875
1771542027.7255626,44.43359375,24.4140625,29.296875,36.62109375,-9.765625
1771542027.7294688,77.63671875,31.73828125,26.3671875,37.109375,15.625
1771542027.733375,39.55078125,27.83203125,24.4140625,44.921875,34.1796875
1771542027.7372813,7.8125,32.2265625,23.92578125,42.48046875,51.26953125
1771542027.7411876,35.64453125,39.55078125,19.53125,37.59765625,20.5078125
1771542027.7450938,66.40625,24.90234375,19.53125,40.0390625,-17.578125
1771542027.746125,58.10546875,28.3203125,21.97265625,46.875,8.30078125
1771542027.7500312,16.11328125,38.57421875,21.484375,39.55078125,69.3359375
1771542027.7539375,30.76171875,39.0625,19.04296875,36.1328125,25.87890625
1771542027.7578437,78.61328125,36.62109375,23.4375,42.48046875,-0.48828125
1771542027.76175,77.63671875,39.0625,28.80859375,43.45703125,45.41015625
1771542027.7656562,31.25,38.57421875,23.4375,34.1796875,31.73828125
1771542027.7695625,24.90234375,41.015625,26.3671875,32.71484375,13.671875
1771542027.7734687,63.96484375,35.64453125,25.390625,36.62109375,34.66796875
1771542027.777375,78.61328125,26.3671875,20.5078125,44.43359375,58.10546875
1771542027.7812812,36.1328125,30.2734375,19.53125,40.52734375,46.875
1771542027.7851875,15.13671875,33.69140625,21.484375,26.3671875,-5.37109375
1771542027.7890937,57.12890625,36.1328125,21.484375,28.3203125,-5.859375
1771542027.792125,85.9375,34.1796875,20.99609375,39.0625,26.3671875
1771542027.7960312,57.12890625,30.2734375,20.5078125,28.80859375,37.109375
1771542027.7999375,16.6015625,30.76171875,22.94921875,22.94921875,23.92578125
1771542027.8038437,40.52734375,35.15625,22.94921875,37.109375,46.38671875
1771542027.80775,80.56640625,45.41015625,18.5546875,45.8984375,67.3828125
1771542027.8116562,68.84765625,38.0859375,23.4375,45.8984375,64.453125
1771542027.8155625,24.90234375,29.296875,19.04296875,35.64453125,76.66015625
1771542027.8194687,29.296875,33.69140625,7.8125,32.2265625,42.96875
1771542027.823375,76.171875,29.296875,14.6484375,40.52734375,-10.7421875
1771542027.8272812,70.80078125,28.3203125,29.78515625,45.8984375,-21.484375
1771542027.8311875,16.6015625,35.64453125,31.25,30.2734375,22.4609375
1771542027.8350937,8.7890625,38.0859375,24.4140625,28.3203125,64.94140625
1771542027.836125,51.26953125,37.59765625,23.92578125,37.109375,44.43359375
1771542027.8400311,75.68359375,36.1328125,24.90234375,39.0625,-1.46484375
1771542027.8439374,39.55078125,39.55078125,21.97265625,32.71484375,5.37109375
1771542027.8478436,3.41796875,38.57421875,13.18359375,21.97265625,33.203125
1771542027.85175,39.55078125,31.25,17.08984375,25.390625,43.9453125
1771542027.8556561,79.1015625,35.15625,24.90234375,38.0859375,9.765625
1771542027.8595624,47.8515625,34.1796875,26.85546875,41.015625,29.296875
1771542027.8634686,5.859375,20.01953125,26.85546875,38.57421875,24.4140625
1771542027.867375,22.94921875,25.390625,23.4375,32.71484375,22.4609375
1771542027.8712811,65.4296875,36.1328125,22.94921875,34.1796875,34.1796875
1771542027.8751874,62.98828125,41.015625,20.99609375,42.48046875,-15.13671875
1771542027.8790936,12.6953125,39.0625,20.99609375,28.3203125,-1.46484375
1771542027.881125,14.6484375,39.0625,20.5078125,19.53125,65.91796875
1771542027.8850312,63.96484375,38.0859375,23.4375,24.4140625,48.33984375
1771542027.8889375,69.82421875,32.2265625,26.85546875,27.83203125,19.04296875
1771542027.8928437,24.90234375,43.45703125,28.3203125,28.80859375,79.58984375
1771542027.89675,13.18359375,45.41015625,28.80859375,30.76171875,59.5703125
1771542027.9006562,54.19921875,30.2734375,22.4609375,32.71484375,74.70703125
1771542027.9045625,83.984375,32.2265625,21.484375,42.48046875,41.9921875
1771542027.9084687,42.96875,28.80859375,23.92578125,42.96875,14.6484375
1771542027.912375,4.39453125,26.3671875,23.92578125,27.83203125,26.85546875
1771542027.9162812,38.0859375,29.296875,20.5078125,28.80859375,28.80859375
1771542027.9201875,79.1015625,34.66796875,17.08984375,37.109375,50.78125
1771542027.9240937,61.03515625,40.0390625,17.08984375,34.1796875,46.38671875
1771542027.927125,18.06640625,42.96875,23.92578125,23.92578125,15.625
1771542027.9310312,22.94921875,41.50390625,23.92578125,16.6015625,12.6953125
1771542027.9349375,67.3828125,41.9921875,22.4609375,29.78515625,65.4296875
1771542027.9388437,66.40625,42.96875,20.01953125,34.66796875,69.82421875
1771542027.94275,21.484375,41.015625,16.11328125,21.97265625,85.9375
1771542027.9466562,17.578125,36.1328125,22.94921875,27.34375,42.96875
1771542027.9505625,52.24609375,27.34375,23.4375,31.73828125,-0.48828125
1771542027.9544687,53.7109375,35.15625,27.34375,29.78515625,1.953125
1771542027.958375,5.37109375,43.9453125,31.25,20.5078125,48.33984375
1771542027.9622812,-12.20703125,38.0859375,17.08984375,15.625,89.35546875
1771542027.9661875,23.92578125,34.1796875,15.625,21.484375,77.63671875
1771542027.9700937,60.05859375,36.62109375,20.99609375,27.34375,88.8671875
1771542027.972125,34.66796875,40.0390625,21.97265625,30.76171875,75.1953125
1771542027.9760313,-10.25390625,32.2265625,23.4375,19.04296875,66.40625
1771542027.9799376,21.97265625,36.62109375,18.5546875,20.01953125,48.33984375
1771542027.9838438,73.73046875,47.36328125,16.6015625,30.76171875,7.8125
1771542027.98775,54.19921875,37.109375,23.92578125,29.78515625,24.90234375
1771542027.9916563,9.27734375,30.2734375,23.92578125,26.3671875,53.7109375
1771542027.9955626,21.484375,25.390625,18.5546875,29.296875,64.453125
1771542027.9994688,60.546875,35.15625,20.01953125,31.73828125,44.43359375
1771542028.003375,61.5234375,47.8515625,22.4609375,34.66796875,5.859375
1771542028.0072813,16.11328125,39.55078125,22.4609375,37.109375,28.80859375
1771542028.0111876,11.71875,30.76171875,23.92578125,33.203125,38.0859375
1771542028.0150938,62.5,37.109375,24.4140625,28.80859375,45.8984375
1771542028.032125,85.44921875,47.36328125,23.4375,35.64453125,5.859375
1771542028.0360312,43.45703125,43.9453125,20.5078125,34.1796875,-26.85546875
1771542028.0399375,23.92578125,37.109375,18.06640625,30.76171875,38.0859375
1771542028.0438437,75.1953125,39.55078125,26.85546875,40.0390625,45.8984375
1771542028.04775,102.5390625,40.0390625,26.85546875,42.48046875,65.4296875
1771542028.0516562,62.98828125,31.73828125,16.11328125,48.828125,53.7109375
1771542028.0555625,20.5078125,35.64453125,14.6484375,36.62109375,-3.90625
1771542028.0594687,41.015625,33.69140625,19.53125,27.83203125,41.50390625
1771542028.063375,80.56640625,19.04296875,23.4375,38.0859375,0.48828125
1771542028.0672812,68.359375,19.04296875,26.3671875,43.9453125,-20.01953125
1771542028.0711875,23.4375,27.83203125,26.3671875,40.0390625,22.4609375
1771542028.0750937,30.76171875,35.15625,25.390625,31.25,45.8984375
1771542028.076125,82.51953125,39.55078125,24.90234375,41.50390625,48.33984375
1771542028.0800312,79.58984375,38.0859375,23.4375,47.36328125,49.8046875
1771542028.0839374,32.71484375,44.43359375,23.92578125,40.52734375,68.359375
1771542028.0878437,23.92578125,42.48046875,21.484375,37.59765625,55.6640625
1771542028.09175,63.4765625,29.296875,20.01953125,45.8984375,29.296875
1771542028.0956562,79.58984375,28.80859375,14.16015625,50.29296875,30.76171875
1771542028.0995624,27.34375,33.203125,10.25390625,39.55078125,84.9609375
1771542028.1034687,-0.48828125,29.78515625,20.99609375,31.25,106.4453125
1771542028.107375,39.0625,32.71484375,28.3203125,42.48046875,75.1953125
1771542028.1112812,80.56640625,36.1328125,24.4140625,52.734375,20.01953125
1771542028.1151874,56.15234375,38.0859375,23.92578125,42.48046875,-11.23046875
1771542028.1190937,5.859375,44.921875,24.4140625,33.203125,23.92578125
1771542028.136125,24.4140625,37.59765625,17.08984375,37.109375,46.38671875
1771542028.1400313,68.359375,28.80859375,20.99609375,40.52734375,33.69140625
1771542028.1439376,55.17578125,29.78515625,30.2734375,39.0625,45.8984375
1771542028.1478438,6.34765625,27.83203125,30.2734375,27.83203125,14.16015625
1771542028.15175,15.625,32.2265625,26.3671875,23.92578125,0.0
1771542028.1556563,61.5234375,41.015625,26.85546875,36.1328125,18.5546875
1771542028.1595626,69.82421875,41.9921875,21.484375,35.64453125,31.73828125
1771542028.1634688,19.53125,38.0859375,22.4609375,30.2734375,52.734375
1771542028.167375,4.39453125,25.390625,24.90234375,27.34375,11.71875
1771542028.1712813,47.36328125,21.484375,25.390625,28.3203125,-14.6484375
1771542028.1751876,66.89453125,35.15625,27.83203125,38.57421875,31.73828125
1771542028.1790938,29.78515625,35.64453125,22.94921875,33.203125,37.109375
1771542028.167125,-8.7890625,34.1796875,23.92578125,20.99609375,12.20703125
1771542028.1710312,30.76171875,47.36328125,28.3203125,21.97265625,10.25390625
1771542028.1749375,69.82421875,39.55078125,25.390625,25.390625,57.6171875
1771542028.1788437,37.59765625,26.3671875,20.99609375,25.87890625,44.43359375
1771542028.18275,-0.9765625,34.66796875,17.08984375,25.390625,-1.46484375
1771542028.1866562,23.92578125,32.2265625,17.578125,27.34375,31.25
1771542028.1905625,67.3828125,25.87890625,21.97265625,28.3203125,34.66796875
1771542028.1944687,53.7109375,27.34375,24.4140625,35.64453125,36.1328125
1771542028.198375,0.9765625,35.64453125,24.4140625,33.203125,13.18359375
1771542028.2022812,0.48828125,43.45703125,28.3203125,25.87890625,29.78515625
1771542028.2061875,52.734375,37.109375,26.3671875,29.296875,42.96875
1771542028.2100937,61.03515625,31.73828125,20.5078125,35.64453125,-15.13671875
1771542028.212125,20.5078125,29.78515625,12.20703125,29.296875,20.5078125
1771542028.2160313,5.859375,38.0859375,11.71875,13.671875,87.890625
1771542028.2199376,43.45703125,44.921875,20.5078125,26.3671875,90.8203125
1771542028.2238438,66.89453125,34.1796875,18.06640625,32.71484375,84.47265625
1771542028.22775,31.73828125,29.296875,17.08984375,26.85546875,88.8671875
1771542028.2316563,1.46484375,36.62109375,27.83203125,33.69140625,63.96484375
1771542028.2355626,32.2265625,41.50390625,29.78515625,36.62109375,49.31640625
1771542028.2394688,65.91796875,32.2265625,17.578125,35.64453125,40.0390625
1771542028.243375,37.109375,28.80859375,19.53125,26.85546875,16.11328125
1771542028.2472813,-11.23046875,38.57421875,28.3203125,16.6015625,80.078125
1771542028.2511876,8.7890625,35.64453125,24.4140625,21.97265625,92.7734375
1771542028.2550938,53.7109375,29.296875,18.06640625,31.25,40.52734375
1771542028.257125,46.38671875,45.8984375,25.390625,36.1328125,17.578125
1771542028.2610312,2.44140625,48.828125,26.3671875,25.87890625,7.8125
1771542028.2649374,-8.30078125,25.390625,19.53125,15.625,0.0
1771542028.2688437,39.55078125,24.90234375,20.5078125,22.94921875,27.34375
1771542028.27275,64.453125,28.80859375,19.53125,25.390625,15.625
1771542028.2766562,22.4609375,30.76171875,19.53125,20.99609375,17.578125
1771542028.2805624,-7.32421875,34.66796875,20.5078125,15.625,47.36328125
1771542028.2844687,23.92578125,31.25,15.625,11.23046875,20.99609375
1771542028.288375,54.19921875,37.59765625,18.5546875,21.484375,-4.39453125
1771542028.2922812,22.4609375,39.55078125,23.92578125,28.80859375,42.96875
1771542028.2961874,-12.6953125,38.0859375,23.92578125,24.90234375,43.45703125
1771542028.3000937,20.5078125,42.96875,24.4140625,24.4140625,39.0625
1771542028.317125,54.6875,30.76171875,18.5546875,27.83203125,22.94921875
1771542028.3210313,32.2265625,30.2734375,20.01953125,36.1328125,35.64453125
1771542028.3249376,-1.953125,33.69140625,22.4609375,37.109375,109.86328125
1771542028.3288438,22.94921875,39.0625,20.5078125,28.3203125,77.63671875
1771542028.33275,60.546875,40.52734375,19.04296875,31.73828125,37.59765625
1771542028.3366563,57.6171875,34.66796875,24.4140625,41.50390625,34.1796875
1771542028.3405626,22.4609375,30.76171875,23.4375,32.71484375,-15.625
1771542028.3444688,15.625,26.85546875,14.6484375,21.484375,-37.59765625
1771542028.348375,60.546875,43.9453125,23.4375,20.5078125,10.7421875
1771542028.3522813,72.75390625,51.26953125,24.90234375,32.2265625,37.59765625
1771542028.3561876,20.5078125,38.0859375,15.13671875,30.2734375,-4.39453125
1771542028.3600938,8.7890625,42.96875,20.5078125,26.3671875,6.34765625
1771542028.347125,57.6171875,52.24609375,22.94921875,31.25,53.22265625
1771542028.3510313,85.9375,48.828125,20.01953125,41.9921875,56.15234375
1771542028.3549376,46.875,39.0625,21.484375,35.64453125,-0.48828125
1771542028.3588438,3.41796875,35.15625,25.390625,24.4140625,-9.765625
1771542028.36275,27.83203125,31.25,30.76171875,31.73828125,52.734375
1771542028.3666563,70.80078125,30.2734375,29.78515625,35.15625,83.49609375
1771542028.3705626,63.4765625,34.1796875,28.3203125,44.921875,40.52734375
1771542028.3744688,10.25390625,37.59765625,29.78515625,44.43359375,-4.39453125
1771542028.378375,12.6953125,38.57421875,24.4140625,41.50390625,43.45703125
1771542028.3822813,67.3828125,40.0390625,26.3671875,49.31640625,78.61328125
1771542028.3861876,70.3125,41.50390625,34.1796875,53.7109375,54.6875
1771542028.3900938,16.11328125,32.71484375,35.15625,40.0390625,69.82421875
1771542028.407125,3.41796875,19.04296875,28.3203125,37.109375,24.4140625
1771542028.4110312,50.29296875,27.83203125,26.3671875,48.828125,-3.90625
1771542028.4149375,74.70703125,35.15625,29.78515625,47.8515625,46.875
1771542028.4188437,37.59765625,36.1328125,27.34375,40.52734375,38.0859375
1771542028.42275,14.16015625,41.50390625,25.87890625,36.1328125,22.4609375
1771542028.4266562,57.6171875,43.9453125,24.4140625,40.0390625,8.7890625
1771542028.4305625,93.26171875,39.55078125,24.90234375,44.921875,10.25390625
1771542028.4344687,69.3359375,44.921875,26.85546875,45.41015625,32.71484375
1771542028.438375,32.71484375,44.43359375,24.4140625,40.0390625,29.296875
1771542028.4422812,61.03515625,37.109375,29.78515625,47.36328125,66.40625
1771542028.4461875,95.703125,37.59765625,31.73828125,53.22265625,76.171875
1771542028.4500937,76.66015625,42.48046875,29.78515625,53.22265625,55.17578125
1771542028.452125,36.1328125,49.8046875,34.1796875,53.7109375,97.16796875
1771542028.4560313,26.85546875,38.57421875,26.85546875,42.48046875,109.86328125
1771542028.4599376,64.453125,39.55078125,23.92578125,49.8046875,36.1328125
1771542028.4638438,79.1015625,37.59765625,27.83203125,58.10546875,18.5546875
1771542028.46775,34.66796875,26.3671875,26.85546875,44.921875,50.78125
1771542028.4716563,18.5546875,30.76171875,25.390625,40.52734375,61.03515625
1771542028.4755626,56.15234375,37.59765625,22.94921875,40.52734375,61.5234375
1771542028.4794688,76.66015625,39.0625,22.4609375,45.41015625,100.5859375
1771542028.483375,45.41015625,36.1328125,21.484375,47.8515625,64.94140625
1771542028.4872813,27.83203125,38.0859375,20.5078125,41.015625,21.97265625
1771542028.4911876,44.921875,45.8984375,26.85546875,36.62109375,103.02734375
1771542028.4950938,65.91796875,35.64453125,19.53125,36.62109375,94.23828125
1771542028.497125,40.52734375,34.1796875,18.06640625,44.921875,41.9921875
1771542028.5010312,-4.8828125,48.828125,30.2734375,46.38671875,45.41015625
1771542028.5049374,9.27734375,41.015625,25.87890625,31.25,46.875
1771542028.5088437,55.6640625,28.80859375,26.85546875,30.76171875,58.59375
1771542028.51275,56.15234375,34.1796875,34.66796875,39.0625,69.3359375
1771542028.5166562,8.30078125,38.0859375,26.3671875,32.2265625,41.015625
1771542028.5205624,10.25390625,45.8984375,20.01953125,22.94921875,32.2265625
1771542028.5244687,50.29296875,49.31640625,30.2734375,21.97265625,64.453125
1771542028.528375,66.89453125,33.69140625,27.83203125,33.203125,41.50390625
1771542028.5322812,25.87890625,36.1328125,28.3203125,33.69140625,-23.92578125
1771542028.5361874,-5.859375,46.875,63.4765625,19.53125,-30.2734375
1771542028.5400937,15.13671875,57.12890625,63.4765625,-0.9765625,5.37109375
1771542028.542125,9.27734375,62.01171875,45.41015625,-26.3671875,61.5234375
1771542028.5460312,-48.828125,59.5703125,57.6171875,-52.734375,29.78515625
1771542028.5499375,-105.95703125,66.89453125,67.3828125,-77.1484375,28.80859375
1771542028.5538437,-94.23828125,69.82421875,64.94140625,-93.75,88.37890625
1771542028.55775,-81.0546875,62.98828125,64.453125,-104.4921875,44.921875
1771542028.5616562,-115.234375,67.3828125,74.70703125,-116.69921875,5.37109375
1771542028.5655625,-169.921875,87.890625,77.1484375,-144.53125,47.36328125
1771542028.5694687,-189.94140625,78.125,75.1953125,-171.38671875,70.3125
1771542028.573375,-148.4375,66.40625,75.1953125,-174.8046875,38.0859375
1771542028.5772812,-147.4609375,86.42578125,81.54296875,-180.17578125,-7.8125
1771542028.5811875,-220.21484375,94.7265625,84.9609375,-199.70703125,2.44140625
1771542028.5850937,-239.2578125,90.8203125,79.58984375,-208.49609375,21.97265625
1771542028.586125,-191.89453125,90.8203125,79.58984375,-205.078125,13.671875
1771542028.5900311,-188.96484375,92.7734375,85.9375,-212.40234375,60.546875
1771542028.5939374,-234.375,94.7265625,86.9140625,-220.21484375,66.40625
1771542028.5978436,-249.0234375,91.796875,80.56640625,-223.14453125,44.43359375
1771542028.60175,-206.0546875,93.26171875,77.63671875,-218.75,66.89453125
1771542028.6056561,-160.64453125,97.16796875,81.54296875,-201.171875,13.671875
1771542028.6095624,-181.15234375,105.95703125,76.171875,-187.98828125,-17.578125
1771542028.6134686,-200.68359375,101.5625,65.91796875,-171.38671875,43.9453125
1771542028.617375,-158.203125,94.23828125,57.12890625,-161.62109375,61.03515625
1771542028.6212811,-113.76953125,99.12109375,51.7578125,-161.1328125,51.26953125
1771542028.6251874,-100.09765625,101.5625,47.36328125,-132.32421875,27.83203125
1771542028.6290936,-128.90625,102.05078125,39.55078125,-114.2578125,17.578125
1771542028.632125,-104.00390625,88.37890625,32.2265625,-109.375,-10.7421875
1771542028.6360312,-24.90234375,90.8203125,27.83203125,-80.56640625,-29.296875
1771542028.6399374,1.953125,94.23828125,24.4140625,-44.921875,-24.4140625
1771542028.6438437,-27.83203125,84.47265625,17.08984375,-23.92578125,22.94921875
1771542028.64775,-25.390625,85.44921875,3.90625,-9.765625,42.48046875
1771542028.6516562,44.921875,81.54296875,0.48828125,9.27734375,44.43359375
1771542028.6555624,87.890625,65.91796875,-0.9765625,36.1328125,37.109375
1771542028.6594687,49.8046875,66.89453125,-5.859375,46.875,-1.953125
1771542028.663375,28.80859375,72.75390625,-9.27734375,42.48046875,-1.46484375
1771542028.6672812,88.8671875,66.40625,-11.71875,54.6875,17.08984375
1771542028.6711874,131.8359375,53.22265625,-8.30078125,73.73046875,80.56640625
1771542028.6750937,86.9140625,40.0390625,-9.27734375,79.58984375,76.66015625
1771542028.677125,49.31640625,51.26953125,-9.765625,79.1015625,48.828125
1771542028.6810312,89.35546875,48.33984375,-11.23046875,83.984375,83.49609375
1771542028.6849375,132.32421875,24.4140625,-11.23046875,96.6796875,61.5234375
1771542028.6888437,126.46484375,30.76171875,-17.08984375,108.88671875,12.20703125
1771542028.69275,74.70703125,35.64453125,-13.671875,107.91015625,21.97265625
1771542028.6966562,68.84765625,26.3671875,-12.6953125,103.515625,49.31640625
1771542028.7005625,125.0,25.87890625,-19.53125,112.3046875,28.80859375
1771542028.7044687,140.625,29.296875,-10.25390625,122.0703125,63.96484375
1771542028.708375,95.703125,31.25,-7.32421875,108.88671875,47.36328125
1771542028.7122812,83.984375,30.2734375,-6.8359375,97.65625,-9.765625
1771542028.7161875,122.0703125,25.87890625,-1.46484375,101.07421875,47.8515625
1771542028.7200937,145.99609375,27.34375,0.9765625,111.81640625,-8.7890625
1771542028.722125,108.3984375,28.80859375,-2.44140625,106.4453125,-47.8515625
1771542028.7260313,73.73046875,23.92578125,-3.41796875,91.796875,46.875
1771542028.7299376,109.375,23.4375,-1.953125,94.7265625,30.2734375
1771542028.7338438,149.90234375,29.78515625,-1.953125,97.16796875,-5.37109375
1771542028.73775,115.234375,26.3671875,2.9296875,90.8203125,82.51953125
1771542028.7416563,68.84765625,23.4375,2.9296875,82.51953125,92.28515625
1771542028.7455626,84.47265625,18.06640625,-4.39453125,75.68359375,37.109375
1771542028.7494688,117.67578125,19.04296875,-4.39453125,73.73046875,47.8515625
1771542028.753375,113.76953125,25.390625,0.0,81.0546875,84.47265625
1771542028.7572813,69.3359375,24.4140625,-3.90625,78.125,50.78125
1771542028.7611876,61.5234375,20.99609375,-0.9765625,73.2421875,10.25390625
1771542028.7650938,111.328125,17.08984375,5.859375,81.54296875,10.7421875
1771542028.767125,122.55859375,26.85546875,9.27734375,86.9140625,29.78515625
1771542028.7710311,72.265625,22.4609375,3.41796875,85.9375,51.26953125
1771542028.7749374,52.24609375,14.6484375,-2.9296875,74.70703125,27.83203125
1771542028.7788436,85.9375,18.5546875,3.90625,70.80078125,-32.71484375
1771542028.78275,112.3046875,19.53125,3.41796875,79.1015625,-44.43359375
1771542028.7866561,72.265625,16.6015625,-1.953125,79.58984375,-12.20703125
1771542028.7905624,36.1328125,23.92578125,8.7890625,67.3828125,-25.390625
1771542028.7944686,66.40625,34.1796875,18.5546875,65.91796875,13.671875
1771542028.798375,104.98046875,19.04296875,11.23046875,70.3125,62.5
1771542028.8022811,95.703125,14.6484375,7.8125,66.89453125,88.8671875
1771542028.8061874,49.31640625,20.99609375,11.71875,62.5,29.78515625
1771542028.8100936,54.19921875,25.390625,14.16015625,61.03515625,-10.7421875
1771542028.842125,90.33203125,28.80859375,11.23046875,62.98828125,52.734375
1771542028.8460312,90.8203125,27.83203125,11.23046875,70.80078125,40.52734375
1771542028.8499374,50.78125,25.87890625,4.8828125,68.84765625,-21.97265625
1771542028.8538437,39.55078125,25.390625,-0.9765625,57.12890625,20.01953125
1771542028.85775,76.66015625,21.97265625,4.8828125,54.19921875,31.73828125
1771542028.8616562,95.21484375,17.578125,3.90625,60.05859375,27.83203125
1771542028.8655624,59.5703125,23.4375,4.8828125,57.6171875,40.0390625
1771542028.8694687,36.62109375,33.203125,14.6484375,49.8046875,28.80859375
1771542028.873375,79.58984375,29.78515625,14.16015625,53.22265625,66.40625
1771542028.8772812,106.4453125,23.92578125,16.11328125,56.640625,7.32421875
1771542028.8811874,58.59375,24.90234375,12.6953125,53.22265625,29.78515625
1771542028.8850937,11.71875,21.484375,4.39453125,44.921875,56.640625
1771542028.871125,43.9453125,25.87890625,16.6015625,50.29296875,5.37109375
1771542028.8750312,94.23828125,28.80859375,22.94921875,60.546875,37.59765625
1771542028.8789375,74.21875,22.4609375,17.578125,50.29296875,79.58984375
1771542028.8828437,31.25,31.73828125,18.5546875,41.015625,46.875
1771542028.88675,41.50390625,32.71484375,15.13671875,41.50390625,32.2265625
1771542028.8906562,75.68359375,20.5078125,13.18359375,50.29296875,50.78125
1771542028.8945625,83.0078125,20.5078125,21.484375,66.89453125,30.76171875
1771542028.8984687,37.109375,38.0859375,19.53125,62.01171875,31.73828125
1771542028.902375,12.20703125,46.38671875,15.13671875,33.203125,33.69140625
1771542028.9062812,52.24609375,38.0859375,11.71875,32.71484375,35.15625
1771542028.9101875,82.51953125,38.0859375,8.30078125,49.8046875,17.08984375
1771542028.9140937,41.015625,42.96875,12.20703125,47.36328125,1.46484375
1771542028.916125,14.6484375,31.73828125,15.625,41.50390625,-0.9765625
1771542028.9200313,48.828125,30.76171875,16.11328125,37.59765625,25.87890625
1771542028.9239376,73.73046875,36.1328125,16.11328125,39.55078125,41.015625
1771542028.9278438,50.29296875,39.55078125,18.06640625,41.50390625,6.34765625
1771542028.93175,7.8125,41.9921875,15.625,29.78515625,65.91796875
1771542028.9356563,26.85546875,32.2265625,11.71875,29.296875,110.83984375
1771542028.9395626,72.265625,30.2734375,15.13671875,34.1796875,72.75390625
1771542028.9434688,67.3828125,34.1796875,17.578125,40.52734375,41.50390625
1771542028.947375,13.18359375,31.73828125,18.5546875,41.015625,42.96875
1771542028.9512813,11.23046875,41.015625,21.484375,30.76171875,41.9921875
1771542028.9551876,68.84765625,47.8515625,18.5546875,33.203125,19.53125
1771542028.9590938,81.0546875,36.1328125,13.18359375,45.8984375,0.0
1771542028.962125,32.2265625,44.43359375,16.6015625,43.9453125,45.41015625
1771542028.9660313,21.484375,50.29296875,13.18359375,34.66796875,37.59765625
1771542028.9699376,63.4765625,37.59765625,11.23046875,37.109375,25.390625
1771542028.9738438,84.47265625,33.203125,13.18359375,43.45703125,51.7578125
1771542028.97775,42.96875,38.0859375,14.6484375,41.015625,8.30078125
1771542028.9816563,18.5546875,43.45703125,16.11328125,34.1796875,20.5078125
1771542028.9855626,49.8046875,43.9453125,16.6015625,31.25,43.9453125
1771542028.9894688,71.77734375,38.0859375,13.671875,35.64453125,58.10546875
1771542028.993375,48.828125,37.109375,14.16015625,36.1328125,104.4921875
1771542028.9972813,14.6484375,47.36328125,15.625,31.73828125,86.9140625
1771542029.0011876,33.203125,44.43359375,17.08984375,39.0625,48.33984375
1771542029.0050938,74.21875,32.2265625,15.625,46.38671875,21.484375
1771542029.007125,61.5234375,34.1796875,11.71875,36.62109375,31.25
1771542029.0110312,11.71875,38.0859375,18.5546875,23.92578125,23.4375
1771542029.0149374,8.30078125,39.0625,19.53125,29.296875,28.3203125
1771542029.0188437,52.24609375,38.0859375,20.99609375,34.66796875,75.68359375
1771542029.02275,67.87109375,36.1328125,23.92578125,37.59765625,56.15234375
1771542029.0266562,20.01953125,34.1796875,13.671875,28.80859375,49.8046875
1771542029.0305624,3.41796875,37.59765625,9.765625,31.25,15.13671875
1771542029.0344687,47.36328125,44.43359375,21.97265625,41.9921875,55.17578125
1771542029.038375,72.265625,43.45703125,26.85546875,35.15625,80.56640625
1771542029.0422812,32.2265625,31.25,21.97265625,22.94921875,-0.9765625
1771542029.0461874,-1.953125,24.90234375,20.99609375,24.90234375,52.24609375
1771542029.0500937,28.80859375,25.390625,21.97265625,30.76171875,73.2421875
1771542029.052125,66.89453125,31.25,24.4140625,36.62109375,-4.39453125
1771542029.0560312,55.17578125,33.203125,27.83203125,42.48046875,-2.44140625
1771542029.0599375,15.625,31.25,26.85546875,36.1328125,24.4140625
1771542029.0638437,25.87890625,34.1796875,20.99609375,27.34375,12.20703125
1771542029.06775,70.80078125,38.0859375,14.6484375,33.203125,-31.25
1771542029.0716562,70.80078125,32.71484375,16.6015625,44.43359375,20.5078125
1771542029.0755625,27.34375,22.4609375,20.99609375,40.0390625,58.10546875
1771542029.0794687,21.97265625,28.80859375,20.5078125,25.390625,52.24609375
1771542029.083375,60.05859375,39.55078125,20.01953125,28.80859375,61.03515625
1771542029.0872812,77.1484375,38.57421875,19.53125,46.875,128.90625
1771542029.0911875,40.0390625,42.48046875,27.34375,44.43359375,131.34765625
1771542029.0950937,5.37109375,40.52734375,22.94921875,36.62109375,22.94921875
1771542029.097125,40.0390625,36.62109375,12.6953125,40.0390625,22.4609375
1771542029.1010313,84.47265625,41.015625,17.08984375,52.734375,6.34765625
1771542029.1049376,56.640625,29.296875,23.4375,56.640625,32.2265625
1771542029.1088438,10.25390625,19.04296875,24.90234375,37.59765625,46.38671875
1771542029.11275,39.0625,24.90234375,22.4609375,42.48046875,13.671875
1771542029.1166563,83.984375,27.83203125,22.4609375,59.08203125,103.02734375
1771542029.1205626,82.51953125,19.04296875,21.97265625,71.77734375,134.765625
1771542029.1244688,50.78125,16.6015625,24.4140625,76.66015625,92.28515625
1771542029.128375,52.24609375,23.92578125,26.3671875,72.265625,36.62109375
1771542029.1322813,97.65625,26.3671875,30.2734375,84.9609375,23.4375
1771542029.1361876,99.609375,22.4609375,28.3203125,86.42578125,9.27734375
1771542029.1400938,54.6875,22.94921875,21.97265625,74.70703125,-8.7890625
1771542029.142125,51.7578125,25.390625,23.4375,73.73046875,53.7109375
1771542029.1460311,102.05078125,24.4140625,20.99609375,74.21875,26.3671875
1771542029.1499374,120.60546875,33.69140625,21.97265625,78.125,-27.34375
1771542029.1538436,67.87109375,31.25,26.85546875,69.82421875,56.640625
1771542029.15775,30.2734375,16.6015625,22.4609375,65.4296875,78.125
1771542029.1616561,64.453125,15.625,17.578125,71.77734375,30.76171875
1771542029.1655624,100.5859375,29.78515625,22.4609375,73.73046875,31.73828125
1771542029.1694686,72.265625,39.0625,28.80859375,62.98828125,26.85546875
1771542029.173375,23.4375,27.34375,25.390625,50.29296875,35.15625
1771542029.1772811,44.43359375,20.01953125,21.484375,53.7109375,44.43359375
1771542029.1811874,93.26171875,23.4375,20.01953125,56.640625,50.29296875
1771542029.1850936,79.58984375,27.34375,17.08984375,56.640625,57.12890625
1771542029.202125,23.92578125,29.296875,12.6953125,53.7109375,64.94140625
1771542029.2060313,35.64453125,35.64453125,13.18359375,48.33984375,79.58984375
1771542029.2099376,81.54296875,33.203125,25.390625,53.22265625,69.82421875
1771542029.2138438,78.125,30.2734375,28.80859375,65.91796875,52.734375
1771542029.21775,31.73828125,34.1796875,23.92578125,61.5234375,60.546875
1771542029.2216563,18.5546875,24.90234375,23.4375,53.22265625,87.890625
1771542029.2255626,65.4296875,18.06640625,23.92578125,55.6640625,5.859375
1771542029.2294688,86.9140625,23.92578125,26.3671875,52.734375,-9.27734375
1771542029.233375,47.36328125,24.90234375,25.390625,49.31640625,57.12890625
1771542029.2372813,20.5078125,24.4140625,22.4609375,48.828125,42.48046875
1771542029.2411876,53.22265625,37.59765625,20.01953125,49.8046875,67.87109375
1771542029.2450938,82.03125,41.015625,19.53125,53.7109375,50.29296875
1771542029.248125,56.15234375,34.66796875,20.5078125,53.7109375,69.3359375
1771542029.2520313,19.04296875,35.64453125,13.671875,45.8984375,52.24609375
1771542029.2559376,38.0859375,36.1328125,16.6015625,35.64453125,19.04296875
1771542029.2598438,83.984375,31.73828125,22.94921875,42.96875,23.92578125
1771542029.26375,74.70703125,28.3203125,21.484375,51.26953125,7.32421875
1771542029.2676563,30.76171875,38.57421875,25.390625,47.36328125,48.33984375
1771542029.2715626,35.15625,36.1328125,26.3671875,43.9453125,43.45703125
1771542029.2754688,70.3125,30.2734375,22.94921875,39.55078125,28.3203125
1771542029.279375,79.58984375,39.0625,21.97265625,45.41015625,52.24609375
1771542029.2832813,36.62109375,31.25,22.94921875,43.45703125,72.75390625
1771542029.2871876,23.92578125,26.3671875,22.4609375,28.80859375,30.2734375
1771542029.2910938,72.75390625,32.71484375,20.01953125,30.2734375,-32.71484375
1771542029.292125,87.890625,36.1328125,18.5546875,38.57421875,-32.2265625
1771542029.2960312,47.8515625,36.62109375,16.6015625,37.59765625,1.953125
1771542029.2999375,7.8125,43.9453125,21.97265625,29.296875,36.62109375
1771542029.3038437,39.0625,43.45703125,24.90234375,31.73828125,18.5546875
1771542029.30775,77.1484375,33.203125,25.87890625,41.015625,3.41796875
1771542029.3116562,51.26953125,34.1796875,27.34375,41.015625,29.296875
1771542029.3155625,8.7890625,35.64453125,24.90234375,34.1796875,101.5625
1771542029.3194687,28.80859375,34.1796875,20.01953125,35.64453125,116.2109375
1771542029.323375,74.21875,30.76171875,14.16015625,42.96875,32.2265625
1771542029.3272812,64.453125,33.203125,18.06640625,44.43359375,7.32421875
1771542029.3311875,14.16015625,34.66796875,23.4375,37.109375,64.94140625
1771542029.3350937,16.11328125,29.78515625,27.34375,34.1796875,66.40625
1771542029.337125,67.3828125,31.25,29.78515625,39.0625,1.46484375
1771542029.3410313,73.2421875,33.203125,28.80859375,41.015625,-19.04296875
1771542029.3449376,29.78515625,35.15625,29.296875,35.64453125,5.37109375
1771542029.3488438,6.8359375,33.69140625,24.90234375,27.83203125,17.578125
1771542029.35275,40.0390625,36.1328125,23.92578125,29.296875,37.59765625
1771542029.3566563,70.3125,37.59765625,23.92578125,31.73828125,19.04296875
1771542029.3605626,33.203125,33.203125,22.94921875,31.25,25.390625
1771542029.3644688,-9.765625,29.296875,20.5078125,23.4375,56.15234375
1771542029.368375,17.578125,30.2734375,17.08984375,14.16015625,65.4296875
1771542029.3722813,65.4296875,37.109375,22.4609375,25.87890625,45.8984375
1771542029.3761876,61.03515625,38.57421875,27.83203125,41.9921875,37.59765625
1771542029.3800938,17.578125,41.015625,29.296875,32.2265625,31.73828125
1771542029.383125,21.484375,40.0390625,22.94921875,20.5078125,-8.30078125
1771542029.3870313,60.05859375,33.203125,19.53125,25.87890625,-0.9765625
1771542029.3909376,62.01171875,31.73828125,25.390625,36.62109375,-3.90625
1771542029.3948438,19.53125,41.015625,23.4375,25.87890625,42.48046875
1771542029.39875,10.25390625,41.9921875,19.04296875,15.13671875,72.75390625
1771542029.4026563,56.15234375,33.203125,13.18359375,26.85546875,59.5703125
1771542029.4065626,77.63671875,36.62109375,11.71875,36.62109375,51.26953125
1771542029.4104688,36.1328125,43.45703125,16.11328125,33.203125,62.5
1771542029.414375,3.90625,44.43359375,20.01953125,23.4375,43.9453125
1771542029.4182813,48.828125,39.55078125,22.94921875,30.2734375,25.87890625
1771542029.4221876,85.44921875,29.296875,15.625,42.96875,-0.48828125
1771542029.4260938,58.59375,43.45703125,17.578125,50.29296875,4.8828125
1771542029.427125,20.5078125,53.22265625,23.4375,40.52734375,13.671875
1771542029.4310312,42.96875,36.1328125,20.01953125,28.80859375,-6.8359375
1771542029.4349375,85.9375,32.2265625,19.04296875,32.2265625,-43.9453125
1771542029.4388437,62.98828125,36.1328125,24.90234375,36.62109375,-34.1796875
1771542029.44275,16.11328125,42.96875,27.34375,31.25,39.55078125
1771542029.4466562,27.34375,44.921875,20.5078125,27.83203125,32.71484375
1771542029.4505625,70.3125,33.69140625,15.625,41.015625,-0.48828125
1771542029.4544687,62.01171875,28.3203125,20.01953125,40.52734375,47.8515625
1771542029.458375,10.25390625,39.55078125,28.80859375,26.85546875,60.546875
1771542029.4622812,8.7890625,42.48046875,25.87890625,25.87890625,46.38671875
1771542029.4661875,57.12890625,35.15625,20.01953125,35.15625,30.2734375
1771542029.4700937,75.1953125,29.78515625,18.5546875,39.55078125,23.92578125
1771542029.472125,31.73828125,30.76171875,13.18359375,30.76171875,52.24609375
1771542029.4760313,4.39453125,34.1796875,16.6015625,26.85546875,20.01953125
1771542029.4799376,35.64453125,28.3203125,25.87890625,28.3203125,-14.16015625
1771542029.4838438,64.94140625,27.34375,30.2734375,30.2734375,25.87890625
1771542029.48775,40.52734375,29.78515625,31.25,31.73828125,63.96484375
1771542029.4916563,10.7421875,29.296875,23.4375,28.80859375,53.22265625
1771542029.4955626,37.59765625,25.87890625,21.484375,29.296875,23.4375
1771542029.4994688,76.171875,32.2265625,26.3671875,31.73828125,36.62109375
1771542029.503375,61.5234375,39.55078125,28.80859375,34.66796875,65.4296875
1771542029.5072813,19.53125,42.96875,30.76171875,39.55078125,48.33984375
1771542029.5111876,23.92578125,39.55078125,29.78515625,32.2265625,79.58984375
1771542029.5150938,52.24609375,30.76171875,25.87890625,30.76171875,58.59375
1771542029.531125,49.31640625,24.4140625,22.4609375,37.59765625,37.59765625
1771542029.5350313,3.90625,19.04296875,21.97265625,32.2265625,41.015625
1771542029.5389376,-11.71875,20.5078125,23.4375,24.4140625,31.25
1771542029.5428438,36.62109375,24.90234375,23.92578125,24.4140625,38.57421875
1771542029.54675,63.4765625,27.83203125,20.99609375,31.73828125,25.390625
1771542029.5506563,32.71484375,25.390625,16.11328125,33.203125,37.59765625
1771542029.5545626,6.34765625,30.76171875,20.01953125,26.85546875,33.203125
1771542029.5584688,38.0859375,38.57421875,28.3203125,26.85546875,45.41015625
1771542029.562375,69.3359375,33.69140625,25.390625,34.1796875,39.0625
1771542029.5662813,46.875,25.87890625,22.4609375,43.9453125,59.5703125
1771542029.5701876,8.7890625,33.69140625,20.99609375,36.1328125,95.21484375
1771542029.5740938,25.390625,37.59765625,20.01953125,21.97265625,6.34765625
1771542029.576125,65.4296875,33.203125,23.4375,31.25,57.12890625
1771542029.5800312,62.98828125,36.62109375,22.4609375,32.71484375,121.58203125
1771542029.5839374,20.99609375,37.59765625,20.5078125,17.578125,25.87890625
1771542029.5878437,10.7421875,37.59765625,15.13671875,15.625,14.16015625
1771542029.59175,50.29296875,42.48046875,18.5546875,24.4140625,70.3125
1771542029.5956562,67.3828125,38.57421875,28.3203125,30.2734375,72.75390625
1771542029.5995624,17.08984375,24.90234375,27.34375,26.85546875,75.1953125
1771542029.6034687,-1.953125,30.2734375,24.4140625,24.90234375,19.53125
1771542029.607375,55.17578125,38.57421875,21.484375,32.71484375,-20.01953125
1771542029.6112812,90.33203125,28.80859375,18.06640625,40.52734375,40.0390625
1771542029.6151874,53.7109375,31.25,20.99609375,34.66796875,61.03515625
1771542029.6190937,13.671875,43.45703125,23.4375,30.2734375,15.625
1771542029.622125,36.62109375,41.50390625,23.4375,37.59765625,24.4140625
1771542029.6260312,69.82421875,36.62109375,17.578125,47.8515625,-3.90625
1771542029.6299374,52.734375,44.921875,19.04296875,49.31640625,-15.625
1771542029.6338437,19.04296875,42.96875,26.3671875,37.109375,49.8046875
1771542029.63775,36.1328125,36.62109375,20.99609375,37.109375,23.92578125
1771542029.6416562,89.35546875,40.0390625,10.7421875,53.22265625,-46.38671875
1771542029.6455624,88.37890625,34.66796875,16.11328125,65.91796875,-26.85546875
1771542029.6494687,28.80859375,33.203125,31.25,52.734375,15.13671875
1771542029.653375,18.06640625,29.296875,31.73828125,44.43359375,27.34375
1771542029.6572812,79.1015625,20.99609375,31.25,59.5703125,43.45703125
1771542029.6611874,95.703125,24.4140625,37.59765625,74.70703125,19.53125
1771542029.6650937,51.26953125,26.3671875,39.0625,75.1953125,35.15625
1771542029.666125,35.64453125,20.5078125,35.64453125,63.4765625,-8.30078125
1771542029.6700313,67.87109375,16.6015625,37.109375,65.91796875,-7.8125
1771542029.6739376,108.88671875,28.80859375,38.57421875,75.1953125,62.01171875
1771542029.6778438,83.49609375,34.1796875,32.2265625,74.70703125,37.109375
1771542029.68175,34.1796875,19.53125,32.2265625,65.4296875,65.4296875
1771542029.6856563,61.5234375,19.53125,33.69140625,63.96484375,57.6171875
1771542029.6895626,106.4453125,22.4609375,28.3203125,67.3828125,-2.9296875
1771542029.6934688,88.8671875,25.390625,27.83203125,64.94140625,36.62109375
1771542029.697375,44.921875,24.4140625,25.390625,61.03515625,39.55078125
1771542029.7012813,51.26953125,27.83203125,25.390625,54.19921875,8.30078125
1771542029.7051876,82.51953125,34.66796875,25.87890625,61.5234375,5.37109375
1771542029.7090938,83.984375,33.203125,27.83203125,73.2421875,27.83203125
1771542029.711125,41.50390625,35.15625,27.83203125,58.59375,68.84765625
1771542029.7150311,37.59765625,34.66796875,28.3203125,48.33984375,44.43359375
1771542029.7189374,85.9375,32.2265625,21.97265625,47.36328125,18.06640625
1771542029.7228436,88.37890625,31.73828125,19.53125,52.24609375,23.4375
1771542029.72675,39.55078125,29.78515625,31.73828125,58.59375,30.2734375
1771542029.7306561,18.06640625,37.109375,34.66796875,55.6640625,5.37109375
1771542029.7345624,54.19921875,35.15625,32.2265625,53.7109375,39.0625
1771542029.7384686,82.51953125,15.625,24.90234375,52.734375,75.68359375
1771542029.742375,53.22265625,15.625,21.97265625,51.7578125,28.3203125
1771542029.7462811,12.20703125,20.99609375,30.2734375,42.48046875,-2.44140625
1771542029.7501874,32.71484375,24.4140625,32.71484375,41.50390625,22.4609375
1771542029.7540936,74.21875,29.78515625,28.3203125,46.875,38.0859375
1771542029.765125,63.4765625,32.2265625,27.34375,47.8515625,54.6875
1771542029.7690313,16.6015625,36.1328125,33.69140625,47.8515625,72.75390625
1771542029.7729375,20.5078125,37.59765625,34.66796875,46.875,64.453125
1771542029.7768438,63.4765625,30.76171875,23.92578125,47.36328125,65.91796875
1771542029.78075,62.01171875,22.94921875,20.01953125,45.8984375,21.97265625
1771542029.7846563,10.25390625,22.94921875,24.4140625,32.2265625,5.37109375
1771542029.7885625,3.41796875,27.34375,26.3671875,25.390625,35.64453125
1771542029.7924688,43.45703125,21.97265625,25.87890625,29.78515625,37.109375
1771542029.796375,57.12890625,28.3203125,25.87890625,32.71484375,20.5078125
1771542029.8002813,23.4375,36.1328125,29.296875,23.4375,48.33984375
1771542029.8041875,3.41796875,32.71484375,29.296875,26.85546875,57.6171875
1771542029.8080938,41.015625,41.9921875,29.296875,37.59765625,64.453125
1771542029.802125,75.1953125,46.38671875,29.78515625,42.48046875,41.50390625
1771542029.8060312,52.734375,37.59765625,24.90234375,43.45703125,42.96875
1771542029.8099375,13.18359375,31.25,20.99609375,34.1796875,79.58984375
1771542029.8138437,27.83203125,37.109375,19.53125,29.78515625,20.5078125
1771542029.81775,60.546875,34.1796875,20.99609375,33.69140625,37.59765625
1771542029.8216562,57.12890625,35.15625,27.34375,42.48046875,58.59375
1771542029.8255625,16.6015625,39.55078125,24.4140625,35.15625,-23.4375
1771542029.8294687,17.578125,29.296875,21.484375,29.296875,17.08984375
1771542029.833375,70.80078125,33.203125,30.76171875,35.15625,90.8203125
1771542029.8372812,81.54296875,30.2734375,26.85546875,48.33984375,49.31640625
1771542029.8411875,27.83203125,27.34375,24.90234375,49.8046875,42.96875
1771542029.8450937,11.71875,37.59765625,26.85546875,38.57421875,63.96484375
1771542029.847125,60.05859375,34.66796875,30.2734375,37.109375,70.3125
1771542029.8510313,78.125,30.2734375,31.73828125,42.48046875,64.94140625
1771542029.8549376,38.57421875,36.62109375,28.3203125,40.0390625,35.15625
1771542029.8588438,9.27734375,38.0859375,29.296875,30.76171875,10.25390625
1771542029.86275,36.62109375,38.57421875,31.73828125,35.15625,30.76171875
1771542029.8666563,78.61328125,37.59765625,29.78515625,42.96875,42.96875
1771542029.8705626,59.5703125,33.203125,20.5078125,38.0859375,59.5703125
1771542029.8744688,17.08984375,35.64453125,20.99609375,27.34375,99.609375
1771542029.878375,35.15625,40.52734375,25.390625,27.34375,75.68359375
1771542029.8822813,78.125,41.015625,19.04296875,35.15625,9.765625
1771542029.8861876,66.40625,42.48046875,18.5546875,37.59765625,13.671875
1771542029.8900938,16.11328125,40.52734375,26.85546875,33.69140625,48.33984375
1771542029.906125,25.390625,38.57421875,27.34375,37.109375,56.640625
1771542029.9100313,89.35546875,33.203125,20.5078125,51.7578125,62.5
1771542029.9139376,99.609375,30.2734375,19.53125,50.78125,53.7109375
1771542029.9178438,49.31640625,51.26953125,25.390625,40.52734375,22.94921875
1771542029.92175,34.1796875,56.640625,22.94921875,36.62109375,15.625
1771542029.9256563,68.84765625,37.109375,11.23046875,44.43359375,34.66796875
1771542029.9295626,84.47265625,33.203125,13.18359375,48.33984375,15.625
1771542029.9334688,45.41015625,45.8984375,22.4609375,41.015625,-0.9765625
1771542029.937375,12.6953125,47.8515625,24.90234375,42.48046875,54.19921875
1771542029.9412813,47.36328125,36.62109375,22.94921875,43.9453125,20.99609375
1771542029.9451876,84.47265625,37.109375,21.97265625,48.33984375,-14.6484375
1771542029.9490938,68.359375,45.41015625,24.90234375,48.33984375,51.26953125
1771542029.952125,23.92578125,41.9921875,21.97265625,38.0859375,33.69140625
1771542029.9560313,21.484375,34.66796875,22.4609375,35.15625,-12.20703125
1771542029.9599376,62.98828125,34.66796875,27.34375,37.109375,52.24609375
1771542029.9638438,60.546875,33.203125,23.92578125,42.48046875,72.75390625
1771542029.96775,10.7421875,29.296875,24.4140625,38.0859375,75.1953125
1771542029.9716563,1.46484375,27.83203125,22.94921875,29.296875,72.265625
1771542029.9755626,46.875,31.73828125,10.25390625,29.78515625,5.37109375
1771542029.9794688,63.4765625,37.109375,17.578125,28.3203125,21.97265625
1771542029.983375,24.4140625,37.59765625,34.66796875,26.85546875,67.87109375
1771542029.9872813,3.90625,31.73828125,33.203125,21.484375,56.15234375
1771542029.9911876,36.1328125,37.59765625,26.85546875,17.578125,40.0390625
1771542029.9950938,65.91796875,43.9453125,21.484375,30.2734375,69.82421875
1771542029.997125,43.45703125,41.50390625,21.97265625,36.1328125,67.3828125
1771542030.0010312,10.7421875,39.55078125,24.4140625,23.4375,10.7421875
1771542030.0049374,27.34375,31.73828125,24.4140625,24.90234375,-20.5078125
1771542030.0088437,62.98828125,30.76171875,28.80859375,36.62109375,19.04296875
1771542030.01275,59.08203125,27.83203125,28.3203125,35.15625,41.9921875
1771542030.0166562,18.06640625,25.87890625,25.390625,25.87890625,32.2265625
1771542030.0205624,15.13671875,40.52734375,27.34375,20.99609375,49.31640625
1771542030.0244687,58.10546875,43.9453125,24.90234375,23.92578125,72.75390625
1771542030.028375,66.40625,33.69140625,25.390625,39.55078125,83.49609375
1771542030.0322812,22.4609375,34.1796875,28.3203125,35.15625,53.22265625
1771542030.0361874,7.32421875,34.1796875,27.83203125,26.85546875,30.76171875
1771542030.0400937,47.8515625,37.59765625,26.85546875,38.0859375,80.56640625
1771542030.042125,67.87109375,43.45703125,23.92578125,36.62109375,53.7109375
1771542030.0460312,37.109375,34.1796875,20.5078125,31.25,5.37109375
1771542030.0499375,17.578125,27.34375,22.4609375,32.2265625,3.41796875
1771542030.0538437,54.19921875,29.296875,24.4140625,38.0859375,36.1328125
1771542030.05775,87.40234375,34.66796875,22.4609375,38.0859375,40.0390625
1771542030.0616562,57.12890625,34.66796875,26.3671875,39.0625,14.6484375
1771542030.0655625,11.71875,39.55078125,28.80859375,32.71484375,14.16015625
1771542030.0694687,21.484375,40.52734375,22.94921875,16.6015625,9.27734375
1771542030.073375,68.84765625,23.4375,16.6015625,33.203125,-19.04296875
1771542030.0772812,60.546875,18.5546875,21.484375,35.15625,42.96875
1771542030.0811875,1.46484375,38.57421875,35.15625,10.7421875,104.4921875
1771542030.0850937,-13.18359375,49.31640625,32.2265625,-13.671875,49.8046875
1771542030.086125,-10.25390625,45.8984375,26.3671875,-42.96875,25.87890625
1771542030.0900311,-31.73828125,44.43359375,29.296875,-62.5,36.1328125
1771542030.0939374,-83.984375,52.734375,27.34375,-75.68359375,57.12890625
1771542030.0978436,-118.1640625,51.7578125,29.296875,-103.02734375,11.71875
1771542030.10175,-92.28515625,50.78125,39.55078125,-113.76953125,12.20703125
1771542030.1056561,-77.1484375,54.6875,44.43359375,-101.5625,25.87890625
1771542030.1095624,-142.08984375,63.96484375,50.29296875,-133.30078125,60.05859375
1771542030.1134686,-187.5,67.3828125,54.19921875,-162.109375,67.87109375
1771542030.117375,-143.5546875,68.84765625,61.03515625,-162.109375,30.76171875
1771542030.1212811,-129.39453125,76.66015625,67.3828125,-176.7578125,41.015625
1771542030.1251874,-176.7578125,84.47265625,66.89453125,-196.77734375,48.828125
1771542030.1290936,-239.74609375,80.56640625,64.94140625,-223.14453125,35.64453125
1771542030.132125,-247.55859375,82.51953125,66.40625,-244.62890625,41.015625
1771542030.1360312,-200.1953125,100.09765625,76.66015625,-244.62890625,55.6640625
1771542030.1399374,-225.5859375,98.14453125,81.0546875,-262.6953125,60.546875
1771542030.1438437,-303.22265625,92.28515625,83.984375,-287.109375,72.265625
1771542030.14775,-307.6171875,103.515625,88.37890625,-299.8046875,62.5
1771542030.1516562,-253.41796875,111.81640625,86.42578125,-294.921875,46.875
1771542030.1555624,-237.79296875,110.83984375,90.33203125,-281.25,34.66796875
1771542030.1594687,-300.78125,114.74609375,91.796875,-292.96875,16.6015625
1771542030.163375,-312.01171875,124.0234375,85.9375,-295.8984375,8.7890625
1771542030.1672812,-254.39453125,128.90625,81.54296875,-277.34375,37.109375
1771542030.1711874,-226.5625,125.0,76.66015625,-261.23046875,43.45703125
1771542030.1750937,-243.65234375,114.2578125,77.1484375,-246.09375,43.9453125
1771542030.177125,-257.8125,114.74609375,74.21875,-233.3984375,0.48828125
1771542030.1810312,-210.44921875,120.1171875,65.91796875,-218.26171875,-49.31640625
1771542030.1849375,-154.296875,114.74609375,64.453125,-195.80078125,36.1328125
1771542030.1888437,-157.71484375,111.81640625,60.546875,-173.33984375,66.89453125
1771542030.19275,-185.05859375,108.3984375,52.24609375,-162.109375,48.33984375
1771542030.1966562,-144.04296875,106.4453125,46.38671875,-143.06640625,37.59765625
1771542030.2005625,-77.1484375,106.4453125,44.43359375,-116.2109375,28.80859375
1771542030.2044687,-69.3359375,97.65625,37.59765625,-94.23828125,55.6640625
1771542030.208375,-92.28515625,98.6328125,31.25,-85.9375,41.50390625
1771542030.2122812,-75.1953125,92.28515625,31.73828125,-80.078125,11.71875
1771542030.2161875,-8.30078125,85.9375,31.25,-46.38671875,-10.7421875
1771542030.2200937,24.4140625,89.84375,25.390625,-27.83203125,25.87890625
1771542030.222125,-6.34765625,85.44921875,18.5546875,-22.94921875,67.3828125
1771542030.2260313,-11.23046875,77.63671875,11.23046875,1.46484375,75.68359375
1771542030.2299376,49.8046875,75.68359375,1.953125,27.83203125,31.73828125
1771542030.2338438,95.21484375,81.54296875,0.0,47.8515625,26.3671875
1771542030.23775,66.89453125,69.3359375,-3.41796875,56.15234375,91.30859375
1771542030.2416563,41.015625,59.08203125,-5.859375,60.05859375,36.62109375
1771542030.2455626,79.1015625,56.15234375,-9.765625,68.84765625,31.73828125
1771542030.2494688,126.953125,62.5,-11.23046875,80.56640625,55.6640625
1771542030.253375,117.67578125,60.546875,-9.27734375,99.12109375,19.53125
1771542030.2572813,82.51953125,46.38671875,-15.13671875,101.07421875,18.06640625
1771542030.2611876,97.65625,48.828125,-15.625,100.09765625,-7.32421875
1771542030.2650938,144.53125,48.828125,-14.16015625,114.2578125,-55.17578125
1771542030.283125,145.5078125,42.96875,-9.765625,124.51171875,-1.953125
1771542030.2870312,105.95703125,43.45703125,-8.30078125,122.0703125,45.41015625
1771542030.2909374,99.609375,36.1328125,-14.16015625,111.81640625,59.5703125
1771542030.2948437,144.53125,35.15625,-14.6484375,111.81640625,52.24609375
1771542030.29875,167.96875,33.69140625,-10.7421875,124.51171875,19.53125
1771542030.3026562,131.34765625,25.390625,-14.6484375,132.8125,44.921875
1771542030.3065624,102.05078125,26.3671875,-24.90234375,123.046875,81.54296875
1771542030.3104687,129.8828125,36.1328125,-14.16015625,114.74609375,67.3828125
1771542030.314375,155.2734375,41.9921875,-3.41796875,120.1171875,77.63671875
1771542030.3182812,124.51171875,35.64453125,-1.953125,115.234375,52.24609375
1771542030.3221874,80.078125,31.73828125,0.48828125,109.375,-7.8125
1771542030.3260937,97.16796875,34.66796875,6.34765625,107.91015625,-4.39453125
1771542030.326125,138.18359375,33.69140625,0.48828125,105.95703125,-8.7890625
1771542030.3300312,125.0,31.25,-6.8359375,108.3984375,4.8828125
1771542030.3339374,78.61328125,31.73828125,3.90625,99.12109375,35.15625
1771542030.3378437,79.1015625,34.1796875,8.7890625,91.796875,61.03515625
1771542030.34175,105.95703125,28.80859375,0.0,95.703125,20.99609375
1771542030.3456562,114.2578125,38.57421875,-0.48828125,104.4921875,-11.71875
1771542030.3495624,80.078125,41.015625,3.90625,97.16796875,26.85546875
1771542030.3534687,61.5234375,21.484375,1.46484375,85.9375,31.25
1771542030.357375,103.02734375,29.78515625,4.8828125,87.890625,43.45703125
1771542030.3612812,133.30078125,34.1796875,5.37109375,94.23828125,23.92578125
1771542030.3651874,82.03125,30.2734375,1.953125,83.984375,52.24609375
1771542030.3690937,43.45703125,34.1796875,7.32421875,71.2890625,55.17578125
1771542030.371125,82.51953125,34.66796875,11.23046875,78.61328125,16.11328125
1771542030.3750312,121.09375,35.64453125,6.8359375,85.9375,30.2734375
1771542030.3789375,95.21484375,39.0625,7.8125,80.56640625,43.45703125
1771542030.3828437,52.24609375,37.59765625,9.765625,72.75390625,45.41015625
1771542030.38675,75.1953125,31.25,9.765625,73.73046875,43.9453125
1771542030.3906562,115.234375,30.76171875,4.39453125,82.51953125,66.89453125
1771542030.3945625,101.5625,36.62109375,2.44140625,78.61328125,100.5859375
1771542030.3984687,50.29296875,43.45703125,6.34765625,71.77734375,63.4765625
1771542030.402375,58.59375,35.64453125,8.7890625,70.3125,43.45703125
1771542030.4062812,93.26171875,34.1796875,9.765625,64.453125,19.04296875
1771542030.4101875,92.7734375,42.48046875,13.18359375,70.3125,-20.5078125
1771542030.4140937,52.734375,47.36328125,11.71875,65.91796875,19.04296875
1771542030.417125,34.66796875,38.57421875,10.7421875,59.08203125,38.57421875
1771542030.4210312,77.1484375,29.78515625,16.6015625,66.89453125,26.85546875
1771542030.4249375,99.12109375,35.64453125,18.5546875,70.3125,14.6484375
1771542030.4288437,65.91796875,31.73828125,15.625,68.84765625,-39.0625
1771542030.43275,32.71484375,30.2734375,14.6484375,55.6640625,-14.6484375
1771542030.4366562,54.19921875,34.1796875,7.32421875,54.6875,14.6484375
1771542030.4405625,95.703125,43.9453125,11.23046875,59.08203125,2.9296875
1771542030.4444687,82.03125,48.828125,18.06640625,58.59375,5.37109375
1771542030.448375,35.64453125,36.62109375,12.6953125,53.7109375,-27.34375
1771542030.4522812,52.24609375,31.73828125,11.23046875,37.59765625,59.08203125
1771542030.4561875,96.19140625,31.73828125,13.18359375,37.59765625,67.87109375
1771542030.4600937,84.47265625,28.80859375,11.23046875,48.33984375,7.32421875
1771542030.462125,37.109375,34.66796875,9.27734375,47.8515625,22.94921875
1771542030.4660313,32.71484375,35.64453125,15.625,38.0859375,8.30078125
1771542030.4699376,74.21875,27.83203125,13.671875,41.50390625,41.9921875
1771542030.4738438,88.8671875,37.109375,7.8125,53.7109375,44.43359375
1771542030.47775,52.734375,51.26953125,19.04296875,49.31640625,40.0390625
1771542030.4816563,22.4609375,33.203125,20.01953125,41.015625,41.015625
1771542030.4855626,49.31640625,20.5078125,14.16015625,37.109375,21.97265625
1771542030.4894688,81.54296875,24.90234375,14.6484375,44.43359375,83.0078125
1771542030.493375,49.8046875,29.78515625,16.11328125,49.31640625,92.7734375
1771542030.4972813,13.18359375,40.0390625,18.5546875,42.48046875,39.55078125
1771542030.5011876,52.734375,42.48046875,15.13671875,44.921875,-8.30078125
1771542030.5050938,96.19140625,38.0859375,17.08984375,49.31640625,26.85546875
1771542030.506125,68.359375,34.1796875,22.94921875,52.734375,81.0546875
1771542030.5100312,21.97265625,39.0625,25.390625,48.828125,73.2421875
1771542030.5139375,35.15625,35.64453125,20.99609375,45.8984375,50.29296875
1771542030.5178437,84.9609375,32.71484375,9.765625,49.8046875,27.83203125
1771542030.52175,94.23828125,48.828125,14.16015625,53.22265625,30.76171875
1771542030.5256562,45.41015625,45.41015625,19.53125,50.29296875,-19.04296875
1771542030.5295625,27.34375,30.2734375,19.53125,44.43359375,-9.765625
1771542030.5334687,63.96484375,30.76171875,16.11328125,47.36328125,12.20703125
1771542030.537375,77.63671875,40.52734375,17.08984375,47.36328125,8.7890625
1771542030.5412812,40.52734375,37.109375,25.390625,41.50390625,-7.8125
1771542030.5451875,15.625,27.83203125,22.4609375,37.59765625,-3.90625
1771542030.5490937,55.6640625,25.87890625,19.53125,40.52734375,37.59765625
1771542030.552125,84.9609375,28.80859375,20.99609375,46.38671875,59.5703125
1771542030.5560312,56.640625,34.1796875,22.94921875,47.8515625,65.4296875
1771542030.5599375,30.2734375,32.71484375,23.4375,46.875,28.80859375
1771542030.5638437,51.26953125,36.62109375,20.01953125,47.36328125,16.11328125
1771542030.56775,88.37890625,45.8984375,17.08984375,49.8046875,-12.20703125
1771542030.5716562,70.3125,33.69140625,16.6015625,48.33984375,-5.37109375
1771542030.5755625,19.53125,27.34375,16.6015625,41.015625,54.19921875
1771542030.5794687,27.83203125,36.1328125,14.16015625,32.71484375,45.8984375
1771542030.583375,73.73046875,43.9453125,18.06640625,36.1328125,53.22265625
1771542030.5872812,71.2890625,43.9453125,20.5078125,43.9453125,56.640625
1771542030.5911875,20.99609375,42.48046875,18.06640625,38.0859375,51.26953125
1771542030.5950937,15.625,40.52734375,21.97265625,31.25,25.390625
1771542030.597125,56.15234375,37.109375,24.90234375,35.64453125,38.0859375
1771542030.6010313,70.3125,37.59765625,22.4609375,39.0625,93.75
1771542030.6049376,39.0625,35.64453125,20.5078125,35.64453125,23.92578125
1771542030.6088438,16.6015625,36.62109375,17.08984375,31.25,35.15625
1771542030.61275,49.31640625,45.8984375,13.18359375,35.64453125,64.94140625
1771542030.6166563,85.9375,39.0625,15.13671875,38.0859375,27.83203125
1771542030.6205626,61.03515625,28.80859375,23.4375,37.59765625,56.640625
1771542030.6244688,3.41796875,32.2265625,24.4140625,26.3671875,61.5234375
1771542030.628375,22.4609375,37.109375,24.4140625,21.484375,41.015625
1771542030.6322813,69.3359375,33.203125,22.4609375,32.2265625,60.05859375
1771542030.6361876,54.6875,35.64453125,20.99609375,29.296875,18.5546875
1771542030.6400938,7.32421875,39.55078125,24.90234375,22.94921875,42.48046875
1771542030.656125,10.25390625,34.1796875,26.85546875,27.34375,31.73828125
1771542030.6600313,56.640625,35.64453125,21.97265625,22.4609375,33.69140625
1771542030.6639376,59.08203125,36.1328125,21.484375,31.25,85.9375
1771542030.6678438,30.2734375,35.64453125,26.3671875,47.8515625,54.19921875
1771542030.67175,26.85546875,41.50390625,24.90234375,43.9453125,31.73828125
1771542030.6756563,54.19921875,37.109375,11.71875,31.73828125,56.640625
1771542030.6795626,79.58984375,32.71484375,12.6953125,41.015625,86.42578125
1771542030.6834688,60.546875,47.36328125,19.53125,43.45703125,44.43359375
1771542030.687375,26.3671875,43.9453125,15.13671875,28.3203125,5.37109375
1771542030.6912813,59.08203125,30.2734375,11.23046875,40.52734375,-12.20703125
1771542030.6951876,100.5859375,34.1796875,13.18359375,58.59375,31.25
1771542030.6990938,80.56640625,37.59765625,16.11328125,57.6171875,80.56640625
1771542030.702125,45.8984375,39.55078125,11.23046875,60.546875,50.29296875
1771542030.7060313,57.12890625,39.55078125,10.7421875,63.4765625,24.4140625
1771542030.7099376,85.9375,35.64453125,15.625,54.6875,51.26953125
1771542030.7138438,79.1015625,38.57421875,19.53125,51.7578125,52.734375
1771542030.71775,32.2265625,44.43359375,19.04296875,44.43359375,71.77734375
1771542030.7216563,31.73828125,41.9921875,17.08984375,42.96875,133.7890625
1771542030.7255626,87.40234375,34.66796875,18.5546875,51.7578125,94.7265625
1771542030.7294688,90.33203125,38.57421875,17.578125,52.734375,58.59375
1771542030.733375,37.59765625,41.9921875,8.7890625,42.48046875,87.40234375
1771542030.7372813,19.53125,34.66796875,7.8125,37.109375,75.68359375
1771542030.7411876,58.10546875,37.109375,16.6015625,37.109375,25.87890625
1771542030.7450938,73.73046875,44.921875,23.4375,41.015625,20.5078125
1771542030.747125,38.0859375,41.9921875,18.06640625,47.36328125,72.75390625
1771542030.7510312,8.30078125,30.2734375,9.27734375,34.1796875,92.28515625
1771542030.7549374,39.0625,26.85546875,16.11328125,32.2265625,36.1328125
1771542030.7588437,72.75390625,35.15625,23.92578125,45.41015625,41.9921875
1771542030.76275,55.6640625,39.0625,21.97265625,48.828125,50.29296875
1771542030.7666562,18.06640625,30.2734375,16.6015625,45.41015625,31.25
1771542030.7705624,18.06640625,29.296875,17.08984375,36.1328125,30.2734375
1771542030.7744687,55.6640625,36.62109375,16.11328125,41.9921875,-7.32421875
1771542030.778375,62.5,41.50390625,14.6484375,54.19921875,53.22265625
1771542030.7822812,19.04296875,40.0390625,17.578125,40.0390625,41.015625
1771542030.7861874,7.8125,39.0625,20.5078125,25.87890625,20.99609375
1771542030.7900937,59.08203125,41.50390625,17.578125,36.1328125,66.40625
1771542030.792125,81.54296875,37.59765625,18.06640625,47.8515625,42.48046875
1771542030.7960312,37.109375,47.36328125,23.4375,41.9921875,49.8046875
1771542030.7999375,14.16015625,41.015625,23.92578125,38.0859375,35.64453125
1771542030.8038437,44.43359375,28.80859375,24.4140625,40.0390625,17.578125
1771542030.80775,78.125,33.203125,25.390625,48.828125,-3.90625
1771542030.8116562,49.31640625,29.78515625,21.484375,48.33984375,3.90625
1771542030.8155625,6.8359375,33.69140625,20.99609375,35.64453125,22.94921875
1771542030.8194687,39.55078125,38.0859375,22.4609375,37.59765625,13.671875
1771542030.823375,81.0546875,35.64453125,18.5546875,41.50390625,32.2265625
1771542030.8272812,62.5,38.57421875,22.94921875,39.0625,43.45703125
1771542030.8311875,24.90234375,42.96875,24.90234375,39.0625,6.8359375
1771542030.8350937,26.85546875,40.0390625,24.4140625,43.45703125,38.0859375
1771542030.837125,62.5,35.64453125,19.53125,46.875,87.40234375
1771542030.8410313,70.80078125,32.2265625,18.06640625,39.55078125,51.26953125
1771542030.8449376,25.390625,38.57421875,20.5078125,30.76171875,44.921875
1771542030.8488438,11.71875,37.59765625,13.671875,31.25,27.83203125
1771542030.85275,53.22265625,32.2265625,17.08984375,38.57421875,39.0625
1771542030.8566563,76.66015625,41.9921875,26.85546875,45.41015625,84.47265625
1771542030.8605626,45.41015625,36.62109375,27.83203125,39.55078125,67.3828125
1771542030.8644688,30.2734375,31.25,19.53125,39.0625,16.11328125
1771542030.868375,60.05859375,37.109375,15.13671875,46.875,-31.25
1771542030.8722813,81.54296875,42.48046875,28.3203125,46.38671875,-27.34375
1771542030.8761876,58.10546875,37.59765625,31.73828125,45.8984375,18.06640625
1771542030.8800938,25.87890625,33.203125,27.83203125,55.17578125,4.39453125
1771542030.882125,44.921875,35.15625,29.296875,57.6171875,-8.30078125
1771542030.8860312,92.7734375,27.34375,27.83203125,62.98828125,46.875
1771542030.8899374,83.0078125,26.3671875,27.83203125,75.68359375,57.12890625
1771542030.8938437,34.1796875,33.69140625,31.25,68.359375,53.7109375
1771542030.89775,48.33984375,29.78515625,31.25,62.5,50.29296875
1771542030.9016562,93.26171875,28.3203125,31.73828125,73.73046875,11.71875
1771542030.9055624,90.8203125,36.62109375,29.78515625,71.2890625,46.38671875
1771542030.9094687,40.0390625,29.78515625,24.90234375,63.96484375,95.21484375
1771542030.913375,20.5078125,31.73828125,24.90234375,55.17578125,29.78515625
1771542030.9172812,54.6875,40.0390625,24.90234375,53.22265625,40.0390625
1771542030.9211874,81.0546875,25.87890625,20.01953125,66.40625,51.7578125
1771542030.9250937,48.33984375,27.83203125,24.4140625,62.98828125,-28.3203125
1771542030.927125,17.578125,35.15625,34.1796875,53.22265625,-13.18359375
1771542030.9310312,61.03515625,30.76171875,32.2265625,50.78125,51.26953125
1771542030.9349375,94.23828125,25.390625,26.85546875,53.7109375,61.03515625
1771542030.9388437,62.98828125,30.76171875,26.85546875,56.15234375,67.87109375
1771542030.94275,16.11328125,34.66796875,26.3671875,44.43359375,82.51953125
1771542030.9466562,39.0625,30.2734375,27.34375,43.9453125,51.7578125
1771542030.9505625,84.47265625,20.99609375,26.85546875,51.26953125,58.10546875
1771542030.9544687,78.61328125,30.76171875,28.3203125,57.12890625,95.703125
1771542030.958375,34.1796875,48.828125,31.73828125,50.29296875,83.49609375
1771542030.9622812,18.5546875,35.64453125,25.87890625,37.59765625,42.96875
1771542030.9661875,67.3828125,25.87890625,25.390625,45.41015625,-1.953125
1771542030.9700937,85.44921875,34.66796875,28.3203125,48.828125,11.23046875
1771542030.971125,30.76171875,39.55078125,29.296875,44.921875,28.80859375
1771542030.9750311,17.08984375,38.57421875,31.25,48.33984375,31.73828125
1771542030.9789374,56.640625,37.59765625,27.83203125,48.828125,22.94921875
1771542030.9828436,75.68359375,34.1796875,23.4375,55.17578125,49.31640625
1771542030.98675,37.59765625,36.1328125,24.4140625,51.26953125,79.58984375
1771542030.9906561,2.44140625,38.0859375,29.78515625,43.45703125,21.484375
1771542030.9945624,38.57421875,30.2734375,30.76171875,50.29296875,29.78515625
1771542030.9984686,82.03125,32.71484375,30.76171875,55.17578125,83.984375
1771542031.002375,61.03515625,31.25,30.76171875,54.6875,49.31640625
1771542031.0062811,11.71875,28.3203125,29.296875,51.7578125,20.01953125
1771542031.0101874,19.04296875,32.2265625,22.4609375,45.41015625,34.1796875
1771542031.0140936,54.6875,32.2265625,21.97265625,41.015625,72.265625
1771542031.016125,61.03515625,39.55078125,25.390625,44.43359375,106.93359375
1771542031.0200312,20.99609375,42.48046875,25.390625,40.0390625,118.1640625
1771542031.0239375,14.6484375,37.59765625,26.85546875,38.57421875,30.76171875
1771542031.0278437,66.89453125,44.921875,23.92578125,45.8984375,-39.0625
1771542031.03175,85.9375,39.55078125,19.04296875,52.24609375,-52.24609375
1771542031.0356562,39.55078125,30.2734375,18.06640625,54.6875,3.90625
1771542031.0395625,12.6953125,29.296875,17.578125,38.0859375,37.109375
1771542031.0434687,42.96875,35.64453125,16.11328125,30.2734375,-23.4375
1771542031.047375,71.77734375,41.50390625,15.13671875,37.59765625,10.25390625
1771542031.0512812,48.828125,38.0859375,19.53125,39.0625,16.11328125
1771542031.0551875,8.7890625,37.59765625,19.53125,27.83203125,37.109375
1771542031.0590937,23.92578125,36.1328125,22.4609375,21.484375,84.9609375
1771542031.077125,66.40625,29.78515625,27.34375,26.85546875,41.015625
1771542031.0810313,50.29296875,30.76171875,25.390625,29.78515625,28.3203125
1771542031.0849376,9.27734375,38.0859375,28.80859375,25.390625,59.5703125
1771542031.0888438,27.34375,45.41015625,26.85546875,23.92578125,42.48046875
1771542031.09275,74.70703125,37.59765625,23.4375,29.296875,62.01171875
1771542031.0966563,70.3125,33.203125,24.90234375,34.66796875,65.4296875
1771542031.1005626,15.13671875,44.921875,27.34375,33.203125,39.0625
1771542031.1044688,4.39453125,46.38671875,23.4375,24.90234375,23.92578125
1771542031.108375,43.9453125,31.25,19.04296875,21.97265625,12.6953125
1771542031.1122813,69.82421875,26.85546875,23.92578125,34.1796875,23.92578125
1771542031.1161876,32.71484375,36.1328125,25.87890625,35.15625,62.01171875
1771542031.1200938,5.37109375,37.109375,20.5078125,28.3203125,21.97265625
1771542031.137125,53.22265625,34.1796875,22.94921875,29.78515625,6.8359375
1771542031.1410313,79.1015625,38.0859375,21.97265625,32.2265625,23.4375
1771542031.1449375,41.50390625,40.52734375,16.11328125,33.69140625,-21.97265625
1771542031.1488438,5.37109375,40.52734375,24.90234375,31.73828125,-21.97265625
1771542031.15275,24.4140625,36.62109375,21.97265625,29.78515625,17.578125
1771542031.1566563,68.84765625,27.83203125,16.11328125,35.64453125,5.37109375
1771542031.1605625,62.01171875,29.296875,20.99609375,44.921875,34.66796875
1771542031.1644688,22.4609375,41.9921875,22.94921875,35.15625,39.0625
1771542031.168375,21.97265625,35.15625,15.625,24.90234375,9.27734375
1771542031.1722813,57.6171875,42.48046875,14.6484375,32.2265625,5.859375
1771542031.1761875,61.5234375,59.5703125,25.87890625,37.59765625,16.11328125
1771542031.1800938,17.578125,41.9921875,21.97265625,29.296875,26.3671875
1771542031.166125,-0.9765625,38.57421875,21.97265625,21.97265625,41.9921875
1771542031.1700313,42.96875,40.52734375,26.85546875,25.87890625,18.06640625
1771542031.1739376,67.3828125,34.1796875,23.4375,34.66796875,8.30078125
1771542031.1778438,13.671875,31.73828125,22.4609375,27.83203125,58.10546875
1771542031.18175,-4.39453125,32.2265625,21.97265625,17.578125,27.83203125
1771542031.1856563,41.015625,37.59765625,20.01953125,22.94921875,-44.43359375
1771542031.1895626,61.5234375,41.9921875,21.97265625,26.3671875,3.41796875
1771542031.1934688,31.25,40.0390625,23.4375,27.83203125,60.546875
1771542031.197375,0.48828125,40.52734375,23.92578125,23.92578125,82.03125
1771542031.2012813,24.90234375,41.9921875,28.3203125,17.08984375,101.07421875
1771542031.2051876,66.89453125,35.15625,24.90234375,20.5078125,82.51953125
1771542031.2090938,58.59375,31.73828125,18.06640625,27.83203125,37.109375
1771542031.212125,1.46484375,32.2265625,20.01953125,24.90234375,5.37109375
1771542031.2160313,0.48828125,40.0390625,24.90234375,14.6484375,10.7421875
1771542031.2199376,50.78125,46.875,24.90234375,13.671875,59.5703125
1771542031.2238438,69.82421875,54.6875,18.5546875,24.4140625,35.64453125
1771542031.22775,29.296875,50.29296875,14.16015625,27.83203125,48.828125
1771542031.2316563,0.9765625,28.80859375,10.7421875,12.6953125,68.84765625
1771542031.2355626,41.015625,30.2734375,19.04296875,15.13671875,30.2734375
1771542031.2394688,75.1953125,29.78515625,25.87890625,33.69140625,0.0
1771542031.243375,31.73828125,34.66796875,21.484375,30.76171875,39.55078125
1771542031.2472813,-9.27734375,44.43359375,20.01953125,21.484375,62.5
1771542031.2511876,26.3671875,42.48046875,22.94921875,20.01953125,46.875
1771542031.2550938,61.5234375,44.921875,24.4140625,24.90234375,33.203125
1771542031.257125,42.96875,46.38671875,24.90234375,30.2734375,-5.37109375
1771542031.2610312,2.44140625,36.62109375,24.4140625,18.5546875,27.83203125
1771542031.2649374,15.13671875,30.76171875,17.578125,21.484375,38.57421875
1771542031.2688437,50.78125,29.296875,17.578125,22.94921875,32.2265625
1771542031.27275,59.08203125,31.25,24.4140625,20.5078125,39.0625
1771542031.2766562,24.4140625,33.203125,23.4375,23.92578125,76.66015625
1771542031.2805624,-2.44140625,31.25,20.99609375,28.80859375,97.16796875
1771542031.2844687,41.015625,41.9921875,21.484375,32.2265625,89.35546875
1771542031.288375,58.10546875,50.29296875,22.4609375,29.78515625,52.24609375
1771542031.2922812,5.37109375,39.0625,19.53125,26.3671875,51.26953125
1771542031.2961874,-12.6953125,35.64453125,17.578125,19.04296875,29.296875
1771542031.3000937,26.3671875,31.25,20.01953125,21.484375,-6.8359375
1771542031.302125,62.98828125,39.0625,20.99609375,28.3203125,52.734375
1771542031.3060312,37.59765625,43.9453125,17.578125,28.3203125,41.9921875
1771542031.3099375,-5.37109375,39.0625,22.94921875,23.92578125,-5.859375
1771542031.3138437,17.08984375,43.45703125,22.94921875,27.34375,18.5546875
1771542031.31775,58.10546875,38.0859375,20.5078125,33.69140625,-17.578125
1771542031.3216562,39.55078125,35.15625,23.92578125,33.69140625,-5.859375
1771542031.3255625,-5.37109375,34.1796875,24.90234375,25.390625,95.21484375
1771542031.3294687,5.37109375,25.390625,26.3671875,19.04296875,110.3515625
1771542031.333375,58.59375,29.296875,27.83203125,23.4375,75.1953125
1771542031.3372812,60.546875,33.69140625,22.94921875,29.78515625,50.78125
1771542031.3411875,10.25390625,31.73828125,23.4375,22.94921875,13.18359375
1771542031.3450937,11.71875,47.36328125,28.80859375,20.5078125,21.97265625
1771542031.347125,52.24609375,50.29296875,22.94921875,27.34375,32.2265625
1771542031.3510313,61.03515625,33.203125,16.6015625,28.80859375,23.92578125
1771542031.3549376,19.53125,32.2265625,18.5546875,28.80859375,28.3203125
1771542031.3588438,0.9765625,39.55078125,18.5546875,19.53125,69.3359375
1771542031.36275,39.55078125,39.55078125,11.71875,16.6015625,74.70703125
1771542031.3666563,76.171875,30.2734375,12.20703125,29.78515625,75.68359375
1771542031.3705626,50.29296875,28.80859375,22.94921875,32.2265625,30.2734375
1771542031.3744688,0.0,37.109375,28.80859375,17.08984375,23.4375
1771542031.378375,18.06640625,42.48046875,24.4140625,11.23046875,52.734375
1771542031.3822813,55.6640625,39.0625,21.484375,18.5546875,-1.953125
1771542031.3861876,41.015625,30.2734375,18.06640625,22.94921875,-28.3203125
1771542031.3900938,-11.23046875,41.9921875,19.04296875,23.4375,40.0390625
1771542031.407125,-6.8359375,38.57421875,23.4375,19.53125,69.3359375
1771542031.4110312,38.57421875,27.34375,20.5078125,25.87890625,37.59765625
1771542031.4149375,41.9921875,32.2265625,22.4609375,32.2265625,38.57421875
1771542031.4188437,1.46484375,34.1796875,27.34375,26.85546875,40.0390625
1771542031.42275,-13.671875,31.73828125,23.92578125,24.90234375,41.015625
1771542031.4266562,32.2265625,27.34375,20.99609375,29.78515625,56.640625
1771542031.4305625,64.94140625,25.87890625,20.99609375,36.1328125,20.99609375
1771542031.4344687,24.4140625,30.2734375,20.5078125,36.1328125,7.32421875
1771542031.438375,-4.8828125,29.296875,16.11328125,33.69140625,25.390625
1771542031.4422812,38.0859375,33.69140625,17.578125,36.1328125,10.7421875
1771542031.4461875,75.68359375,46.38671875,24.4140625,36.62109375,16.11328125
1771542031.4500937,44.921875,41.50390625,22.4609375,26.3671875,10.7421875
1771542031.451125,-3.41796875,30.2734375,21.484375,20.01953125,-3.90625
1771542031.4550312,11.71875,29.78515625,22.4609375,22.4609375,12.20703125
1771542031.4589374,56.15234375,32.2265625,16.6015625,29.296875,26.85546875
1771542031.4628437,49.31640625,38.0859375,15.625,28.80859375,8.7890625
1771542031.46675,7.8125,34.66796875,16.6015625,27.83203125,-5.859375
1771542031.4706562,9.27734375,43.45703125,15.13671875,32.71484375,41.50390625
1771542031.4745624,50.29296875,47.8515625,16.11328125,23.92578125,44.921875
1771542031.4784687,49.31640625,29.78515625,22.4609375,16.6015625,38.0859375
1771542031.482375,-8.30078125,29.296875,26.3671875,18.5546875,86.9140625
1771542031.4862812,-22.4609375,27.34375,21.484375,19.04296875,43.45703125
1771542031.4901874,20.5078125,29.78515625,21.97265625,17.578125,47.36328125
1771542031.4940937,59.08203125,46.875,22.4609375,27.34375,79.1015625
1771542031.497125,39.0625,48.828125,13.18359375,41.015625,39.55078125
1771542031.5010312,0.9765625,32.2265625,12.6953125,31.25,51.7578125
1771542031.5049374,31.25,37.109375,23.4375,31.25,49.31640625
1771542031.5088437,81.0546875,46.875,29.78515625,41.9921875,14.16015625
1771542031.51275,62.01171875,46.875,27.34375,38.57421875,27.83203125
1771542031.5166562,19.04296875,41.9921875,18.5546875,36.62109375,48.828125
1771542031.5205624,37.59765625,42.48046875,20.01953125,40.52734375,26.85546875
1771542031.5244687,92.7734375,51.26953125,22.4609375,48.828125,9.27734375
1771542031.528375,87.40234375,35.15625,19.53125,58.59375,64.94140625
1771542031.5322812,31.73828125,23.92578125,26.3671875,54.6875,86.9140625
1771542031.5361874,39.55078125,33.69140625,29.78515625,47.36328125,29.78515625
1771542031.5400937,94.23828125,34.1796875,31.25,58.10546875,48.828125
1771542031.542125,112.3046875,28.3203125,31.25,77.63671875,59.08203125
1771542031.5460312,80.078125,28.3203125,30.76171875,83.49609375,10.7421875
1771542031.5499375,48.828125,32.71484375,33.203125,79.1015625,19.04296875
1771542031.5538437,99.12109375,27.83203125,27.83203125,74.70703125,74.21875
1771542031.55775,128.90625,31.25,31.25,88.37890625,47.36328125
1771542031.5616562,75.1953125,37.109375,31.25,94.7265625,6.34765625
1771542031.5655625,35.64453125,20.5078125,20.5078125,75.68359375,39.0625
1771542031.5694687,70.3125,17.08984375,25.87890625,73.73046875,78.125
1771542031.573375,114.2578125,20.01953125,31.73828125,84.47265625,89.35546875
1771542031.5772812,90.33203125,20.5078125,30.76171875,77.1484375,61.03515625
1771542031.5811875,38.0859375,29.78515625,28.3203125,64.453125,26.85546875
1771542031.5850937,52.24609375,32.71484375,25.390625,69.3359375,-4.8828125
1771542031.587125,96.6796875,34.66796875,26.85546875,72.75390625,0.0
1771542031.5910313,95.703125,31.73828125,31.25,70.3125,1.46484375
1771542031.5949376,45.41015625,34.66796875,29.296875,67.3828125,-13.671875
1771542031.5988438,36.1328125,31.73828125,26.85546875,64.94140625,41.50390625
1771542031.60275,80.078125,26.3671875,27.83203125,63.96484375,35.15625
1771542031.6066563,87.40234375,37.59765625,27.34375,68.84765625,60.546875
1771542031.6105626,40.0390625,32.71484375,24.4140625,58.59375,103.515625
1771542031.6144688,16.6015625,27.34375,19.04296875,49.31640625,15.13671875
1771542031.618375,58.10546875,31.25,20.01953125,47.36328125,51.26953125
1771542031.6222813,91.30859375,36.62109375,22.94921875,48.33984375,62.01171875
1771542031.6261876,53.22265625,30.2734375,21.97265625,43.9453125,3.90625
1771542031.6300938,11.71875,28.3203125,22.4609375,36.62109375,34.66796875
1771542031.632125,43.45703125,26.3671875,18.06640625,41.9921875,0.48828125
1771542031.6360312,82.51953125,22.94921875,22.4609375,54.6875,14.6484375
1771542031.6399374,61.03515625,29.78515625,29.296875,61.03515625,50.78125
1771542031.6438437,23.4375,43.9453125,26.3671875,53.22265625,48.828125
1771542031.64775,30.76171875,41.50390625,19.04296875,48.33984375,60.546875
1771542031.6516562,71.2890625,38.57421875,25.87890625,54.19921875,57.6171875
1771542031.6555624,85.44921875,40.52734375,32.71484375,58.59375,36.62109375
1771542031.6594687,37.109375,19.53125,23.92578125,42.96875,56.640625
1771542031.663375,16.6015625,22.94921875,24.4140625,30.76171875,61.5234375
1771542031.6672812,57.12890625,40.0390625,23.4375,34.1796875,15.625
1771542031.6711874,70.3125,39.55078125,21.97265625,44.921875,45.8984375
1771542031.6750937,30.2734375,42.48046875,29.78515625,47.36328125,70.3125
1771542031.677125,0.0,41.015625,29.296875,32.71484375,60.546875
1771542031.6810312,32.2265625,36.1328125,22.4609375,27.34375,37.109375
1771542031.6849375,75.68359375,45.8984375,23.4375,39.0625,40.0390625
1771542031.6888437,50.78125,43.45703125,24.4140625,36.62109375,66.89453125
1771542031.69275,9.27734375,39.55078125,20.99609375,29.296875,70.80078125
1771542031.6966562,26.3671875,38.0859375,19.04296875,29.78515625,83.0078125
1771542031.7005625,64.453125,37.59765625,14.6484375,35.15625,125.48828125
1771542031.7044687,55.17578125,37.59765625,15.625,41.015625,119.140625
1771542031.708375,6.34765625,38.57421875,21.484375,30.2734375,56.640625
1771542031.7122812,5.37109375,40.52734375,18.06640625,24.4140625,24.90234375
1771542031.7161875,56.640625,41.50390625,24.4140625,28.80859375,55.17578125
1771542031.7200937,68.84765625,41.9921875,26.85546875,35.15625,63.4765625
1771542031.721125,21.97265625,48.33984375,22.94921875,34.66796875,37.109375
1771542031.7250311,10.7421875,41.50390625,20.01953125,28.3203125,-2.44140625
1771542031.7289374,63.96484375,42.96875,18.5546875,37.59765625,31.73828125
1771542031.7328436,84.47265625,50.78125,14.16015625,41.50390625,84.47265625
1771542031.73675,32.2265625,42.48046875,15.13671875,33.203125,32.2265625
1771542031.7406561,-5.37109375,35.15625,24.4140625,29.296875,32.2265625
1771542031.7445624,31.73828125,26.85546875,17.08984375,31.25,-11.23046875
1771542031.7484686,68.359375,35.64453125,14.16015625,27.83203125,-38.57421875
1771542031.752375,35.64453125,45.41015625,27.83203125,23.4375,53.22265625
1771542031.7562811,-3.90625,37.59765625,29.296875,26.3671875,43.9453125
1771542031.7601874,19.04296875,29.296875,24.4140625,25.390625,39.55078125
1771542031.7640936,62.01171875,36.62109375,22.94921875,32.2265625,69.82421875
1771542031.767125,54.19921875,44.921875,24.4140625,35.64453125,77.63671875
1771542031.7710311,7.8125,40.0390625,20.01953125,27.34375,60.05859375
1771542031.7749374,11.23046875,38.0859375,17.578125,32.71484375,22.4609375
1771542031.7788436,57.6171875,42.96875,21.97265625,37.109375,40.0390625
1771542031.78275,72.265625,37.109375,20.99609375,39.0625,11.71875
1771542031.7866561,29.78515625,26.3671875,18.5546875,34.1796875,-1.46484375
1771542031.7905624,5.37109375,27.83203125,18.06640625,26.3671875,-6.34765625
1771542031.7944686,51.7578125,43.45703125,17.08984375,29.296875,-14.16015625
1771542031.798375,90.33203125,50.78125,18.06640625,43.9453125,13.671875
1771542031.8022811,53.7109375,42.96875,19.53125,45.8984375,7.8125
1771542031.8061874,10.7421875,39.0625,21.484375,34.66796875,70.80078125
1771542031.8100936,44.43359375,42.48046875,22.94921875,37.59765625,69.3359375
1771542031.827125,83.0078125,42.48046875,19.53125,47.8515625,0.48828125
1771542031.8310313,65.91796875,42.48046875,18.5546875,49.8046875,-20.01953125
1771542031.8349376,29.296875,42.48046875,17.08984375,42.48046875,-4.39453125
1771542031.8388438,37.59765625,37.59765625,14.6484375,41.50390625,8.7890625
1771542031.84275,81.54296875,37.109375,18.5546875,46.38671875,62.01171875
1771542031.8466563,82.03125,40.0390625,21.97265625,47.36328125,48.828125
1771542031.8505626,25.87890625,37.109375,24.4140625,37.59765625,-1.953125
1771542031.8544688,28.3203125,44.43359375,26.85546875,39.55078125,31.25
1771542031.858375,81.54296875,43.45703125,18.06640625,47.8515625,13.671875
1771542031.8622813,88.8671875,37.109375,11.71875,49.8046875,13.18359375
1771542031.8661876,32.71484375,44.43359375,20.99609375,37.59765625,75.1953125
1771542031.8700938,12.20703125,45.41015625,28.3203125,27.34375,38.57421875
1771542031.871125,54.19921875,40.0390625,18.5546875,32.71484375,20.99609375
1771542031.8750312,86.42578125,42.48046875,17.08984375,42.48046875,16.6015625
1771542031.8789375,45.8984375,43.45703125,22.94921875,40.52734375,8.7890625
1771542031.8828437,0.9765625,41.9921875,18.06640625,31.25,37.59765625
1771542031.88675,35.15625,41.015625,22.94921875,37.59765625,50.29296875
1771542031.8906562,77.63671875,42.48046875,25.390625,42.96875,62.98828125
1771542031.8945625,58.59375,44.921875,23.92578125,38.0859375,39.55078125
1771542031.8984687,9.765625,41.9921875,26.85546875,31.73828125,1.953125
1771542031.902375,20.99609375,37.109375,24.4140625,32.2265625,15.625
1771542031.9062812,64.94140625,31.73828125,20.99609375,41.015625,81.54296875
1771542031.9101875,72.75390625,34.1796875,26.3671875,41.9921875,54.19921875
1771542031.9140937,27.34375,43.45703125,28.3203125,37.59765625,28.3203125
1771542031.917125,16.6015625,41.015625,27.83203125,37.59765625,89.84375
1771542031.9210312,57.12890625,34.1796875,26.3671875,41.50390625,66.40625
1771542031.9249375,69.3359375,41.50390625,25.87890625,45.41015625,5.37109375
1771542031.9288437,36.1328125,47.36328125,24.90234375,42.48046875,24.4140625
1771542031.93275,4.8828125,37.59765625,19.04296875,36.1328125,81.54296875
1771542031.9366562,39.55078125,33.69140625,16.6015625,32.71484375,80.078125
1771542031.9405625,79.1015625,39.0625,20.99609375,35.15625,34.1796875
1771542031.9444687,50.29296875,54.19921875,25.390625,37.59765625,14.6484375
1771542031.948375,2.9296875,46.38671875,13.18359375,31.73828125,7.8125
1771542031.9522812,18.06640625,27.34375,9.765625,26.3671875,16.11328125
1771542031.9561875,70.80078125,44.921875,20.99609375,32.71484375,49.8046875
1771542031.9600937,63.96484375,43.9453125,22.94921875,40.52734375,74.70703125
1771542031.962125,4.39453125,35.15625,26.3671875,21.97265625,35.15625
1771542031.9660313,16.11328125,40.0390625,23.92578125,14.6484375,39.55078125
1771542031.9699376,59.5703125,41.9921875,20.01953125,22.94921875,51.7578125
1771542031.9738438,58.59375,45.41015625,18.06640625,30.76171875,46.875
1771542031.97775,7.8125,47.36328125,16.11328125,29.296875,34.1796875
1771542031.9816563,-12.6953125,44.921875,20.01953125,17.08984375,44.921875
1771542031.9855626,32.71484375,41.50390625,24.4140625,15.625,58.10546875
1771542031.9894688,51.7578125,38.0859375,23.4375,26.85546875,50.78125
1771542031.993375,13.18359375,38.57421875,20.99609375,22.94921875,31.25
1771542031.9972813,-9.27734375,44.43359375,24.4140625,16.6015625,-12.6953125
1771542032.0011876,35.15625,44.43359375,17.578125,21.97265625,-31.73828125
1771542032.0050938,65.91796875,34.1796875,12.6953125,25.390625,-1.46484375
1771542032.007125,33.203125,36.1328125,21.484375,33.203125,18.06640625
1771542032.0110312,-13.671875,44.921875,30.2734375,28.3203125,57.6171875
1771542032.0149374,4.8828125,41.50390625,28.80859375,21.97265625,48.828125
1771542032.0188437,53.7109375,36.62109375,22.94921875,25.390625,19.53125
1771542032.02275,42.48046875,45.41015625,24.90234375,25.87890625,5.859375
1771542032.0266562,-12.20703125,50.29296875,21.484375,21.97265625,-19.04296875
1771542032.0305624,-5.37109375,47.36328125,20.01953125,20.5078125,-0.9765625
1771542032.0344687,47.36328125,37.59765625,20.01953125,18.06640625,42.96875
1771542032.038375,58.10546875,40.0390625,22.4609375,20.99609375,-0.48828125
1771542032.0422812,9.27734375,43.9453125,22.94921875,25.390625,-17.08984375
1771542032.0461874,-7.8125,41.50390625,15.13671875,20.5078125,9.765625
1771542032.0500937,35.15625,48.828125,19.04296875,17.08984375,53.7109375
1771542032.052125,61.03515625,52.734375,24.90234375,20.99609375,30.76171875
1771542032.0560312,25.390625,46.875,27.34375,20.99609375,11.23046875
1771542032.0599375,-6.8359375,41.50390625,21.97265625,18.06640625,57.12890625
1771542032.0638437,30.2734375,47.8515625,17.08984375,17.578125,49.8046875
1771542032.06775,62.98828125,47.36328125,19.04296875,18.5546875,62.01171875
1771542032.0716562,49.8046875,41.9921875,20.99609375,24.4140625,52.24609375
1771542032.0755625,2.44140625,46.38671875,20.01953125,26.3671875,62.01171875
1771542032.0794687,-4.8828125,44.921875,14.6484375,25.390625,48.33984375
1771542032.083375,37.109375,41.015625,21.484375,30.2734375,15.13671875
1771542032.0872812,36.62109375,45.8984375,27.83203125,35.15625,62.98828125
1771542032.0911875,-10.25390625,45.8984375,26.85546875,27.34375,63.4765625
1771542032.0950937,-9.765625,39.55078125,26.3671875,21.97265625,17.08984375
1771542032.097125,34.1796875,39.0625,23.4375,22.94921875,15.13671875
1771542032.1010313,54.19921875,41.9921875,24.4140625,24.90234375,53.7109375
1771542032.1049376,19.04296875,47.8515625,25.390625,26.85546875,46.38671875
1771542032.1088438,-6.8359375,61.03515625,29.78515625,22.4609375,13.671875
1771542032.11275,32.71484375,50.29296875,24.90234375,26.3671875,71.77734375
1771542032.1166563,67.3828125,35.15625,21.97265625,41.015625,104.98046875
1771542032.1205626,39.0625,34.66796875,22.94921875,45.41015625,-0.48828125
1771542032.1244688,-2.44140625,49.8046875,20.01953125,26.85546875,-9.27734375
1771542032.128375,26.85546875,57.6171875,17.08984375,17.08984375,17.578125
1771542032.1322813,77.63671875,55.17578125,15.13671875,33.203125,35.15625
1771542032.1361876,58.10546875,49.8046875,15.625,46.38671875,79.1015625
1771542032.1400938,12.20703125,57.6171875,18.5546875,40.0390625,68.359375
1771542032.142125,38.0859375,64.94140625,20.99609375,31.25,40.0390625
1771542032.1460311,85.44921875,55.17578125,18.06640625,40.52734375,30.2734375
1771542032.1499374,72.75390625,50.78125,17.578125,50.29296875,71.77734375
1771542032.1538436,24.4140625,52.734375,20.01953125,41.50390625,19.53125
1771542032.15775,19.53125,47.8515625,15.13671875,41.50390625,-17.578125
1771542032.1616561,67.3828125,41.015625,7.8125,45.8984375,42.96875
1771542032.1655624,89.35546875,55.6640625,14.16015625,47.8515625,66.40625
1771542032.1694686,44.43359375,58.59375,21.97265625,40.52734375,35.15625
1771542032.173375,13.671875,50.29296875,23.4375,33.203125,14.16015625
1771542032.1772811,49.31640625,51.26953125,22.94921875,34.1796875,27.34375
1771542032.1811874,73.2421875,43.9453125,25.87890625,35.64453125,17.578125
1771542032.1850936,40.52734375,48.33984375,25.390625,41.50390625,13.18359375
1771542032.202125,-5.859375,48.33984375,19.04296875,30.76171875,7.32421875
1771542032.2060313,22.4609375,40.0390625,19.04296875,24.4140625,39.55078125
1771542032.2099376,72.75390625,39.55078125,22.4609375,30.2734375,92.7734375
1771542032.2138438,59.08203125,43.45703125,21.484375,33.69140625,42.48046875
1771542032.21775,7.32421875,48.33984375,26.3671875,30.76171875,73.73046875
1771542032.2216563,11.71875,43.9453125,25.87890625,28.3203125,131.34765625
1771542032.2255626,59.5703125,46.38671875,20.99609375,32.71484375,83.984375
1771542032.2294688,59.5703125,42.96875,22.4609375,30.76171875,31.73828125
1771542032.233375,14.6484375,36.62109375,25.87890625,28.3203125,34.66796875
1771542032.2372813,7.8125,40.0390625,20.5078125,31.73828125,6.8359375
1771542032.2411876,56.640625,43.9453125,17.08984375,26.85546875,-29.78515625
1771542032.2450938,87.890625,46.875,16.6015625,37.59765625,12.20703125
1771542032.247125,47.8515625,41.9921875,20.5078125,41.9921875,42.48046875
1771542032.2510312,1.46484375,40.0390625,26.3671875,28.3203125,58.10546875
1771542032.2549374,38.0859375,48.33984375,26.85546875,27.83203125,45.41015625
1771542032.2588437,79.1015625,46.38671875,24.4140625,35.15625,18.5546875
1771542032.26275,54.19921875,33.69140625,20.99609375,36.62109375,79.1015625
1771542032.2666562,19.04296875,39.0625,18.5546875,31.73828125,116.69921875
1771542032.2705624,38.0859375,43.9453125,18.5546875,29.78515625,36.1328125
1771542032.2744687,69.3359375,41.015625,18.5546875,35.15625,7.32421875
1771542032.278375,57.6171875,38.0859375,16.6015625,44.43359375,28.3203125
1771542032.2822812,11.71875,38.57421875,20.5078125,40.52734375,-1.46484375
1771542032.2861874,3.41796875,41.50390625,27.83203125,31.25,43.9453125
1771542032.2900937,45.41015625,31.73828125,29.296875,39.0625,70.80078125
1771542032.292125,56.15234375,29.296875,25.390625,42.96875,66.40625
1771542032.2960312,12.6953125,38.0859375,23.4375,28.80859375,45.41015625
1771542032.2999375,-9.27734375,35.15625,22.94921875,12.6953125,69.82421875
1771542032.3038437,30.76171875,31.73828125,22.4609375,19.53125,48.828125
1771542032.30775,62.01171875,40.0390625,20.01953125,27.83203125,9.27734375
1771542032.3116562,23.4375,44.921875,20.99609375,25.87890625,49.8046875
1771542032.3155625,-11.23046875,42.96875,20.99609375,18.06640625,48.33984375
1771542032.3194687,29.78515625,43.45703125,19.04296875,14.16015625,21.484375
1771542032.323375,66.40625,44.43359375,19.53125,27.34375,-6.8359375
1771542032.3272812,30.2734375,40.0390625,16.6015625,22.94921875,8.30078125
1771542032.3311875,-12.6953125,41.50390625,19.53125,14.16015625,56.640625
1771542032.3350937,4.39453125,37.109375,20.01953125,24.4140625,38.57421875
1771542032.337125,41.50390625,30.76171875,12.6953125,32.2265625,26.85546875
1771542032.3410313,36.62109375,38.0859375,14.16015625,33.69140625,-15.625
1771542032.3449376,-1.46484375,36.1328125,19.04296875,26.85546875,-48.33984375
1771542032.3488438,14.6484375,24.4140625,26.3671875,43.9453125,20.5078125
1771542032.35275,59.5703125,22.4609375,30.76171875,52.24609375,45.8984375
1771542032.3566563,63.96484375,30.76171875,27.34375,44.921875,33.203125
1771542032.3605626,0.0,44.43359375,31.25,18.5546875,47.36328125
1771542032.3644688,-42.96875,47.8515625,32.71484375,-12.20703125,8.7890625
1771542032.368375,-8.7890625,32.71484375,25.87890625,-9.27734375,-7.32421875
1771542032.3722813,14.6484375,26.3671875,30.76171875,-1.46484375,81.0546875
1771542032.3761876,-18.06640625,33.203125,39.55078125,2.44140625,71.77734375
1771542032.3800938,-49.8046875,34.1796875,34.66796875,-6.34765625,14.16015625
1771542032.382125,-22.4609375,34.66796875,35.15625,-6.34765625,15.13671875
1771542032.3860312,21.97265625,34.1796875,32.71484375,8.30078125,27.34375
1771542032.3899374,17.578125,36.1328125,28.3203125,11.71875,43.45703125
1771542032.3938437,-31.73828125,38.0859375,29.78515625,0.9765625,41.9921875
1771542032.39775,-25.390625,35.64453125,29.296875,7.32421875,20.5078125
1771542032.4016562,19.04296875,39.0625,27.34375,13.671875,15.13671875
1771542032.4055624,23.4375,42.48046875,29.296875,13.671875,39.55078125
1771542032.4094687,-17.08984375,31.25,25.390625,7.32421875,41.50390625
1771542032.413375,-18.5546875,35.15625,21.484375,1.953125,-3.41796875
1771542032.4172812,27.34375,46.38671875,23.4375,9.765625,20.99609375
1771542032.4211874,42.48046875,40.52734375,21.484375,16.6015625,40.0390625
1771542032.4250937,-3.41796875,36.1328125,24.4140625,16.6015625,36.1328125
1771542032.426125,-24.90234375,46.875,31.73828125,9.27734375,45.8984375
1771542032.4300313,9.765625,45.41015625,32.71484375,9.765625,46.38671875
1771542032.4339375,41.015625,36.1328125,28.3203125,19.53125,49.8046875
1771542032.4378438,15.625,38.0859375,26.3671875,21.97265625,53.22265625
1771542032.44175,-25.87890625,42.48046875,22.94921875,12.20703125,11.23046875
1771542032.4456563,-5.37109375,38.0859375,22.94921875,16.11328125,-17.08984375
1771542032.4495625,39.0625,37.59765625,28.80859375,24.90234375,58.10546875
1771542032.4534688,30.2734375,42.48046875,25.390625,22.94921875,97.16796875
1771542032.457375,-20.01953125,42.96875,28.3203125,22.4609375,24.4140625
1771542032.4612813,-6.34765625,36.62109375,31.73828125,19.53125,-40.52734375
1771542032.4651875,42.96875,34.66796875,30.2734375,22.4609375,-31.73828125
1771542032.4690938,49.8046875,46.38671875,29.296875,29.296875,-0.9765625
1771542032.472125,1.46484375,51.7578125,30.76171875,24.90234375,7.32421875
1771542032.4760313,-15.625,44.43359375,28.80859375,16.6015625,47.8515625
1771542032.4799376,26.85546875,39.55078125,13.18359375,14.16015625,72.75390625
1771542032.4838438,54.19921875,56.640625,14.16015625,20.99609375,53.22265625
1771542032.48775,25.390625,55.17578125,21.97265625,20.5078125,6.8359375
1771542032.4916563,-19.53125,33.203125,20.01953125,12.6953125,28.3203125
1771542032.4955626,8.30078125,27.83203125,20.99609375,13.18359375,32.71484375
1771542032.4994688,46.38671875,36.1328125,18.06640625,14.6484375,-4.8828125
1771542032.503375,18.06640625,41.9921875,20.01953125,18.06640625,49.8046875
1771542032.5072813,-22.94921875,36.1328125,26.85546875,21.484375,76.66015625
1771542032.5111876,4.8828125,41.015625,24.90234375,21.484375,82.51953125
1771542032.5150938,55.17578125,38.57421875,17.578125,23.4375,44.921875
1771542032.517125,50.78125,32.71484375,21.484375,35.64453125,15.625
1771542032.5210311,4.8828125,27.34375,28.3203125,34.1796875,-11.71875
1771542032.5249374,3.41796875,29.78515625,25.87890625,28.80859375,-23.4375
1771542032.5288436,41.015625,45.41015625,24.90234375,34.66796875,0.48828125
