timestamps,TP9,AF7,AF8,TP10,Right AUX
1771546207.349125,77.63671875,34.66796875,3.41796875,57.6171875,54.6875
1771546207.3530312,81.54296875,21.484375,5.37109375,68.84765625,57.12890625
1771546207.3569374,89.84375,22.4609375,3.41796875,79.1015625,48.33984375
1771546207.3608437,95.703125,25.390625,2.44140625,84.47265625,61.5234375
1771546207.36475,99.12109375,27.83203125,6.34765625,86.42578125,53.7109375
1771546207.3686562,98.14453125,36.62109375,-0.9765625,74.70703125,52.24609375
1771546207.3725624,99.12109375,31.73828125,-3.90625,76.171875,51.26953125
1771546207.3764687,95.21484375,25.390625,5.859375,93.26171875,44.43359375
1771546207.380375,93.26171875,21.97265625,1.953125,93.75,29.296875
1771546207.3842812,98.14453125,26.85546875,0.48828125,90.33203125,13.18359375
1771546207.3881874,110.3515625,43.45703125,11.71875,96.6796875,20.5078125
1771546207.3920937,110.83984375,25.390625,15.13671875,101.5625,51.26953125
1771546207.394125,88.37890625,5.859375,4.8828125,92.7734375,37.109375
1771546207.3980312,67.3828125,21.484375,-6.34765625,63.4765625,69.82421875
1771546207.4019375,67.3828125,27.83203125,-0.9765625,56.15234375,51.7578125
1771546207.4058437,75.1953125,26.3671875,5.37109375,70.3125,5.37109375
1771546207.40975,74.21875,29.78515625,4.39453125,76.171875,31.73828125
1771546207.4136562,64.94140625,33.69140625,5.37109375,66.40625,25.87890625
1771546207.4175625,53.7109375,33.69140625,5.859375,55.17578125,58.59375
1771546207.4214687,58.59375,30.76171875,4.8828125,56.640625,25.87890625
1771546207.425375,70.80078125,22.4609375,11.71875,63.96484375,31.73828125
1771546207.4292812,68.84765625,29.78515625,20.5078125,60.546875,23.92578125
1771546207.4331875,53.7109375,37.109375,20.01953125,48.828125,-36.62109375
1771546207.4370937,53.7109375,29.78515625,18.06640625,48.828125,1.46484375
1771546207.440125,62.01171875,28.3203125,13.671875,50.78125,-4.39453125
1771546207.4440312,61.03515625,33.203125,10.25390625,55.6640625,-10.7421875
1771546207.4479375,52.734375,34.1796875,13.671875,55.17578125,51.26953125
1771546207.4518437,52.734375,32.2265625,15.13671875,47.8515625,86.42578125
1771546207.45575,58.59375,27.34375,15.625,50.78125,55.17578125
1771546207.4596562,55.17578125,24.4140625,17.08984375,56.640625,48.828125
1771546207.4635625,48.33984375,26.3671875,16.11328125,47.36328125,51.7578125
1771546207.4674687,51.26953125,27.83203125,20.99609375,43.9453125,47.8515625
1771546207.471375,61.03515625,27.34375,22.4609375,44.921875,65.91796875
1771546207.4752812,60.05859375,27.34375,21.484375,42.48046875,51.26953125
1771546207.4791875,45.8984375,28.80859375,24.4140625,38.0859375,32.71484375
1771546207.4830937,44.43359375,29.78515625,21.484375,34.66796875,17.578125
1771546207.484125,53.7109375,28.80859375,19.04296875,44.43359375,42.96875
1771546207.4880311,59.5703125,29.296875,19.53125,47.8515625,56.640625
1771546207.4919374,59.5703125,28.3203125,20.01953125,44.43359375,88.8671875
1771546207.4958436,53.7109375,27.34375,20.99609375,39.55078125,80.078125
1771546207.49975,53.7109375,27.83203125,20.5078125,44.43359375,42.48046875
1771546207.5036561,51.7578125,30.2734375,21.484375,52.24609375,70.3125
1771546207.5075624,42.48046875,33.69140625,25.87890625,52.24609375,67.87109375
1771546207.5114686,31.73828125,28.80859375,28.80859375,44.43359375,43.45703125
1771546207.515375,31.73828125,24.4140625,28.80859375,37.59765625,10.7421875
1771546207.5192811,44.43359375,24.90234375,35.15625,51.7578125,12.6953125
1771546207.5231874,49.31640625,27.83203125,36.62109375,63.96484375,-1.953125
1771546207.5270936,44.921875,36.1328125,28.3203125,51.7578125,7.32421875
1771546207.529125,41.9921875,35.15625,24.4140625,33.203125,25.390625
1771546207.5330312,39.0625,37.59765625,23.4375,31.73828125,24.90234375
1771546207.5369375,41.015625,41.9921875,19.04296875,37.109375,13.18359375
1771546207.5408437,43.9453125,41.9921875,17.08984375,29.78515625,50.78125
1771546207.54475,32.2265625,41.9921875,12.20703125,8.7890625,77.1484375
1771546207.5486562,26.3671875,40.52734375,6.8359375,0.0,22.94921875
1771546207.5525625,36.1328125,40.52734375,6.8359375,13.671875,-2.44140625
1771546207.5564687,40.52734375,41.015625,13.671875,19.53125,11.23046875
1771546207.560375,25.87890625,39.55078125,20.01953125,10.25390625,42.48046875
1771546207.5642812,21.484375,41.015625,16.11328125,11.71875,57.6171875
1771546207.5681875,35.15625,42.48046875,11.23046875,22.4609375,57.6171875
1771546207.5720937,38.57421875,41.50390625,13.18359375,25.87890625,35.15625
1771546207.575125,33.69140625,42.48046875,17.578125,20.5078125,8.30078125
1771546207.5790312,35.15625,42.48046875,17.08984375,21.97265625,-20.5078125
1771546207.5829375,42.96875,40.52734375,16.6015625,31.25,14.6484375
1771546207.5868437,40.52734375,38.57421875,20.5078125,33.69140625,28.3203125
1771546207.59075,33.203125,36.1328125,20.99609375,26.3671875,-20.01953125
1771546207.5946562,34.1796875,34.1796875,23.92578125,28.3203125,-41.9921875
1771546207.5985625,40.0390625,32.71484375,28.80859375,38.57421875,46.875
1771546207.6024687,40.52734375,32.2265625,26.85546875,38.57421875,45.41015625
1771546207.606375,33.69140625,31.25,26.85546875,36.62109375,-3.41796875
1771546207.6102812,29.296875,33.203125,28.3203125,31.73828125,20.99609375
1771546207.6141875,35.64453125,34.66796875,24.90234375,36.1328125,5.37109375
1771546207.6180937,41.50390625,34.1796875,16.6015625,41.50390625,18.06640625
1771546207.620125,40.0390625,33.203125,12.20703125,34.1796875,51.7578125
1771546207.6240313,33.69140625,32.71484375,14.6484375,26.85546875,20.5078125
1771546207.6279376,31.73828125,33.203125,20.5078125,26.85546875,20.5078125
1771546207.6318438,33.203125,31.73828125,25.390625,34.66796875,36.1328125
1771546207.63575,36.62109375,29.296875,27.34375,36.1328125,71.77734375
1771546207.6396563,32.2265625,29.296875,29.296875,28.80859375,42.96875
1771546207.6435626,26.85546875,29.78515625,26.85546875,15.625,-29.78515625
1771546207.6474688,32.2265625,28.80859375,25.87890625,20.99609375,24.4140625
1771546207.651375,35.64453125,30.76171875,25.390625,32.2265625,35.64453125
1771546207.6552813,24.90234375,30.2734375,24.90234375,22.94921875,20.5078125
1771546207.6591876,25.87890625,29.296875,27.83203125,21.484375,9.27734375
1771546207.6630938,37.59765625,32.2265625,25.87890625,26.85546875,21.484375
1771546207.679125,41.50390625,34.1796875,24.90234375,33.203125,81.0546875
1771546207.6830313,39.0625,34.1796875,23.92578125,29.78515625,68.359375
1771546207.6869376,30.2734375,30.76171875,21.484375,19.53125,23.92578125
1771546207.6908438,33.69140625,27.34375,25.87890625,26.85546875,-3.90625
1771546207.69475,36.1328125,24.90234375,25.390625,33.69140625,-40.0390625
1771546207.6986563,28.80859375,22.4609375,23.92578125,29.296875,1.953125
1771546207.7025626,26.3671875,22.94921875,20.01953125,16.6015625,41.50390625
1771546207.7064688,32.71484375,34.66796875,24.4140625,19.53125,21.484375
1771546207.710375,35.64453125,40.0390625,31.25,33.203125,63.4765625
1771546207.7142813,30.76171875,32.71484375,20.99609375,27.83203125,64.453125
1771546207.7181876,22.94921875,26.85546875,16.11328125,10.7421875,17.578125
1771546207.7220938,20.5078125,26.85546875,20.01953125,8.7890625,-4.39453125
1771546207.725125,29.78515625,28.80859375,21.97265625,21.484375,40.52734375
1771546207.7290313,39.0625,32.2265625,18.5546875,29.296875,31.73828125
1771546207.7329376,41.50390625,35.15625,20.01953125,24.4140625,0.0
1771546207.7368438,44.43359375,35.15625,23.92578125,26.3671875,0.48828125
1771546207.74075,49.31640625,35.64453125,26.3671875,37.59765625,6.34765625
1771546207.7446563,50.78125,34.1796875,30.2734375,41.50390625,21.484375
1771546207.7485626,42.48046875,30.2734375,29.296875,36.62109375,2.44140625
1771546207.7524688,44.43359375,35.64453125,35.64453125,34.1796875,25.87890625
1771546207.756375,55.17578125,40.0390625,39.0625,43.9453125,6.8359375
1771546207.7602813,52.734375,34.1796875,30.76171875,42.96875,-2.44140625
1771546207.7641876,47.8515625,30.76171875,33.203125,43.45703125,13.671875
1771546207.7680938,37.109375,30.2734375,33.203125,35.64453125,65.91796875
1771546207.770125,29.78515625,21.97265625,17.578125,16.6015625,109.375
1771546207.7740312,34.1796875,18.06640625,15.13671875,25.87890625,76.66015625
1771546207.7779374,32.2265625,20.5078125,22.4609375,33.203125,33.203125
1771546207.7818437,23.4375,25.390625,19.04296875,24.90234375,52.24609375
1771546207.78575,28.80859375,32.2265625,20.5078125,29.78515625,66.40625
1771546207.7896562,45.41015625,29.78515625,31.73828125,41.50390625,54.19921875
1771546207.7935624,41.9921875,26.3671875,38.57421875,43.45703125,31.25
1771546207.7974687,23.4375,26.85546875,33.203125,32.71484375,37.59765625
1771546207.801375,25.87890625,30.76171875,32.2265625,29.78515625,64.453125
1771546207.8052812,40.52734375,33.69140625,34.1796875,39.0625,56.15234375
1771546207.8091874,44.921875,28.3203125,28.3203125,41.50390625,-17.578125
1771546207.8130937,38.0859375,28.3203125,22.4609375,34.66796875,8.30078125
1771546207.830125,35.15625,28.80859375,21.97265625,33.69140625,31.25
1771546207.8340313,39.0625,29.78515625,23.92578125,37.59765625,28.80859375
1771546207.8379376,41.50390625,29.78515625,26.3671875,40.52734375,83.49609375
1771546207.8418438,47.36328125,27.34375,28.3203125,44.921875,72.265625
1771546207.84575,40.0390625,24.90234375,29.296875,38.57421875,1.953125
1771546207.8496563,35.15625,22.94921875,29.296875,34.66796875,19.04296875
1771546207.8535626,49.31640625,27.34375,29.296875,41.015625,62.5
1771546207.8574688,45.41015625,28.3203125,28.3203125,42.48046875,-4.8828125
1771546207.861375,31.25,25.87890625,24.90234375,30.76171875,7.8125
1771546207.8652813,32.71484375,27.83203125,25.390625,26.85546875,29.78515625
1771546207.8691876,39.55078125,31.73828125,27.83203125,42.96875,-12.6953125
1771546207.8730938,40.52734375,31.25,22.94921875,44.43359375,29.78515625
1771546207.860125,34.1796875,26.3671875,21.97265625,33.69140625,15.13671875
1771546207.8640313,24.90234375,26.3671875,26.85546875,33.203125,-4.8828125
1771546207.8679376,27.34375,28.3203125,28.3203125,40.0390625,50.78125
1771546207.8718438,37.59765625,24.90234375,24.4140625,47.36328125,79.1015625
1771546207.87575,41.015625,24.90234375,20.01953125,40.0390625,60.546875
1771546207.8796563,34.1796875,25.87890625,23.92578125,29.296875,15.13671875
1771546207.8835626,31.73828125,24.90234375,27.83203125,32.71484375,30.2734375
1771546207.8874688,38.57421875,27.34375,23.92578125,39.55078125,37.59765625
1771546207.891375,41.9921875,27.34375,22.4609375,38.0859375,17.08984375
1771546207.8952813,44.921875,28.80859375,22.94921875,28.3203125,1.953125
1771546207.8991876,43.45703125,31.73828125,24.90234375,29.296875,44.43359375
1771546207.9030938,41.50390625,29.296875,22.94921875,32.2265625,59.5703125
1771546207.906125,43.9453125,25.87890625,11.71875,32.71484375,51.7578125
1771546207.9100313,35.15625,22.4609375,10.25390625,31.73828125,58.59375
1771546207.9139376,27.34375,20.99609375,19.04296875,27.83203125,92.28515625
1771546207.9178438,35.64453125,20.01953125,24.90234375,34.1796875,78.125
1771546207.92175,41.9921875,20.99609375,25.390625,40.52734375,55.6640625
1771546207.9256563,39.55078125,24.4140625,24.90234375,36.1328125,36.1328125
1771546207.9295626,34.1796875,25.87890625,23.4375,32.2265625,33.203125
1771546207.9334688,35.64453125,26.3671875,22.4609375,28.3203125,13.671875
1771546207.937375,40.52734375,27.83203125,24.90234375,32.71484375,-2.9296875
1771546207.9412813,39.0625,26.85546875,27.34375,36.62109375,53.22265625
1771546207.9451876,28.80859375,24.90234375,25.390625,26.85546875,60.546875
1771546207.9490938,27.34375,25.87890625,21.97265625,25.87890625,6.34765625
1771546207.950125,34.1796875,24.4140625,20.99609375,32.71484375,16.6015625
1771546207.9540312,30.76171875,21.97265625,20.99609375,35.15625,36.62109375
1771546207.9579375,22.94921875,24.4140625,17.08984375,27.34375,-2.9296875
1771546207.9618437,23.4375,22.94921875,18.5546875,22.4609375,5.859375
1771546207.96575,33.203125,24.4140625,25.87890625,33.203125,62.5
1771546207.9696562,35.64453125,26.3671875,23.92578125,40.52734375,51.7578125
1771546207.9735625,26.3671875,23.92578125,20.01953125,31.25,26.3671875
1771546207.9774687,27.83203125,23.4375,21.484375,21.484375,31.25
1771546207.981375,37.109375,28.3203125,24.90234375,28.80859375,30.76171875
1771546207.9852812,40.52734375,33.69140625,26.3671875,40.0390625,70.3125
1771546207.9891875,36.1328125,34.66796875,21.97265625,33.69140625,54.6875
1771546207.9930937,36.1328125,31.73828125,18.5546875,26.85546875,46.38671875
1771546207.995125,42.96875,31.73828125,22.94921875,33.69140625,40.0390625
1771546207.9990313,42.96875,29.296875,21.484375,39.0625,13.671875
1771546208.0029376,43.9453125,29.296875,18.5546875,41.015625,32.71484375
1771546208.0068438,34.66796875,30.2734375,24.4140625,36.62109375,-10.7421875
1771546208.01075,31.25,29.78515625,26.85546875,29.78515625,3.41796875
1771546208.0146563,40.52734375,31.73828125,22.4609375,29.78515625,35.15625
1771546208.0185626,39.55078125,29.296875,20.99609375,23.4375,26.3671875
1771546208.0224688,31.25,26.85546875,24.90234375,17.08984375,30.2734375
1771546208.026375,22.94921875,30.76171875,22.4609375,17.578125,24.90234375
1771546208.0302813,30.76171875,31.73828125,20.01953125,26.3671875,74.70703125
1771546208.0341876,31.25,30.2734375,20.99609375,31.25,93.75
1771546208.0380938,23.4375,30.76171875,19.04296875,22.4609375,58.59375
1771546208.055125,23.4375,31.25,21.97265625,24.4140625,46.38671875
1771546208.0590312,25.390625,31.73828125,27.34375,30.76171875,93.26171875
1771546208.0629375,31.73828125,27.34375,31.25,37.109375,75.68359375
1771546208.0668437,36.1328125,26.3671875,31.25,43.45703125,5.859375
1771546208.07075,26.85546875,34.66796875,25.87890625,29.78515625,49.8046875
1771546208.0746562,22.4609375,36.1328125,23.4375,16.6015625,66.40625
1771546208.0785625,31.73828125,34.66796875,22.94921875,19.53125,56.640625
1771546208.0824687,30.2734375,36.62109375,23.92578125,23.4375,2.44140625
1771546208.086375,16.6015625,36.62109375,24.4140625,9.27734375,-52.734375
1771546208.0902812,19.53125,39.0625,23.92578125,11.71875,-13.671875
1771546208.0941875,37.109375,42.48046875,24.90234375,22.94921875,44.921875
1771546208.0980937,30.76171875,41.015625,25.87890625,17.578125,80.078125
1771546208.100125,18.5546875,41.9921875,26.85546875,14.16015625,50.29296875
1771546208.1040313,18.5546875,42.96875,25.390625,11.71875,16.11328125
1771546208.1079376,18.06640625,41.9921875,25.390625,12.6953125,-26.85546875
1771546208.1118438,18.06640625,42.48046875,26.3671875,12.6953125,3.41796875
1771546208.11575,12.20703125,38.57421875,25.87890625,6.8359375,55.17578125
1771546208.1196563,9.27734375,35.15625,26.85546875,8.7890625,39.55078125
1771546208.1235626,16.6015625,39.0625,27.34375,13.671875,27.34375
1771546208.1274688,21.97265625,37.59765625,25.87890625,14.6484375,17.08984375
1771546208.131375,18.5546875,34.66796875,26.3671875,15.13671875,86.9140625
1771546208.1352813,11.71875,33.69140625,23.4375,7.32421875,73.2421875
1771546208.1391876,16.11328125,35.64453125,22.94921875,9.27734375,-41.9921875
1771546208.1430938,23.92578125,39.0625,26.85546875,20.99609375,8.30078125
1771546208.145125,23.92578125,38.0859375,25.87890625,24.90234375,55.6640625
1771546208.1490312,18.06640625,36.62109375,24.90234375,18.06640625,54.19921875
1771546208.1529374,21.97265625,37.59765625,29.78515625,14.16015625,60.546875
1771546208.1568437,28.80859375,38.0859375,28.3203125,23.4375,14.16015625
1771546208.16075,34.1796875,36.62109375,24.4140625,25.87890625,-14.6484375
1771546208.1646562,33.203125,34.1796875,26.85546875,21.484375,-23.4375
1771546208.1685624,27.83203125,35.64453125,30.76171875,15.13671875,10.7421875
1771546208.1724687,32.2265625,38.0859375,33.203125,23.92578125,53.22265625
1771546208.176375,40.52734375,36.62109375,30.2734375,34.66796875,32.71484375
1771546208.1802812,37.109375,36.1328125,26.85546875,24.90234375,20.01953125
1771546208.1841874,24.4140625,38.57421875,28.80859375,17.08984375,27.34375
1771546208.1880937,22.94921875,35.64453125,30.76171875,22.94921875,41.015625
1771546208.190125,28.3203125,34.66796875,27.83203125,24.4140625,7.8125
1771546208.1940312,28.80859375,38.0859375,24.90234375,20.99609375,-30.2734375
1771546208.1979375,19.04296875,36.1328125,28.3203125,17.08984375,14.16015625
1771546208.2018437,17.578125,29.78515625,30.2734375,14.6484375,18.5546875
1771546208.20575,27.34375,30.2734375,31.25,20.5078125,7.32421875
1771546208.2096562,26.85546875,32.2265625,32.2265625,25.390625,68.84765625
1771546208.2135625,16.11328125,32.71484375,30.76171875,13.18359375,43.9453125
1771546208.2174687,14.16015625,33.203125,24.4140625,6.8359375,-9.765625
1771546208.221375,27.34375,30.76171875,25.390625,14.6484375,-1.46484375
1771546208.2252812,30.2734375,31.73828125,30.76171875,16.6015625,25.390625
1771546208.2291875,9.765625,27.83203125,33.69140625,7.32421875,12.20703125
1771546208.2330937,-3.41796875,21.97265625,32.71484375,-4.8828125,-11.71875
1771546208.238125,7.8125,28.80859375,24.90234375,-2.9296875,-1.46484375
1771546208.2420313,18.06640625,31.25,27.34375,11.23046875,-29.296875
1771546208.2459376,13.671875,23.92578125,34.66796875,16.11328125,2.44140625
1771546208.2498438,8.30078125,26.3671875,31.73828125,5.859375,42.96875
1771546208.25375,15.13671875,32.71484375,27.83203125,6.34765625,41.9921875
1771546208.2576563,27.34375,37.59765625,32.2265625,20.01953125,42.96875
1771546208.2615626,24.90234375,38.57421875,35.15625,16.6015625,33.69140625
1771546208.2654688,10.25390625,34.66796875,27.34375,-2.9296875,57.12890625
1771546208.269375,10.7421875,34.1796875,23.4375,-6.34765625,49.8046875
1771546208.2732813,22.4609375,36.1328125,28.80859375,11.23046875,59.5703125
1771546208.2771876,24.4140625,32.2265625,23.4375,18.06640625,79.58984375
1771546208.2810938,14.6484375,27.34375,16.11328125,5.37109375,11.23046875
1771546208.280125,8.30078125,28.3203125,16.6015625,-2.9296875,-4.39453125
1771546208.2840312,13.671875,27.34375,20.01953125,5.859375,41.50390625
1771546208.2879374,17.08984375,25.87890625,21.484375,17.578125,18.06640625
1771546208.2918437,7.8125,25.390625,19.53125,12.6953125,-17.08984375
1771546208.29575,4.39453125,27.34375,20.01953125,-2.9296875,8.30078125
1771546208.2996562,9.27734375,29.296875,21.484375,1.953125,21.97265625
1771546208.3035624,10.7421875,27.34375,19.04296875,14.6484375,27.83203125
1771546208.3074687,9.27734375,26.3671875,18.06640625,5.37109375,9.765625
1771546208.311375,4.8828125,29.296875,17.578125,-6.34765625,-21.97265625
1771546208.3152812,8.7890625,32.71484375,18.06640625,3.90625,28.80859375
1771546208.3191874,16.6015625,33.203125,18.5546875,14.16015625,51.26953125
1771546208.3230937,15.625,31.25,20.5078125,14.6484375,42.48046875
1771546208.324125,12.6953125,33.203125,17.08984375,7.8125,58.59375
1771546208.3280313,15.625,33.69140625,13.18359375,8.7890625,34.1796875
1771546208.3319376,28.3203125,30.76171875,18.06640625,21.97265625,17.08984375
1771546208.3358438,34.1796875,28.80859375,20.99609375,31.73828125,3.90625
1771546208.33975,30.76171875,27.83203125,23.4375,25.87890625,-1.953125
1771546208.3436563,26.85546875,27.83203125,21.97265625,14.6484375,46.875
1771546208.3475626,26.85546875,27.83203125,22.4609375,22.94921875,56.640625
1771546208.3514688,33.69140625,24.90234375,25.390625,33.203125,44.921875
1771546208.355375,30.76171875,29.296875,23.4375,27.83203125,62.98828125
1771546208.3592813,24.90234375,31.25,21.484375,20.99609375,22.94921875
1771546208.3631876,26.85546875,28.3203125,23.4375,26.3671875,-4.39453125
1771546208.3670938,35.15625,29.296875,25.390625,34.1796875,44.921875
1771546208.370125,34.66796875,27.34375,26.3671875,35.64453125,89.84375
1771546208.3740313,22.4609375,27.34375,24.90234375,26.3671875,75.68359375
1771546208.3779376,29.296875,29.78515625,22.94921875,26.3671875,44.921875
1771546208.3818438,36.1328125,31.25,22.4609375,37.109375,57.12890625
1771546208.38575,32.2265625,28.3203125,23.92578125,36.1328125,12.6953125
1771546208.3896563,30.2734375,25.390625,21.97265625,24.90234375,24.4140625
1771546208.3935626,35.15625,24.4140625,21.484375,28.3203125,36.62109375
1771546208.3974688,40.52734375,25.390625,23.92578125,36.62109375,-0.9765625
1771546208.401375,35.64453125,29.296875,21.97265625,31.25,14.6484375
1771546208.4052813,22.4609375,32.2265625,16.6015625,17.578125,51.26953125
1771546208.4091876,18.5546875,30.2734375,15.625,15.625,42.96875
1771546208.4130938,22.94921875,28.80859375,16.6015625,23.92578125,15.625
1771546208.430125,25.87890625,30.2734375,17.578125,25.87890625,12.6953125
1771546208.4340312,25.87890625,29.296875,19.04296875,22.4609375,65.91796875
1771546208.4379375,23.4375,29.296875,18.5546875,19.04296875,45.8984375
1771546208.4418437,26.3671875,32.71484375,16.11328125,26.85546875,42.48046875
1771546208.44575,31.25,33.69140625,18.06640625,39.0625,81.0546875
1771546208.4496562,35.64453125,34.66796875,22.4609375,37.59765625,34.66796875
1771546208.4535625,28.3203125,33.69140625,22.94921875,18.5546875,7.8125
1771546208.4574687,19.53125,33.203125,23.4375,16.6015625,31.73828125
1771546208.461375,30.2734375,33.69140625,20.5078125,25.87890625,85.9375
1771546208.4652812,31.73828125,31.25,19.04296875,27.83203125,55.6640625
1771546208.4691875,18.5546875,29.296875,19.04296875,19.53125,44.921875
1771546208.4730937,23.92578125,30.2734375,19.53125,16.11328125,76.66015625
1771546208.474125,38.0859375,29.296875,22.94921875,33.203125,33.203125
1771546208.4780312,37.59765625,25.87890625,25.87890625,38.0859375,7.32421875
1771546208.4819374,29.296875,26.85546875,24.4140625,26.85546875,10.7421875
1771546208.4858437,28.3203125,24.90234375,23.92578125,25.390625,51.26953125
1771546208.48975,35.15625,23.4375,25.390625,30.76171875,56.15234375
1771546208.4936562,40.0390625,26.3671875,26.85546875,35.64453125,17.08984375
1771546208.4975624,33.69140625,24.90234375,30.76171875,33.69140625,8.7890625
1771546208.5014687,26.3671875,26.3671875,31.25,26.85546875,10.7421875
1771546208.505375,35.15625,29.296875,27.34375,31.73828125,56.640625
1771546208.5092812,42.48046875,27.83203125,24.90234375,32.2265625,33.69140625
1771546208.5131874,38.0859375,26.3671875,27.83203125,28.3203125,-13.671875
1771546208.5170937,28.3203125,24.90234375,27.83203125,24.4140625,-13.18359375
1771546208.521125,33.203125,26.85546875,28.3203125,23.4375,47.8515625
1771546208.5250313,41.015625,30.2734375,26.3671875,37.109375,118.65234375
1771546208.5289376,44.43359375,27.83203125,24.4140625,41.9921875,87.890625
1771546208.5328438,38.57421875,26.85546875,28.3203125,31.25,28.3203125
1771546208.53675,29.296875,27.34375,30.76171875,24.90234375,29.78515625
1771546208.5406563,37.109375,23.4375,32.2265625,30.76171875,40.0390625
1771546208.5445626,39.0625,24.4140625,31.25,35.64453125,47.36328125
1771546208.5484688,28.3203125,24.90234375,29.78515625,26.85546875,31.25
1771546208.552375,25.87890625,23.4375,30.2734375,21.97265625,21.97265625
1771546208.5562813,33.69140625,23.4375,30.2734375,28.3203125,8.30078125
1771546208.5601876,36.1328125,23.92578125,33.203125,35.64453125,63.4765625
1771546208.5640938,34.66796875,26.3671875,28.3203125,36.1328125,42.48046875
1771546208.564125,28.3203125,26.85546875,23.92578125,25.87890625,-16.11328125
1771546208.5680313,28.80859375,27.34375,24.90234375,25.87890625,0.0
1771546208.5719376,35.64453125,28.3203125,26.3671875,35.15625,50.78125
1771546208.5758438,39.55078125,27.83203125,27.83203125,41.50390625,97.65625
1771546208.57975,30.76171875,25.87890625,29.78515625,35.15625,37.59765625
1771546208.5836563,26.3671875,25.87890625,29.78515625,33.69140625,39.55078125
1771546208.5875626,41.9921875,29.78515625,29.296875,43.45703125,32.2265625
1771546208.5914688,47.8515625,31.25,28.80859375,49.8046875,72.75390625
1771546208.595375,39.0625,27.34375,24.4140625,35.15625,104.00390625
1771546208.5992813,29.78515625,24.90234375,23.4375,21.97265625,54.19921875
1771546208.6031876,35.15625,26.3671875,30.2734375,39.0625,96.6796875
1771546208.6070938,46.38671875,26.85546875,29.296875,55.6640625,114.2578125
1771546208.609125,39.0625,29.296875,21.484375,41.50390625,44.43359375
1771546208.6130311,20.5078125,28.80859375,21.97265625,23.92578125,35.64453125
1771546208.6169374,22.94921875,30.76171875,25.390625,21.484375,54.19921875
1771546208.6208436,30.76171875,32.2265625,25.87890625,17.578125,-0.9765625
1771546208.62475,26.3671875,33.69140625,21.484375,14.16015625,-20.5078125
1771546208.6286561,22.4609375,40.0390625,18.06640625,9.765625,39.0625
1771546208.6325624,22.4609375,42.48046875,16.6015625,9.27734375,43.9453125
1771546208.6364686,37.59765625,41.015625,19.04296875,23.92578125,20.5078125
1771546208.640375,46.875,41.50390625,18.5546875,29.78515625,-8.30078125
1771546208.6442811,30.2734375,41.015625,18.5546875,20.5078125,16.6015625
1771546208.6481874,23.92578125,37.109375,19.53125,16.6015625,11.23046875
1771546208.6520936,28.3203125,33.203125,21.484375,24.90234375,5.859375
1771546208.654125,22.94921875,35.64453125,23.4375,26.85546875,44.921875
1771546208.6580312,18.5546875,37.59765625,25.390625,18.06640625,53.7109375
1771546208.6619375,24.4140625,36.62109375,22.94921875,13.18359375,28.80859375
1771546208.6658437,39.0625,32.2265625,20.99609375,20.5078125,35.15625
1771546208.66975,34.66796875,27.83203125,19.53125,35.15625,68.84765625
1771546208.6736562,22.94921875,29.78515625,17.08984375,35.15625,41.50390625
1771546208.6775625,23.4375,32.2265625,19.53125,24.4140625,8.30078125
1771546208.6814687,32.71484375,28.3203125,22.4609375,32.71484375,-11.23046875
1771546208.685375,38.57421875,28.3203125,22.94921875,38.57421875,45.8984375
1771546208.6892812,37.109375,28.80859375,22.4609375,30.2734375,54.19921875
1771546208.6931875,32.2265625,27.34375,23.92578125,24.90234375,4.8828125
1771546208.6970937,27.83203125,30.76171875,24.90234375,26.85546875,16.6015625
1771546208.700125,34.1796875,29.78515625,25.87890625,31.73828125,24.4140625
1771546208.7040312,37.59765625,30.2734375,22.4609375,39.55078125,46.875
1771546208.7079375,27.83203125,32.71484375,20.99609375,32.71484375,-4.8828125
1771546208.7118437,20.5078125,29.296875,23.92578125,20.5078125,-47.8515625
1771546208.71575,23.4375,29.296875,23.4375,34.1796875,0.48828125
1771546208.7196562,29.296875,31.25,20.99609375,47.36328125,15.625
1771546208.7235625,27.34375,27.83203125,23.4375,35.64453125,58.59375
1771546208.7274687,20.01953125,27.34375,25.87890625,24.4140625,64.453125
1771546208.731375,23.92578125,28.80859375,24.4140625,28.3203125,37.109375
1771546208.7352812,39.0625,30.2734375,22.4609375,38.57421875,53.7109375
1771546208.7391875,32.2265625,27.34375,22.94921875,31.25,-4.39453125
1771546208.7430937,16.6015625,23.4375,23.92578125,17.08984375,-7.32421875
1771546208.745125,28.3203125,27.83203125,22.94921875,27.34375,41.015625
1771546208.7490313,40.0390625,32.2265625,25.390625,41.9921875,9.765625
1771546208.7529376,37.59765625,30.76171875,23.4375,44.921875,20.5078125
1771546208.7568438,29.78515625,28.80859375,21.484375,26.3671875,25.390625
1771546208.76075,27.83203125,32.71484375,20.99609375,21.484375,-7.32421875
1771546208.7646563,44.43359375,34.66796875,16.11328125,42.96875,-9.765625
1771546208.7685626,53.22265625,30.76171875,18.06640625,47.8515625,18.06640625
1771546208.7724688,40.52734375,33.203125,21.484375,32.2265625,-1.46484375
1771546208.776375,36.62109375,33.69140625,23.4375,33.69140625,-16.6015625
1771546208.7802813,39.0625,30.76171875,24.90234375,47.36328125,62.01171875
1771546208.7841876,41.015625,32.71484375,25.87890625,52.734375,43.9453125
1771546208.7880938,38.0859375,34.1796875,27.34375,51.7578125,-5.859375
1771546208.791125,34.66796875,33.203125,27.34375,43.45703125,28.3203125
1771546208.7950313,40.52734375,29.296875,27.83203125,40.52734375,54.19921875
1771546208.7989376,48.828125,29.296875,24.4140625,41.50390625,43.45703125
1771546208.8028438,47.36328125,32.2265625,23.4375,41.50390625,3.41796875
1771546208.80675,41.015625,29.296875,27.34375,40.0390625,32.71484375
1771546208.8106563,34.1796875,22.4609375,32.71484375,36.1328125,12.6953125
1771546208.8145626,30.2734375,22.4609375,30.2734375,33.203125,9.27734375
1771546208.8184688,32.2265625,24.90234375,26.3671875,36.1328125,53.7109375
1771546208.822375,32.71484375,25.87890625,30.2734375,33.203125,42.48046875
1771546208.8262813,30.2734375,23.4375,30.76171875,31.25,67.87109375
1771546208.8301876,30.2734375,25.390625,33.203125,41.9921875,57.12890625
1771546208.8340938,36.1328125,27.34375,34.1796875,42.96875,43.9453125
1771546208.850125,36.62109375,24.4140625,25.87890625,32.71484375,83.49609375
1771546208.8540313,33.203125,20.5078125,24.90234375,30.76171875,41.50390625
1771546208.8579376,36.1328125,20.01953125,29.78515625,31.73828125,-0.9765625
1771546208.8618438,41.015625,21.97265625,29.78515625,34.1796875,14.16015625
1771546208.86575,35.15625,20.99609375,25.87890625,28.80859375,32.71484375
1771546208.8696563,21.97265625,17.08984375,22.4609375,9.27734375,23.4375
1771546208.8735626,22.94921875,19.04296875,23.4375,7.32421875,14.6484375
1771546208.8774688,30.2734375,24.4140625,25.390625,20.01953125,56.15234375
1771546208.881375,27.83203125,25.87890625,20.99609375,18.06640625,61.03515625
1771546208.8852813,20.01953125,23.4375,19.53125,7.32421875,65.91796875
1771546208.8891876,23.4375,23.92578125,21.484375,6.8359375,49.31640625
1771546208.8930938,35.15625,25.390625,20.99609375,18.5546875,-13.18359375
1771546208.895125,34.66796875,24.4140625,20.99609375,25.390625,29.78515625
1771546208.8990312,24.4140625,22.94921875,20.99609375,15.13671875,102.5390625
1771546208.9029374,24.90234375,23.4375,22.4609375,14.16015625,42.48046875
1771546208.9068437,33.203125,23.92578125,24.90234375,28.80859375,-30.76171875
1771546208.91075,35.64453125,27.34375,25.390625,33.69140625,7.8125
1771546208.9146562,26.3671875,26.85546875,22.94921875,27.34375,45.41015625
1771546208.9185624,21.97265625,22.4609375,21.97265625,21.484375,19.04296875
1771546208.9224687,27.34375,20.5078125,22.4609375,28.80859375,19.04296875
1771546208.926375,28.80859375,20.5078125,20.5078125,39.0625,62.98828125
1771546208.9302812,27.34375,20.5078125,23.4375,39.0625,68.84765625
1771546208.9341874,26.3671875,22.94921875,28.3203125,34.1796875,58.59375
1771546208.9380937,32.71484375,25.87890625,21.97265625,37.59765625,56.15234375
1771546208.940125,45.41015625,25.390625,15.13671875,42.96875,28.3203125
1771546208.9440312,48.828125,25.87890625,20.01953125,38.57421875,15.625
1771546208.9479375,41.015625,26.85546875,22.94921875,31.25,17.578125
1771546208.9518437,42.96875,28.80859375,25.390625,31.73828125,22.94921875
1771546208.95575,51.26953125,24.4140625,23.92578125,39.55078125,26.3671875
1771546208.9596562,51.7578125,22.94921875,22.4609375,39.55078125,2.9296875
1771546208.9635625,40.52734375,28.80859375,22.4609375,29.296875,3.41796875
1771546208.9674687,35.15625,29.296875,24.90234375,25.390625,27.34375
1771546208.971375,43.9453125,30.2734375,27.83203125,35.15625,48.33984375
1771546208.9752812,48.33984375,30.2734375,28.3203125,43.45703125,50.29296875
1771546208.9791875,39.55078125,32.71484375,29.296875,35.64453125,47.8515625
1771546208.9830937,33.203125,31.25,26.3671875,27.83203125,17.08984375
1771546208.986125,37.109375,29.78515625,25.390625,36.1328125,46.875
1771546208.9900312,41.9921875,28.3203125,28.3203125,40.52734375,84.47265625
1771546208.9939375,41.9921875,25.87890625,29.296875,37.59765625,28.80859375
1771546208.9978437,29.78515625,21.97265625,28.3203125,29.78515625,29.296875
1771546209.00175,26.3671875,21.484375,24.4140625,25.87890625,88.37890625
1771546209.0056562,30.2734375,23.92578125,24.90234375,34.1796875,54.6875
1771546209.0095625,28.3203125,22.4609375,27.34375,34.66796875,37.59765625
1771546209.0134687,23.92578125,19.53125,26.85546875,20.01953125,101.5625
1771546209.017375,25.390625,21.97265625,25.390625,18.06640625,80.56640625
1771546209.0212812,29.78515625,26.3671875,23.4375,29.78515625,25.87890625
1771546209.0251875,32.2265625,23.92578125,25.390625,33.69140625,19.53125
1771546209.0290937,27.83203125,24.90234375,24.90234375,25.390625,41.9921875
1771546209.046125,20.99609375,25.390625,25.390625,23.4375,20.01953125
1771546209.0500312,23.4375,24.90234375,30.2734375,39.55078125,35.15625
1771546209.0539374,29.296875,25.87890625,26.3671875,38.0859375,39.55078125
1771546209.0578437,26.85546875,21.484375,24.90234375,27.83203125,60.05859375
1771546209.06175,20.99609375,22.94921875,25.87890625,26.85546875,70.3125
1771546209.0656562,25.87890625,28.3203125,20.99609375,27.83203125,44.43359375
1771546209.0695624,32.2265625,27.83203125,21.484375,30.76171875,-12.20703125
1771546209.0734687,27.83203125,28.80859375,21.484375,20.5078125,0.0
1771546209.077375,20.01953125,28.3203125,20.01953125,8.30078125,26.3671875
1771546209.0812812,24.90234375,28.80859375,21.97265625,14.16015625,-9.27734375
1771546209.0851874,38.57421875,27.34375,21.484375,24.4140625,-10.7421875
1771546209.0890937,37.59765625,25.390625,22.4609375,25.87890625,48.33984375
1771546209.076125,29.78515625,25.390625,23.4375,21.484375,14.6484375
1771546209.0800312,29.78515625,24.4140625,25.87890625,21.97265625,-14.6484375
1771546209.0839374,34.1796875,22.4609375,27.83203125,35.64453125,30.76171875
1771546209.0878437,39.55078125,22.94921875,25.87890625,41.9921875,8.30078125
1771546209.09175,38.0859375,26.85546875,21.97265625,35.15625,10.7421875
1771546209.0956562,33.69140625,33.203125,20.5078125,25.87890625,38.0859375
1771546209.0995624,30.76171875,37.109375,20.99609375,17.578125,65.91796875
1771546209.1034687,33.203125,37.59765625,23.92578125,19.53125,49.31640625
1771546209.107375,34.1796875,36.62109375,28.3203125,21.484375,23.92578125
1771546209.1112812,21.97265625,36.62109375,27.34375,13.671875,18.06640625
1771546209.1151874,26.85546875,35.64453125,26.85546875,22.4609375,58.59375
1771546209.1190937,37.59765625,35.15625,28.80859375,29.78515625,19.04296875
1771546209.120125,34.1796875,34.1796875,30.2734375,24.90234375,-22.94921875
1771546209.1240313,30.76171875,35.15625,29.296875,21.484375,2.44140625
1771546209.1279376,30.76171875,34.66796875,28.3203125,20.01953125,-9.765625
1771546209.1318438,35.15625,31.25,30.2734375,25.87890625,-12.6953125
1771546209.13575,33.69140625,32.71484375,32.71484375,29.78515625,2.9296875
1771546209.1396563,26.3671875,33.203125,33.203125,27.34375,31.73828125
1771546209.1435626,31.73828125,32.71484375,29.296875,20.5078125,45.41015625
1771546209.1474688,32.2265625,34.66796875,27.83203125,20.5078125,33.69140625
1771546209.151375,31.25,33.69140625,28.3203125,25.87890625,19.53125
1771546209.1552813,34.1796875,32.2265625,25.390625,21.97265625,1.953125
1771546209.1591876,26.3671875,33.69140625,21.97265625,15.625,20.5078125
1771546209.1630938,24.4140625,32.71484375,22.94921875,20.01953125,13.18359375
1771546209.180125,30.76171875,31.73828125,25.87890625,33.69140625,24.4140625
1771546209.1840312,33.203125,30.2734375,23.92578125,32.2265625,55.6640625
1771546209.1879375,26.3671875,28.3203125,22.94921875,18.06640625,16.6015625
1771546209.1918437,23.92578125,29.296875,22.4609375,20.01953125,32.71484375
1771546209.19575,32.71484375,28.3203125,20.01953125,29.296875,58.10546875
1771546209.1996562,38.57421875,26.85546875,21.97265625,33.203125,36.62109375
1771546209.2035625,30.76171875,25.390625,24.4140625,24.4140625,31.73828125
1771546209.2074687,24.90234375,25.390625,25.390625,21.97265625,9.27734375
1771546209.211375,33.69140625,27.34375,25.87890625,37.59765625,38.57421875
1771546209.2152812,39.55078125,28.80859375,22.94921875,44.921875,70.3125
1771546209.2191875,31.25,29.296875,21.484375,31.25,47.36328125
1771546209.2230937,27.83203125,27.83203125,24.4140625,20.99609375,29.296875
1771546209.225125,35.15625,26.85546875,22.4609375,24.4140625,47.36328125
1771546209.2290313,38.0859375,28.80859375,20.5078125,33.69140625,62.98828125
1771546209.2329376,32.71484375,28.3203125,18.06640625,33.69140625,65.4296875
1771546209.2368438,27.83203125,26.3671875,17.08984375,25.390625,95.21484375
1771546209.24075,29.78515625,25.390625,18.06640625,29.78515625,64.94140625
1771546209.2446563,34.66796875,24.4140625,15.13671875,36.62109375,28.3203125
1771546209.2485626,35.15625,24.4140625,17.578125,33.203125,62.01171875
1771546209.2524688,31.73828125,26.3671875,19.53125,26.3671875,21.97265625
1771546209.256375,37.109375,26.85546875,18.5546875,31.25,24.4140625
1771546209.2602813,41.9921875,27.34375,16.6015625,34.1796875,69.3359375
1771546209.2641876,35.64453125,27.83203125,14.6484375,23.4375,28.3203125
1771546209.2680938,27.34375,29.296875,17.08984375,18.5546875,-1.46484375
1771546209.270125,30.76171875,30.2734375,19.53125,25.390625,-6.8359375
1771546209.2740312,38.57421875,29.296875,19.04296875,29.296875,16.11328125
1771546209.2779374,40.52734375,31.25,18.06640625,30.2734375,49.31640625
1771546209.2818437,33.69140625,29.78515625,20.01953125,28.3203125,57.12890625
1771546209.28575,25.87890625,26.85546875,20.01953125,21.97265625,51.26953125
1771546209.2896562,31.73828125,28.3203125,16.6015625,29.296875,44.43359375
1771546209.2935624,38.0859375,28.80859375,19.53125,41.50390625,5.859375
1771546209.2974687,31.73828125,27.83203125,25.390625,35.64453125,24.90234375
1771546209.301375,27.34375,25.87890625,23.92578125,22.94921875,33.69140625
1771546209.3052812,30.76171875,27.83203125,23.92578125,26.3671875,36.1328125
1771546209.3091874,33.69140625,27.34375,23.92578125,34.66796875,71.2890625
1771546209.3130937,31.73828125,24.4140625,20.99609375,33.69140625,30.76171875
1771546209.315125,26.85546875,26.3671875,18.5546875,20.5078125,-10.7421875
1771546209.3190312,28.80859375,27.83203125,14.16015625,15.625,1.953125
1771546209.3229375,33.69140625,25.87890625,16.6015625,25.390625,36.1328125
1771546209.3268437,39.0625,22.4609375,20.5078125,28.80859375,48.828125
1771546209.33075,33.69140625,22.4609375,17.578125,23.4375,39.0625
1771546209.3346562,27.34375,23.4375,18.06640625,22.94921875,40.52734375
1771546209.3385625,32.2265625,23.92578125,20.01953125,30.2734375,30.2734375
1771546209.3424687,37.109375,20.5078125,20.5078125,34.66796875,22.4609375
1771546209.346375,34.1796875,19.53125,15.13671875,23.92578125,14.6484375
1771546209.3502812,28.80859375,22.4609375,12.20703125,9.765625,39.55078125
1771546209.3541875,35.64453125,22.4609375,18.5546875,21.484375,54.19921875
1771546209.3580937,41.50390625,21.484375,22.94921875,36.1328125,-14.16015625
1771546209.360125,33.69140625,20.99609375,24.4140625,33.69140625,-4.39453125
1771546209.3640313,23.92578125,20.99609375,24.90234375,29.78515625,44.43359375
1771546209.3679376,32.2265625,18.5546875,26.85546875,27.83203125,19.04296875
1771546209.3718438,39.0625,17.08984375,28.80859375,33.203125,20.5078125
1771546209.37575,37.109375,16.6015625,28.3203125,39.55078125,52.24609375
1771546209.3796563,33.69140625,19.04296875,27.83203125,31.73828125,17.578125
1771546209.3835626,33.69140625,23.4375,25.87890625,29.78515625,-42.96875
1771546209.3874688,40.52734375,24.4140625,27.34375,43.45703125,8.7890625
1771546209.391375,41.9921875,22.4609375,27.83203125,44.921875,25.87890625
1771546209.3952813,36.62109375,23.92578125,28.3203125,34.1796875,18.06640625
1771546209.3991876,42.48046875,25.87890625,31.73828125,33.203125,39.55078125
1771546209.4030938,48.33984375,24.90234375,29.296875,44.921875,-14.16015625
1771546209.405125,47.8515625,20.01953125,27.83203125,49.8046875,2.44140625
1771546209.4090312,43.45703125,17.578125,31.25,40.52734375,23.92578125
1771546209.4129374,37.59765625,19.53125,29.296875,35.64453125,34.66796875
1771546209.4168437,42.48046875,20.99609375,26.85546875,44.921875,43.45703125
1771546209.42075,51.7578125,19.04296875,25.87890625,47.8515625,20.99609375
1771546209.4246562,45.8984375,17.08984375,27.34375,38.57421875,34.1796875
1771546209.4285624,29.296875,16.11328125,28.80859375,31.25,77.1484375
1771546209.4324687,28.80859375,19.53125,24.4140625,27.34375,30.2734375
1771546209.436375,41.50390625,21.97265625,23.92578125,33.203125,-23.4375
1771546209.4402812,40.52734375,20.99609375,28.80859375,38.57421875,20.99609375
1771546209.4441874,29.296875,20.5078125,27.34375,30.76171875,40.0390625
1771546209.4480937,25.87890625,21.484375,28.80859375,29.78515625,16.6015625
1771546209.449125,34.66796875,23.4375,33.203125,39.0625,23.92578125
1771546209.4530313,40.0390625,26.85546875,32.71484375,38.0859375,87.890625
1771546209.4569376,30.76171875,27.34375,29.296875,29.296875,58.59375
1771546209.4608438,27.83203125,23.92578125,30.2734375,24.90234375,1.46484375
1771546209.46475,33.203125,25.87890625,33.203125,33.203125,0.48828125
1771546209.4686563,36.62109375,26.85546875,30.76171875,33.203125,50.29296875
1771546209.4725626,30.2734375,23.4375,26.3671875,25.390625,28.3203125
1771546209.4764688,20.99609375,22.94921875,29.78515625,22.4609375,31.73828125
1771546209.480375,23.4375,24.4140625,32.71484375,24.4140625,105.46875
1771546209.4842813,31.73828125,26.3671875,25.87890625,30.2734375,60.05859375
1771546209.4881876,33.203125,27.83203125,24.4140625,29.78515625,45.8984375
1771546209.4920938,22.94921875,24.4140625,26.3671875,20.5078125,38.57421875
1771546209.509125,19.04296875,25.87890625,27.83203125,25.390625,32.71484375
1771546209.5130312,34.1796875,30.76171875,26.85546875,36.1328125,60.546875
1771546209.5169375,41.015625,27.83203125,27.83203125,32.71484375,20.01953125
1771546209.5208437,30.76171875,30.76171875,26.3671875,20.01953125,18.06640625
1771546209.52475,29.78515625,36.1328125,26.3671875,18.5546875,41.50390625
1771546209.5286562,33.203125,29.78515625,31.73828125,30.2734375,29.296875
1771546209.5325625,37.109375,22.4609375,31.73828125,35.64453125,6.34765625
1771546209.5364687,38.0859375,25.390625,32.2265625,32.2265625,-14.16015625
1771546209.540375,31.73828125,27.34375,34.66796875,31.73828125,-1.953125
1771546209.5442812,25.390625,21.97265625,34.66796875,27.83203125,38.57421875
1771546209.5481875,33.203125,22.94921875,28.3203125,33.203125,49.31640625
1771546209.5520937,35.15625,26.3671875,23.92578125,34.66796875,37.59765625
1771546209.540125,31.25,27.34375,26.85546875,18.06640625,10.7421875
1771546209.5440311,34.66796875,24.90234375,29.296875,25.87890625,-29.296875
1771546209.5479374,39.0625,18.06640625,33.69140625,41.9921875,-45.8984375
1771546209.5518436,36.62109375,20.99609375,30.76171875,40.52734375,1.46484375
1771546209.55575,33.69140625,24.90234375,25.390625,28.80859375,20.99609375
1771546209.5596561,37.109375,22.94921875,27.83203125,28.3203125,40.52734375
1771546209.5635624,44.43359375,24.90234375,21.97265625,38.57421875,41.015625
1771546209.5674686,53.22265625,27.83203125,12.20703125,44.43359375,2.44140625
1771546209.571375,48.828125,29.296875,16.11328125,36.62109375,-13.18359375
1771546209.5752811,41.9921875,30.2734375,21.484375,38.0859375,13.671875
1771546209.5791874,50.78125,29.296875,24.90234375,47.8515625,11.71875
1771546209.5830936,56.640625,31.25,22.94921875,49.8046875,0.48828125
1771546209.600125,45.8984375,33.203125,20.01953125,45.8984375,14.16015625
1771546209.6040313,39.0625,32.2265625,19.53125,38.0859375,29.296875
1771546209.6079376,46.875,31.25,23.4375,40.52734375,61.5234375
1771546209.6118438,46.875,29.296875,21.484375,46.875,47.36328125
1771546209.61575,35.64453125,27.34375,16.11328125,43.9453125,-39.55078125
1771546209.6196563,32.2265625,28.3203125,15.625,30.2734375,-7.32421875
1771546209.6235626,41.015625,29.78515625,19.04296875,33.69140625,43.9453125
1771546209.6274688,43.9453125,32.2265625,22.94921875,44.921875,28.3203125
1771546209.631375,41.015625,32.71484375,21.484375,40.0390625,43.9453125
1771546209.6352813,38.0859375,30.2734375,20.99609375,32.2265625,24.4140625
1771546209.6391876,38.57421875,31.73828125,20.99609375,33.203125,20.5078125
1771546209.6430938,47.36328125,37.109375,22.94921875,43.9453125,61.03515625
1771546209.660125,48.828125,36.1328125,21.97265625,48.828125,87.890625
1771546209.6640313,42.96875,33.69140625,16.11328125,38.57421875,15.625
1771546209.6679375,47.8515625,33.69140625,20.01953125,33.69140625,-27.83203125
1771546209.6718438,57.12890625,35.64453125,23.92578125,50.29296875,-12.20703125
1771546209.67575,61.5234375,35.64453125,25.87890625,57.6171875,22.94921875
1771546209.6796563,56.640625,30.2734375,24.4140625,46.875,24.4140625
1771546209.6835625,49.31640625,27.34375,22.4609375,39.55078125,28.3203125
1771546209.6874688,47.36328125,30.2734375,25.390625,41.50390625,48.33984375
1771546209.691375,51.7578125,30.2734375,26.3671875,48.828125,58.10546875
1771546209.6952813,52.734375,28.3203125,26.85546875,48.33984375,49.8046875
1771546209.6991875,41.015625,31.73828125,26.85546875,39.55078125,69.3359375
1771546209.7030938,40.52734375,32.2265625,27.83203125,39.55078125,49.31640625
1771546209.690125,49.31640625,31.73828125,25.390625,42.96875,26.3671875
1771546209.6940312,44.921875,29.78515625,22.4609375,40.52734375,68.359375
1771546209.6979375,33.203125,26.85546875,23.92578125,34.1796875,71.77734375
1771546209.7018437,34.66796875,26.3671875,23.4375,33.203125,64.453125
1771546209.70575,45.41015625,25.390625,20.01953125,45.41015625,49.31640625
1771546209.7096562,46.38671875,23.4375,20.5078125,50.78125,-10.25390625
1771546209.7135625,39.0625,21.97265625,24.4140625,41.50390625,-40.0390625
1771546209.7174687,34.66796875,22.4609375,25.390625,41.9921875,56.640625
1771546209.721375,40.52734375,21.97265625,23.92578125,47.36328125,85.9375
1771546209.7252812,43.45703125,22.4609375,22.94921875,47.36328125,6.34765625
1771546209.7291875,42.96875,25.390625,23.92578125,35.15625,4.8828125
1771546209.7330937,35.15625,27.83203125,23.92578125,18.06640625,-7.32421875
1771546209.750125,35.64453125,27.83203125,23.92578125,23.92578125,30.76171875
1771546209.7540312,38.57421875,27.83203125,27.34375,37.109375,94.23828125
1771546209.7579374,33.69140625,29.78515625,30.2734375,38.57421875,107.91015625
1771546209.7618437,28.80859375,26.85546875,26.3671875,29.78515625,83.49609375
1771546209.76575,31.73828125,24.90234375,22.94921875,24.4140625,32.2265625
1771546209.7696562,39.0625,26.3671875,22.94921875,31.25,84.47265625
1771546209.7735624,35.15625,27.83203125,24.4140625,36.1328125,86.9140625
1771546209.7774687,25.87890625,28.3203125,20.99609375,23.92578125,51.7578125
1771546209.781375,30.2734375,26.85546875,18.5546875,12.6953125,20.5078125
1771546209.7852812,33.203125,29.296875,20.5078125,20.5078125,-41.50390625
1771546209.7891874,26.3671875,27.83203125,22.94921875,26.3671875,-24.4140625
1771546209.7930937,26.85546875,26.85546875,24.4140625,21.484375,20.99609375
1771546209.780125,29.78515625,30.76171875,20.99609375,16.6015625,13.671875
1771546209.7840312,35.64453125,33.203125,20.5078125,28.3203125,-24.90234375
1771546209.7879374,33.203125,30.2734375,23.92578125,37.59765625,-25.87890625
1771546209.7918437,25.390625,30.2734375,21.97265625,27.83203125,25.390625
1771546209.79575,28.3203125,32.2265625,19.04296875,32.71484375,6.8359375
1771546209.7996562,40.52734375,29.78515625,25.390625,51.26953125,-21.97265625
1771546209.8035624,48.33984375,25.390625,27.83203125,55.6640625,64.453125
1771546209.8074687,47.8515625,20.01953125,26.85546875,54.19921875,97.16796875
1771546209.811375,38.0859375,20.99609375,25.87890625,41.9921875,70.3125
1771546209.8152812,34.1796875,20.99609375,27.83203125,38.57421875,43.45703125
1771546209.8191874,42.48046875,15.625,30.76171875,45.8984375,26.85546875
1771546209.8230937,48.33984375,19.04296875,24.90234375,40.52734375,81.0546875
1771546209.825125,37.59765625,25.390625,20.99609375,30.2734375,53.22265625
1771546209.8290312,29.78515625,24.4140625,23.92578125,25.87890625,13.671875
1771546209.8329375,39.55078125,22.94921875,23.4375,37.109375,58.59375
1771546209.8368437,46.38671875,22.4609375,21.97265625,40.52734375,62.01171875
1771546209.84075,39.55078125,20.99609375,22.4609375,31.73828125,15.13671875
1771546209.8446562,36.62109375,21.484375,22.4609375,29.296875,-54.19921875
1771546209.8485625,41.015625,25.390625,21.97265625,34.1796875,-35.15625
1771546209.8524687,37.59765625,27.34375,20.01953125,37.109375,29.296875
1771546209.856375,37.59765625,25.87890625,21.97265625,38.0859375,26.3671875
1771546209.8602812,36.62109375,25.87890625,24.90234375,37.109375,7.8125
1771546209.8641875,39.0625,23.92578125,28.3203125,38.57421875,-13.18359375
1771546209.8680937,45.41015625,20.99609375,32.71484375,53.22265625,-41.015625
1771546209.870125,40.0390625,22.4609375,32.2265625,57.6171875,-9.27734375
1771546209.8740313,33.69140625,23.4375,28.3203125,48.828125,-3.41796875
1771546209.8779376,38.57421875,22.4609375,27.34375,51.7578125,-2.44140625
1771546209.8818438,46.875,23.4375,27.34375,56.15234375,6.34765625
1771546209.88575,48.828125,26.85546875,29.78515625,55.6640625,-15.13671875
1771546209.8896563,41.9921875,26.85546875,28.80859375,40.52734375,-18.5546875
1771546209.8935626,41.015625,24.90234375,25.390625,28.3203125,22.94921875
1771546209.8974688,45.8984375,29.296875,29.296875,44.921875,46.875
1771546209.901375,40.52734375,29.78515625,31.73828125,56.15234375,-16.11328125
1771546209.9052813,35.15625,27.83203125,29.78515625,41.015625,38.0859375
1771546209.9091876,33.203125,27.83203125,24.90234375,20.5078125,83.0078125
1771546209.9130938,43.9453125,30.2734375,24.90234375,26.85546875,49.31640625
1771546209.931125,43.9453125,31.25,30.2734375,41.50390625,54.6875
1771546209.9350312,33.69140625,28.3203125,25.87890625,35.64453125,63.4765625
1771546209.9389374,40.52734375,28.80859375,18.06640625,23.92578125,47.8515625
1771546209.9428437,36.1328125,27.34375,23.92578125,21.97265625,21.484375
1771546209.94675,32.2265625,27.83203125,27.34375,27.83203125,59.08203125
1771546209.9506562,44.43359375,32.71484375,21.97265625,36.1328125,84.9609375
1771546209.9545624,38.57421875,34.1796875,19.53125,31.25,101.07421875
1771546209.9584687,30.76171875,34.1796875,20.99609375,30.76171875,51.26953125
1771546209.962375,36.1328125,32.71484375,20.01953125,41.50390625,16.11328125
1771546209.9662812,41.9921875,33.69140625,20.01953125,42.96875,79.1015625
1771546209.9701874,40.0390625,34.66796875,21.484375,34.66796875,18.06640625
1771546209.9740937,30.76171875,34.66796875,23.4375,33.69140625,-19.53125
1771546209.975125,39.55078125,37.59765625,21.97265625,41.015625,28.80859375
1771546209.9790313,44.921875,39.55078125,16.11328125,41.9921875,48.33984375
1771546209.9829376,40.0390625,35.64453125,17.08984375,36.62109375,58.59375
1771546209.9868438,34.1796875,33.69140625,21.484375,26.3671875,92.28515625
1771546209.99075,39.0625,36.62109375,20.99609375,28.80859375,44.43359375
1771546209.9946563,44.43359375,36.1328125,22.4609375,39.0625,-14.16015625
1771546209.9985626,41.9921875,34.66796875,27.83203125,41.50390625,-10.25390625
1771546210.0024688,40.0390625,38.0859375,29.296875,29.78515625,47.8515625
1771546210.006375,44.43359375,41.9921875,29.78515625,26.3671875,58.10546875
1771546210.0102813,55.17578125,38.57421875,25.87890625,30.2734375,32.71484375
1771546210.0141876,56.15234375,32.71484375,22.94921875,29.78515625,44.921875
1771546210.0180938,45.8984375,29.296875,26.85546875,35.64453125,49.31640625
1771546210.020125,35.15625,31.25,26.3671875,42.96875,73.73046875
1771546210.0240312,43.45703125,34.1796875,23.4375,43.9453125,62.01171875
1771546210.0279374,43.45703125,31.73828125,24.4140625,41.9921875,15.13671875
1771546210.0318437,32.2265625,30.2734375,26.3671875,39.0625,13.671875
1771546210.03575,27.83203125,32.71484375,25.390625,35.64453125,-0.48828125
1771546210.0396562,31.25,32.71484375,29.296875,36.1328125,19.53125
1771546210.0435624,41.50390625,34.1796875,32.2265625,40.52734375,82.51953125
1771546210.0474687,39.0625,34.1796875,33.69140625,40.52734375,53.22265625
1771546210.051375,36.62109375,32.2265625,35.15625,33.69140625,-29.78515625
1771546210.0552812,47.8515625,32.71484375,33.203125,26.85546875,-7.8125
1771546210.0591874,49.31640625,35.15625,29.78515625,33.69140625,34.1796875
1771546210.0630937,42.48046875,36.1328125,24.4140625,37.109375,14.16015625
1771546210.065125,41.50390625,34.1796875,23.92578125,21.484375,5.859375
1771546210.0690312,41.50390625,34.1796875,22.94921875,20.99609375,26.85546875
1771546210.0729375,41.50390625,34.1796875,22.4609375,38.0859375,90.8203125
1771546210.0768437,39.0625,31.73828125,28.3203125,45.8984375,55.17578125
1771546210.08075,31.25,27.34375,30.76171875,33.69140625,9.765625
1771546210.0846562,31.25,24.90234375,28.3203125,22.4609375,-2.9296875
1771546210.0885625,36.62109375,26.85546875,30.2734375,30.76171875,-2.44140625
1771546210.0924687,36.1328125,23.92578125,31.73828125,38.0859375,36.62109375
1771546210.096375,37.109375,21.97265625,28.3203125,25.87890625,36.1328125
1771546210.1002812,37.59765625,27.83203125,27.83203125,17.578125,68.359375
1771546210.1041875,38.57421875,33.203125,26.85546875,29.296875,50.29296875
1771546210.1080937,41.9921875,29.78515625,24.90234375,37.109375,43.9453125
1771546210.110125,41.9921875,27.83203125,23.4375,31.73828125,89.84375
1771546210.1140313,32.2265625,27.34375,23.4375,23.4375,99.12109375
1771546210.1179376,33.203125,25.87890625,26.3671875,31.73828125,55.17578125
1771546210.1218438,41.9921875,26.85546875,27.34375,44.921875,-9.27734375
1771546210.12575,40.52734375,25.87890625,24.90234375,41.015625,16.6015625
1771546210.1296563,32.71484375,24.90234375,23.4375,27.83203125,-16.11328125
1771546210.1335626,27.34375,26.85546875,24.90234375,24.4140625,-6.8359375
1771546210.1374688,34.66796875,27.83203125,24.90234375,34.1796875,64.94140625
1771546210.141375,39.55078125,26.85546875,20.99609375,35.64453125,39.55078125
1771546210.1452813,35.64453125,31.25,24.90234375,32.71484375,42.48046875
1771546210.1491876,35.64453125,31.73828125,25.390625,29.296875,89.84375
1771546210.1530938,41.50390625,28.80859375,20.99609375,27.83203125,58.59375
1771546210.155125,41.015625,26.85546875,21.484375,33.203125,45.8984375
1771546210.1590312,32.2265625,24.90234375,24.4140625,35.64453125,38.0859375
1771546210.1629374,31.73828125,26.85546875,27.34375,27.34375,54.6875
1771546210.1668437,31.73828125,31.25,25.390625,28.3203125,43.9453125
1771546210.17075,39.55078125,29.296875,26.3671875,35.64453125,-11.71875
1771546210.1746562,41.50390625,24.4140625,29.78515625,38.0859375,42.48046875
1771546210.1785624,31.25,25.390625,23.4375,34.1796875,15.13671875
1771546210.1824687,34.66796875,27.83203125,18.5546875,28.80859375,32.2265625
1771546210.186375,44.43359375,27.34375,26.85546875,50.78125,68.359375
1771546210.1902812,46.875,26.85546875,31.73828125,53.22265625,25.87890625
1771546210.1941874,42.48046875,26.3671875,27.83203125,25.87890625,-14.6484375
1771546210.1980937,37.109375,26.3671875,26.3671875,16.6015625,-2.9296875
1771546210.215125,46.38671875,27.83203125,26.85546875,28.3203125,4.39453125
1771546210.2190313,56.640625,31.25,27.34375,37.109375,10.7421875
1771546210.2229376,43.9453125,33.69140625,25.87890625,20.99609375,22.94921875
1771546210.2268438,27.34375,28.3203125,26.3671875,9.27734375,-4.39453125
1771546210.23075,27.34375,28.80859375,29.78515625,21.97265625,-14.16015625
1771546210.2346563,36.62109375,33.203125,27.83203125,33.69140625,7.8125
1771546210.2385626,38.57421875,25.390625,27.34375,35.64453125,-17.08984375
1771546210.2424688,30.76171875,19.53125,29.78515625,33.203125,-37.109375
1771546210.246375,28.3203125,28.80859375,21.484375,23.4375,-51.7578125
1771546210.2502813,30.2734375,33.69140625,20.01953125,18.5546875,-10.7421875
1771546210.2541876,37.59765625,27.34375,27.34375,22.4609375,32.71484375
1771546210.2580938,46.875,29.296875,30.76171875,25.390625,12.6953125
1771546210.245125,32.71484375,32.71484375,30.76171875,19.04296875,72.75390625
1771546210.2490313,32.71484375,32.2265625,28.80859375,25.87890625,68.84765625
1771546210.2529376,42.48046875,31.73828125,28.3203125,35.15625,72.75390625
1771546210.2568438,31.25,30.2734375,29.78515625,24.90234375,117.67578125
1771546210.26075,22.94921875,27.83203125,33.203125,20.5078125,68.359375
1771546210.2646563,33.69140625,26.3671875,34.66796875,27.34375,16.6015625
1771546210.2685626,39.0625,28.3203125,31.25,31.73828125,16.11328125
1771546210.2724688,29.78515625,29.78515625,26.3671875,24.4140625,104.98046875
1771546210.276375,32.71484375,31.25,25.390625,22.4609375,113.76953125
1771546210.2802813,41.015625,32.71484375,28.3203125,31.25,61.5234375
1771546210.2841876,47.8515625,27.83203125,31.25,41.015625,69.3359375
1771546210.2880938,46.38671875,25.87890625,33.203125,42.48046875,49.31640625
1771546210.305125,36.1328125,32.2265625,30.2734375,37.59765625,49.31640625
1771546210.3090312,39.0625,35.15625,26.3671875,40.52734375,20.5078125
1771546210.3129375,45.41015625,33.203125,23.4375,42.48046875,34.1796875
1771546210.3168437,43.9453125,30.2734375,18.06640625,38.57421875,48.828125
1771546210.32075,33.203125,26.85546875,23.92578125,31.25,-4.39453125
1771546210.3246562,31.25,25.87890625,25.87890625,31.73828125,15.625
1771546210.3285625,37.59765625,26.85546875,26.85546875,37.59765625,84.47265625
1771546210.3324687,33.203125,26.3671875,29.78515625,38.57421875,82.51953125
1771546210.336375,30.76171875,24.90234375,28.3203125,33.203125,19.04296875
1771546210.3402812,29.296875,25.87890625,27.34375,25.390625,32.2265625
1771546210.3441875,31.73828125,25.390625,24.90234375,31.25,79.58984375
1771546210.3480937,37.59765625,23.92578125,22.94921875,36.62109375,44.921875
1771546210.350125,31.73828125,24.4140625,20.01953125,26.85546875,25.87890625
1771546210.3540313,30.76171875,26.3671875,20.99609375,25.87890625,27.34375
1771546210.3579376,37.109375,26.85546875,25.87890625,41.50390625,-12.20703125
1771546210.3618438,35.64453125,27.34375,25.87890625,45.41015625,-21.484375
1771546210.36575,35.64453125,27.34375,25.87890625,36.1328125,-3.41796875
1771546210.3696563,27.83203125,25.390625,25.390625,27.34375,-0.9765625
1771546210.3735626,23.92578125,27.34375,25.87890625,27.34375,-13.671875
1771546210.3774688,37.109375,30.76171875,26.85546875,34.66796875,18.5546875
1771546210.381375,40.0390625,29.296875,25.87890625,35.64453125,17.578125
1771546210.3852813,32.71484375,24.90234375,26.85546875,20.01953125,65.91796875
1771546210.3891876,34.1796875,24.4140625,32.71484375,21.484375,64.94140625
1771546210.3930938,44.43359375,29.296875,36.62109375,45.8984375,18.06640625
1771546210.395125,45.41015625,30.2734375,32.2265625,47.36328125,1.953125
1771546210.3990312,33.69140625,26.85546875,35.64453125,38.57421875,-8.30078125
1771546210.4029374,27.34375,26.3671875,41.015625,37.109375,23.4375
1771546210.4068437,31.25,29.296875,36.1328125,43.9453125,8.30078125
1771546210.41075,38.0859375,28.3203125,30.2734375,42.96875,7.8125
1771546210.4146562,34.66796875,27.83203125,28.80859375,32.2265625,27.34375
1771546210.4185624,35.64453125,30.76171875,32.2265625,30.2734375,43.45703125
1771546210.4224687,36.62109375,32.71484375,36.1328125,36.62109375,58.10546875
1771546210.426375,35.64453125,29.78515625,36.62109375,42.96875,54.19921875
1771546210.4302812,32.71484375,25.87890625,32.71484375,40.0390625,111.81640625
1771546210.4341874,25.87890625,28.80859375,26.3671875,30.76171875,111.328125
1771546210.4380937,31.73828125,30.76171875,22.4609375,29.296875,15.13671875
1771546210.440125,39.0625,29.296875,25.390625,37.109375,35.15625
1771546210.4440312,35.15625,29.78515625,26.85546875,37.59765625,36.1328125
1771546210.4479375,27.83203125,27.83203125,26.3671875,28.3203125,-21.97265625
1771546210.4518437,29.296875,26.85546875,27.34375,27.34375,21.97265625
1771546210.45575,30.76171875,27.83203125,27.34375,31.25,65.4296875
1771546210.4596562,29.78515625,24.4140625,22.94921875,36.1328125,-5.37109375
1771546210.4635625,31.25,24.90234375,22.94921875,32.71484375,4.39453125
1771546210.4674687,34.66796875,29.78515625,24.4140625,35.15625,71.2890625
1771546210.471375,37.109375,34.1796875,18.5546875,31.25,82.03125
1771546210.4752812,40.52734375,35.64453125,16.6015625,16.6015625,81.0546875
1771546210.4791875,45.8984375,38.57421875,17.578125,20.99609375,57.6171875
1771546210.4830937,41.015625,38.57421875,19.04296875,23.92578125,0.9765625
1771546210.486125,37.59765625,36.1328125,22.4609375,30.2734375,-21.97265625
1771546210.4900312,46.38671875,35.64453125,24.90234375,41.9921875,-30.2734375
1771546210.4939375,50.29296875,31.25,27.34375,48.828125,0.0
1771546210.4978437,42.96875,29.296875,22.4609375,33.69140625,42.96875
1771546210.50175,30.2734375,27.34375,20.01953125,21.97265625,73.2421875
1771546210.5056562,30.76171875,22.4609375,23.4375,35.64453125,69.82421875
1771546210.5095625,34.66796875,19.53125,24.90234375,39.55078125,19.53125
1771546210.5134687,26.85546875,21.484375,25.390625,22.94921875,-9.765625
1771546210.517375,22.4609375,25.87890625,25.390625,12.20703125,-17.578125
1771546210.5212812,28.3203125,26.85546875,24.4140625,16.11328125,64.453125
1771546210.5251875,31.73828125,24.90234375,22.94921875,22.94921875,91.30859375
1771546210.5290937,23.4375,26.85546875,20.99609375,21.484375,-1.46484375
1771546210.529125,18.5546875,29.78515625,24.90234375,19.04296875,-0.48828125
1771546210.5330312,29.296875,28.3203125,31.25,30.2734375,38.0859375
1771546210.5369375,44.43359375,29.78515625,28.3203125,42.48046875,60.546875
1771546210.5408437,42.48046875,31.25,23.92578125,35.64453125,68.84765625
1771546210.54475,32.2265625,29.296875,22.94921875,27.34375,41.50390625
1771546210.5486562,31.25,22.94921875,21.97265625,31.73828125,0.0
1771546210.5525625,33.203125,22.4609375,20.99609375,38.0859375,6.8359375
1771546210.5564687,34.1796875,23.4375,20.99609375,31.73828125,18.5546875
1771546210.560375,24.90234375,21.484375,24.90234375,19.53125,-8.30078125
1771546210.5642812,28.3203125,27.34375,27.83203125,26.3671875,33.203125
1771546210.5681875,38.0859375,28.80859375,24.4140625,35.64453125,89.84375
1771546210.5720937,32.71484375,26.3671875,27.34375,34.66796875,68.84765625
1771546210.575125,26.3671875,24.90234375,28.3203125,27.83203125,40.52734375
1771546210.5790312,25.87890625,24.4140625,25.87890625,24.4140625,43.9453125
1771546210.5829375,25.87890625,26.3671875,27.34375,28.3203125,47.36328125
1771546210.5868437,33.69140625,27.34375,29.296875,33.69140625,45.8984375
1771546210.59075,37.109375,29.296875,27.34375,26.3671875,22.94921875
1771546210.5946562,23.4375,29.296875,25.87890625,13.18359375,-10.7421875
1771546210.5985625,26.85546875,28.80859375,26.85546875,23.92578125,63.4765625
1771546210.6024687,35.15625,29.296875,26.85546875,30.2734375,86.42578125
1771546210.606375,31.73828125,32.2265625,27.34375,26.85546875,11.23046875
1771546210.6102812,24.90234375,33.69140625,28.80859375,25.87890625,-13.18359375
1771546210.6141875,26.3671875,28.80859375,30.76171875,33.69140625,17.08984375
1771546210.6180937,34.1796875,26.85546875,30.76171875,41.50390625,55.17578125
1771546210.620125,35.64453125,29.296875,28.3203125,43.45703125,23.4375
1771546210.6240313,30.2734375,29.296875,26.3671875,39.55078125,-11.23046875
1771546210.6279376,30.76171875,28.80859375,25.87890625,36.62109375,37.109375
1771546210.6318438,39.0625,31.25,26.85546875,39.55078125,19.04296875
1771546210.63575,47.8515625,33.69140625,23.92578125,43.45703125,12.20703125
1771546210.6396563,42.96875,35.64453125,22.94921875,37.109375,22.4609375
1771546210.6435626,34.66796875,35.64453125,27.34375,22.94921875,-4.8828125
1771546210.6474688,41.015625,32.2265625,29.78515625,30.76171875,-8.30078125
1771546210.651375,45.41015625,31.25,28.3203125,41.9921875,6.34765625
1771546210.6552813,39.55078125,33.69140625,24.90234375,35.64453125,4.39453125
1771546210.6591876,33.69140625,31.25,23.4375,23.92578125,-15.13671875
1771546210.6630938,31.73828125,31.73828125,27.83203125,25.390625,10.7421875
1771546210.665125,33.69140625,33.69140625,30.2734375,37.59765625,50.29296875
1771546210.6690311,36.62109375,33.203125,28.3203125,35.15625,15.13671875
1771546210.6729374,31.73828125,32.71484375,24.90234375,17.08984375,-42.96875
1771546210.6768436,28.3203125,33.203125,23.92578125,20.01953125,-16.6015625
1771546210.68075,41.9921875,33.69140625,24.4140625,34.66796875,50.78125
1771546210.6846561,48.828125,32.71484375,23.92578125,31.25,45.8984375
1771546210.6885624,35.64453125,32.71484375,20.01953125,16.6015625,0.0
1771546210.6924686,28.3203125,31.73828125,20.01953125,13.671875,42.48046875
1771546210.696375,31.25,27.83203125,25.87890625,26.85546875,42.96875
1771546210.7002811,32.71484375,25.87890625,28.80859375,30.2734375,41.015625
1771546210.7041874,29.78515625,27.83203125,22.94921875,20.99609375,70.3125
1771546210.7080936,31.25,31.73828125,20.5078125,21.484375,58.10546875
1771546210.728125,41.015625,25.390625,32.2265625,37.59765625,29.296875
1771546210.7320313,37.59765625,18.5546875,36.62109375,40.0390625,43.9453125
1771546210.7359376,20.99609375,21.484375,30.76171875,25.87890625,76.66015625
1771546210.7398438,13.671875,21.484375,36.62109375,23.92578125,67.87109375
1771546210.74375,15.13671875,20.99609375,41.9921875,30.2734375,77.1484375
1771546210.7476563,19.53125,16.6015625,41.50390625,36.62109375,49.31640625
1771546210.7515626,18.5546875,12.20703125,45.8984375,35.64453125,41.015625
1771546210.7554688,7.32421875,8.30078125,55.6640625,22.94921875,59.08203125
1771546210.759375,7.8125,8.30078125,57.12890625,21.484375,4.8828125
1771546210.7632813,26.3671875,13.18359375,49.31640625,29.78515625,17.08984375
1771546210.7671876,25.87890625,16.6015625,46.38671875,40.0390625,-9.765625
1771546210.7710938,6.8359375,14.6484375,49.8046875,33.69140625,59.08203125
1771546210.770125,7.8125,13.18359375,48.828125,17.08984375,103.515625
1771546210.7740312,20.5078125,14.16015625,44.921875,22.4609375,40.52734375
1771546210.7779374,25.390625,15.625,43.9453125,30.76171875,24.4140625
1771546210.7818437,22.94921875,18.06640625,41.50390625,30.2734375,-49.31640625
1771546210.78575,26.85546875,21.484375,40.52734375,22.4609375,5.37109375
1771546210.7896562,42.96875,20.5078125,41.9921875,32.2265625,56.640625
1771546210.7935624,47.36328125,17.08984375,46.875,42.96875,57.12890625
1771546210.7974687,38.0859375,18.5546875,47.36328125,39.0625,84.47265625
1771546210.801375,28.3203125,20.99609375,42.96875,27.83203125,18.06640625
1771546210.8052812,34.66796875,23.92578125,36.62109375,28.3203125,19.53125
1771546210.8091874,43.45703125,22.94921875,40.52734375,45.41015625,47.8515625
1771546210.8130937,41.015625,22.4609375,46.875,50.78125,17.08984375
1771546210.814125,32.2265625,20.99609375,44.921875,41.9921875,-5.859375
1771546210.8180313,32.71484375,21.97265625,46.38671875,41.015625,5.37109375
1771546210.8219376,42.96875,23.92578125,43.45703125,49.8046875,61.5234375
1771546210.8258438,44.43359375,20.01953125,39.55078125,55.17578125,74.70703125
1771546210.82975,36.1328125,19.53125,40.52734375,45.8984375,50.29296875
1771546210.8336563,37.109375,21.97265625,39.55078125,34.66796875,68.359375
1771546210.8375626,44.921875,20.01953125,38.57421875,39.55078125,45.8984375
1771546210.8414688,40.52734375,20.01953125,38.57421875,41.9921875,14.16015625
1771546210.845375,32.2265625,22.4609375,34.1796875,30.76171875,98.6328125
1771546210.8492813,25.87890625,23.92578125,28.80859375,11.71875,67.3828125
1771546210.8531876,28.80859375,24.4140625,31.25,17.08984375,-59.5703125
1771546210.8570938,39.0625,24.90234375,30.2734375,32.2265625,-11.23046875
1771546210.860125,40.52734375,26.3671875,30.2734375,31.25,73.2421875
1771546210.8640313,32.2265625,25.390625,30.76171875,24.90234375,14.16015625
1771546210.8679376,32.2265625,23.4375,30.2734375,22.94921875,41.50390625
1771546210.8718438,36.62109375,21.97265625,33.69140625,33.203125,55.17578125
1771546210.87575,32.2265625,22.4609375,31.73828125,36.1328125,25.390625
1771546210.8796563,27.34375,25.390625,26.3671875,23.92578125,60.546875
1771546210.8835626,27.34375,27.83203125,24.4140625,21.484375,-11.23046875
1771546210.8874688,31.73828125,27.83203125,26.3671875,28.80859375,19.04296875
1771546210.891375,38.0859375,29.296875,26.3671875,32.2265625,79.1015625
1771546210.8952813,35.15625,31.73828125,28.3203125,29.296875,57.6171875
1771546210.8991876,35.64453125,34.1796875,32.2265625,28.80859375,22.4609375
1771546210.9030938,41.015625,34.1796875,34.1796875,33.69140625,-12.6953125
1771546210.905125,41.9921875,31.73828125,37.109375,41.9921875,3.90625
1771546210.9090312,41.015625,32.71484375,36.1328125,44.43359375,30.2734375
1771546210.9129374,34.66796875,34.1796875,34.66796875,39.0625,29.78515625
1771546210.9168437,39.55078125,35.64453125,35.15625,41.9921875,30.2734375
1771546210.92075,41.9921875,34.66796875,32.71484375,45.41015625,42.96875
1771546210.9246562,36.62109375,29.78515625,33.69140625,41.9921875,4.8828125
1771546210.9285624,33.203125,33.203125,39.0625,34.1796875,-5.37109375
1771546210.9324687,29.78515625,33.203125,40.0390625,26.3671875,50.78125
1771546210.936375,26.85546875,30.76171875,38.57421875,22.4609375,84.47265625
1771546210.9402812,20.01953125,34.66796875,38.0859375,30.2734375,48.828125
1771546210.9441874,20.01953125,41.9921875,39.55078125,32.2265625,23.4375
1771546210.9480937,21.97265625,49.31640625,41.50390625,18.06640625,74.70703125
1771546210.950125,9.765625,49.31640625,48.828125,3.41796875,71.2890625
1771546210.9540312,-16.6015625,42.48046875,47.8515625,-20.01953125,31.73828125
1771546210.9579375,-40.52734375,31.25,46.875,-41.50390625,48.828125
1771546210.9618437,-56.15234375,35.15625,62.01171875,-60.05859375,37.109375
1771546210.96575,-70.80078125,35.15625,77.1484375,-75.68359375,49.31640625
1771546210.9696562,-85.44921875,33.203125,82.03125,-85.9375,38.0859375
1771546210.9735625,-107.421875,35.15625,81.54296875,-111.328125,36.62109375
1771546210.9774687,-132.32421875,34.66796875,86.42578125,-136.71875,20.99609375
1771546210.981375,-138.18359375,40.0390625,83.49609375,-138.671875,6.34765625
1771546210.9852812,-131.34765625,45.41015625,68.359375,-128.41796875,15.13671875
1771546210.9891875,-128.41796875,44.43359375,68.84765625,-124.0234375,23.92578125
1771546210.9930937,-121.09375,48.828125,71.2890625,-124.0234375,12.20703125
1771546210.995125,-110.83984375,49.31640625,64.453125,-110.3515625,-8.30078125
1771546210.9990313,-98.14453125,45.8984375,65.91796875,-90.8203125,17.578125
1771546211.0029376,-77.1484375,43.45703125,68.359375,-71.2890625,24.90234375
1771546211.0068438,-61.03515625,41.50390625,62.5,-61.5234375,-15.13671875
1771546211.01075,-55.17578125,43.9453125,51.26953125,-56.15234375,2.44140625
1771546211.0146563,-43.45703125,43.45703125,44.921875,-37.109375,51.7578125
1771546211.0185626,-19.53125,39.55078125,40.52734375,-20.5078125,51.7578125
1771546211.0224688,-11.23046875,36.62109375,39.0625,-15.13671875,47.8515625
1771546211.026375,-15.625,35.15625,37.59765625,-13.671875,35.64453125
1771546211.0302813,1.953125,32.71484375,28.3203125,0.48828125,-4.8828125
1771546211.0341876,20.99609375,30.2734375,23.92578125,21.484375,29.296875
1771546211.0380938,29.296875,27.83203125,27.34375,27.34375,60.546875
1771546211.040125,26.85546875,22.94921875,29.296875,21.97265625,57.12890625
1771546211.0440311,33.203125,18.5546875,23.92578125,31.25,35.15625
1771546211.0479374,54.6875,15.625,22.4609375,50.78125,60.05859375
1771546211.0518436,62.98828125,13.18359375,20.99609375,53.7109375,68.84765625
1771546211.05575,57.12890625,13.18359375,14.6484375,52.734375,48.828125
1771546211.0596561,63.96484375,12.20703125,15.13671875,58.10546875,48.828125
1771546211.0635624,82.51953125,15.13671875,18.06640625,65.4296875,67.87109375
1771546211.0674686,83.0078125,20.01953125,15.13671875,71.2890625,83.0078125
1771546211.071375,70.80078125,16.6015625,13.671875,69.3359375,4.8828125
1771546211.0752811,68.359375,12.6953125,12.6953125,61.5234375,7.32421875
1771546211.0791874,79.1015625,11.23046875,10.7421875,66.89453125,-17.578125
1771546211.0830936,84.9609375,12.20703125,10.25390625,78.125,1.46484375
1771546211.099125,82.03125,13.671875,8.7890625,81.0546875,52.734375
1771546211.1030312,76.171875,10.7421875,9.765625,73.2421875,47.36328125
1771546211.1069374,82.51953125,9.27734375,7.8125,75.1953125,-4.8828125
1771546211.1108437,92.28515625,7.32421875,6.34765625,93.75,-6.34765625
1771546211.11475,91.796875,9.765625,12.6953125,101.07421875,83.49609375
1771546211.1186562,86.9140625,13.18359375,10.7421875,84.47265625,117.67578125
1771546211.1225624,86.42578125,11.71875,9.27734375,76.66015625,36.1328125
1771546211.1264687,96.6796875,10.25390625,17.08984375,90.33203125,8.30078125
1771546211.130375,101.07421875,10.7421875,12.20703125,95.21484375,84.9609375
1771546211.1342812,93.75,11.71875,9.27734375,86.42578125,32.2265625
1771546211.1381874,89.84375,11.71875,13.671875,82.51953125,-61.03515625
1771546211.1420937,98.14453125,13.18359375,17.08984375,96.19140625,15.625
1771546211.145125,105.46875,12.20703125,24.90234375,111.328125,75.68359375
1771546211.1490312,98.14453125,10.25390625,25.390625,104.4921875,35.15625
1771546211.1529374,96.19140625,10.25390625,24.90234375,94.7265625,-15.625
1771546211.1568437,98.14453125,15.13671875,22.94921875,94.7265625,10.7421875
1771546211.16075,95.703125,15.13671875,17.578125,95.21484375,68.359375
1771546211.1646562,95.21484375,14.6484375,18.5546875,93.75,36.62109375
1771546211.1685624,85.44921875,17.08984375,21.484375,83.984375,1.46484375
1771546211.1724687,82.03125,18.5546875,20.99609375,79.1015625,36.62109375
1771546211.176375,87.40234375,17.08984375,17.578125,83.49609375,39.0625
1771546211.1802812,86.42578125,14.6484375,18.06640625,77.1484375,4.39453125
1771546211.1841874,78.125,17.578125,20.99609375,69.82421875,-25.87890625
1771546211.1880937,72.265625,16.6015625,21.97265625,73.2421875,-2.9296875
1771546211.190125,76.171875,13.18359375,21.484375,74.70703125,57.12890625
1771546211.1940312,78.125,15.13671875,17.578125,71.2890625,68.359375
1771546211.1979375,67.3828125,17.08984375,20.01953125,68.359375,65.91796875
1771546211.2018437,60.546875,17.578125,21.97265625,67.3828125,43.45703125
1771546211.20575,64.94140625,17.578125,20.5078125,72.75390625,36.1328125
1771546211.2096562,68.84765625,16.11328125,20.99609375,80.56640625,10.25390625
1771546211.2135625,63.4765625,16.11328125,20.5078125,74.21875,-32.2265625
1771546211.2174687,54.6875,18.06640625,21.484375,63.4765625,50.78125
1771546211.221375,54.6875,19.04296875,20.01953125,62.01171875,98.14453125
1771546211.2252812,64.453125,23.4375,15.13671875,63.4765625,25.87890625
1771546211.2291875,59.5703125,27.34375,15.625,62.98828125,4.8828125
1771546211.2330937,49.31640625,25.87890625,15.13671875,52.24609375,59.5703125
1771546211.235125,53.7109375,26.3671875,13.671875,49.8046875,8.7890625
1771546211.2390313,56.15234375,28.80859375,16.6015625,58.59375,0.0
1771546211.2429376,58.59375,29.78515625,15.625,61.03515625,54.6875
1771546211.2468438,49.8046875,25.87890625,11.71875,46.875,11.23046875
1771546211.25075,46.38671875,26.3671875,12.20703125,31.73828125,-7.32421875
1771546211.2546563,55.6640625,29.296875,15.13671875,37.109375,7.8125
1771546211.2585626,60.05859375,27.34375,13.671875,41.50390625,45.8984375
1771546211.2624688,57.6171875,25.87890625,10.7421875,36.62109375,62.01171875
1771546211.266375,51.7578125,26.85546875,15.13671875,33.203125,15.625
1771546211.2702813,50.78125,30.2734375,20.01953125,40.52734375,3.90625
1771546211.2741876,51.7578125,30.76171875,22.94921875,58.59375,74.21875
1771546211.2780938,44.43359375,27.83203125,24.90234375,53.7109375,47.36328125
1771546211.280125,30.76171875,22.94921875,24.4140625,41.50390625,-13.671875
1771546211.2840312,29.296875,20.01953125,27.83203125,50.29296875,9.765625
1771546211.2879374,38.0859375,22.4609375,29.296875,59.08203125,45.41015625
1771546211.2918437,41.50390625,26.3671875,20.5078125,55.6640625,95.21484375
1771546211.29575,38.0859375,25.390625,16.6015625,42.48046875,39.0625
1771546211.2996562,38.57421875,23.92578125,20.99609375,39.55078125,-49.31640625
1771546211.3035624,50.78125,25.87890625,22.4609375,46.38671875,-25.390625
1771546211.3074687,51.7578125,24.4140625,20.5078125,41.9921875,44.43359375
1771546211.311375,37.109375,26.3671875,21.484375,29.296875,-23.4375
1771546211.3152812,29.78515625,28.3203125,27.83203125,26.85546875,-46.38671875
1771546211.3191874,39.55078125,26.85546875,24.90234375,36.62109375,61.5234375
1771546211.3230937,45.8984375,29.296875,20.99609375,42.96875,75.1953125
1771546211.327125,40.0390625,25.390625,21.484375,33.69140625,82.51953125
1771546211.3310313,31.25,21.97265625,22.4609375,28.3203125,47.8515625
1771546211.3349376,35.15625,22.94921875,19.53125,36.62109375,22.4609375
1771546211.3388438,42.48046875,20.99609375,16.6015625,37.59765625,74.70703125
1771546211.34275,35.64453125,22.94921875,20.01953125,34.66796875,77.63671875
1771546211.3466563,30.76171875,22.94921875,21.484375,32.71484375,66.89453125
1771546211.3505626,36.62109375,22.94921875,19.04296875,34.66796875,30.2734375
1771546211.3544688,43.9453125,27.83203125,22.94921875,41.9921875,-17.578125
1771546211.358375,39.55078125,27.83203125,28.80859375,42.96875,-2.44140625
1771546211.3622813,33.69140625,26.3671875,32.2265625,33.69140625,62.5
1771546211.3661876,31.73828125,28.80859375,29.78515625,32.2265625,85.9375
1771546211.3700938,37.59765625,30.2734375,24.4140625,38.0859375,47.8515625
1771546211.370125,48.33984375,31.73828125,25.87890625,40.0390625,6.8359375
1771546211.3740313,42.48046875,30.76171875,26.85546875,28.80859375,14.16015625
1771546211.3779376,34.1796875,29.78515625,26.85546875,27.34375,25.87890625
1771546211.3818438,40.52734375,32.71484375,25.87890625,39.55078125,9.27734375
1771546211.38575,45.8984375,33.203125,24.4140625,41.50390625,1.46484375
1771546211.3896563,45.41015625,33.69140625,26.85546875,33.203125,-0.48828125
1771546211.3935626,41.015625,32.2265625,29.78515625,23.4375,11.23046875
1771546211.3974688,41.015625,24.4140625,27.34375,24.4140625,35.64453125
1771546211.401375,44.43359375,20.99609375,26.85546875,29.78515625,32.71484375
1771546211.4052813,43.9453125,22.94921875,27.34375,25.87890625,52.24609375
1771546211.4091876,36.1328125,24.4140625,24.90234375,20.99609375,54.19921875
1771546211.4130938,35.64453125,23.92578125,27.34375,25.87890625,26.3671875
1771546211.415125,47.36328125,27.34375,25.87890625,38.0859375,20.5078125
1771546211.4190311,44.921875,26.3671875,23.92578125,44.921875,60.546875
1771546211.4229374,25.390625,21.484375,28.3203125,37.59765625,73.2421875
1771546211.4268436,21.484375,22.4609375,29.78515625,28.3203125,42.48046875
1771546211.43075,33.203125,24.90234375,27.83203125,31.73828125,34.1796875
1771546211.4346561,41.50390625,26.3671875,27.83203125,39.55078125,-8.30078125
1771546211.4385624,37.109375,24.90234375,26.3671875,34.66796875,2.44140625
1771546211.4424686,29.78515625,25.87890625,24.4140625,27.34375,29.296875
1771546211.446375,28.3203125,27.34375,24.90234375,24.90234375,-9.765625
1771546211.4502811,36.62109375,26.3671875,25.87890625,28.3203125,-24.4140625
1771546211.4541874,38.57421875,25.390625,25.390625,30.2734375,-27.34375
1771546211.4580936,29.78515625,26.85546875,23.4375,19.53125,-40.52734375
1771546211.474125,29.78515625,31.73828125,23.4375,20.01953125,-26.85546875
1771546211.4780312,37.59765625,30.2734375,21.97265625,30.2734375,19.53125
1771546211.4819374,37.59765625,27.83203125,23.4375,29.78515625,56.15234375
1771546211.4858437,29.296875,28.3203125,26.85546875,20.5078125,12.20703125
1771546211.48975,36.62109375,31.73828125,26.3671875,23.92578125,62.5
1771546211.4936562,50.29296875,35.15625,23.92578125,37.109375,69.3359375
1771546211.4975624,47.36328125,34.66796875,23.92578125,35.64453125,2.44140625
1771546211.5014687,39.55078125,34.66796875,25.390625,25.87890625,47.36328125
1771546211.505375,34.66796875,34.66796875,27.83203125,25.87890625,50.78125
1771546211.5092812,42.96875,34.1796875,29.296875,29.296875,-6.34765625
1771546211.5131874,45.41015625,32.71484375,27.83203125,33.69140625,43.45703125
1771546211.5170937,33.203125,32.71484375,29.296875,31.25,93.75
1771546211.520125,29.296875,30.2734375,28.3203125,22.94921875,41.50390625
1771546211.5240312,36.1328125,28.80859375,30.76171875,33.203125,45.8984375
1771546211.5279374,41.015625,31.73828125,31.73828125,43.45703125,28.80859375
1771546211.5318437,38.0859375,31.73828125,32.71484375,37.109375,28.3203125
1771546211.53575,30.2734375,29.296875,35.15625,31.25,66.89453125
1771546211.5396562,24.90234375,26.3671875,36.1328125,32.2265625,1.46484375
1771546211.5435624,29.78515625,25.390625,35.15625,35.64453125,-0.48828125
1771546211.5474687,29.78515625,30.2734375,28.80859375,38.57421875,46.875
1771546211.551375,26.3671875,30.2734375,25.87890625,32.71484375,90.33203125
1771546211.5552812,30.2734375,29.296875,24.90234375,26.85546875,88.8671875
1771546211.5591874,32.71484375,34.66796875,26.85546875,35.15625,73.73046875
1771546211.5630937,36.1328125,33.69140625,30.76171875,41.9921875,81.54296875
1771546211.565125,32.2265625,30.2734375,29.78515625,32.71484375,21.484375
1771546211.5690312,31.25,32.2265625,27.83203125,26.85546875,-5.37109375
1771546211.5729375,38.0859375,36.62109375,27.83203125,35.64453125,58.59375
1771546211.5768437,38.0859375,38.0859375,26.85546875,44.921875,100.09765625
1771546211.58075,34.66796875,37.109375,25.390625,38.0859375,86.42578125
1771546211.5846562,33.69140625,34.1796875,27.83203125,34.66796875,73.2421875
1771546211.5885625,37.109375,31.25,30.76171875,41.015625,86.9140625
1771546211.5924687,44.921875,32.2265625,28.80859375,46.38671875,21.97265625
1771546211.596375,41.50390625,32.2265625,25.390625,35.15625,2.44140625
1771546211.6002812,26.3671875,28.80859375,26.3671875,20.5078125,36.62109375
1771546211.6041875,28.3203125,28.80859375,28.80859375,26.3671875,4.39453125
1771546211.6080937,34.66796875,24.4140625,28.3203125,32.2265625,63.96484375
1771546211.610125,32.71484375,22.4609375,29.296875,37.59765625,96.6796875
1771546211.6140313,24.90234375,25.390625,27.34375,28.80859375,33.69140625
1771546211.6179376,21.484375,22.94921875,27.34375,29.296875,41.015625
1771546211.6218438,28.3203125,20.99609375,26.85546875,38.57421875,49.31640625
1771546211.62575,33.69140625,20.5078125,28.80859375,38.0859375,-3.90625
1771546211.6296563,30.2734375,22.4609375,32.71484375,35.15625,21.484375
1771546211.6335626,28.3203125,26.3671875,33.69140625,32.2265625,18.06640625
1771546211.6374688,40.0390625,26.85546875,32.71484375,42.48046875,60.05859375
1771546211.641375,45.41015625,25.87890625,32.2265625,44.921875,37.59765625
1771546211.6452813,31.73828125,28.80859375,30.76171875,29.78515625,0.48828125
1771546211.6491876,22.94921875,31.73828125,26.85546875,20.01953125,14.16015625
1771546211.6530938,31.25,30.2734375,26.85546875,24.90234375,6.34765625
1771546211.655125,33.203125,27.34375,28.80859375,37.109375,-8.30078125
1771546211.6590312,32.71484375,22.94921875,29.78515625,42.48046875,-8.30078125
1771546211.6629374,33.203125,24.90234375,29.296875,37.109375,40.52734375
1771546211.6668437,30.2734375,32.2265625,24.4140625,28.3203125,35.64453125
1771546211.67075,35.15625,32.71484375,25.390625,34.1796875,53.7109375
1771546211.6746562,41.015625,33.69140625,26.85546875,39.0625,52.734375
1771546211.6785624,32.2265625,35.64453125,28.80859375,32.71484375,47.36328125
1771546211.6824687,29.296875,33.203125,30.76171875,27.34375,39.55078125
1771546211.686375,39.55078125,33.203125,31.25,35.15625,31.73828125
1771546211.6902812,36.1328125,39.55078125,28.80859375,42.48046875,34.1796875
1771546211.6941874,31.73828125,40.52734375,23.4375,32.2265625,38.57421875
1771546211.6980937,31.25,38.0859375,20.5078125,29.296875,20.5078125
1771546211.700125,33.69140625,39.0625,20.5078125,38.57421875,-23.92578125
1771546211.7040312,36.62109375,38.57421875,25.390625,43.9453125,31.73828125
1771546211.7079375,34.66796875,37.59765625,26.3671875,36.1328125,58.10546875
1771546211.7118437,30.2734375,36.62109375,26.3671875,30.2734375,27.34375
1771546211.71575,37.109375,34.1796875,26.3671875,34.1796875,39.55078125
1771546211.7196562,41.015625,33.203125,29.78515625,40.0390625,31.73828125
1771546211.7235625,39.0625,37.59765625,29.78515625,40.0390625,48.828125
1771546211.7274687,36.62109375,38.0859375,26.3671875,29.296875,51.26953125
1771546211.731375,33.69140625,35.64453125,30.2734375,26.85546875,91.796875
1771546211.7352812,41.015625,36.1328125,29.296875,38.57421875,96.19140625
1771546211.7391875,43.45703125,34.1796875,26.85546875,45.8984375,-2.44140625
1771546211.7430937,37.59765625,33.69140625,21.484375,35.15625,-9.765625
1771546211.760125,38.0859375,31.25,20.01953125,30.76171875,-11.23046875
1771546211.7640312,46.875,32.2265625,28.80859375,46.38671875,44.921875
1771546211.7679374,47.8515625,32.2265625,30.76171875,50.78125,28.80859375
1771546211.7718437,33.69140625,24.90234375,32.71484375,38.57421875,-7.32421875
1771546211.77575,25.87890625,26.3671875,33.69140625,26.3671875,14.16015625
1771546211.7796562,30.76171875,28.80859375,34.66796875,32.2265625,-1.46484375
1771546211.7835624,32.2265625,25.390625,34.66796875,41.50390625,14.16015625
1771546211.7874687,31.25,26.3671875,33.203125,35.64453125,-12.20703125
1771546211.791375,22.94921875,28.80859375,34.66796875,29.78515625,-34.66796875
1771546211.7952812,22.4609375,28.3203125,31.73828125,29.296875,25.390625
1771546211.7991874,32.2265625,29.78515625,29.296875,32.71484375,-20.01953125
1771546211.8030937,35.15625,31.73828125,27.34375,30.76171875,-47.36328125
1771546211.790125,32.2265625,31.25,27.83203125,23.92578125,16.6015625
1771546211.7940311,28.3203125,27.34375,32.71484375,27.83203125,-16.6015625
1771546211.7979374,27.34375,22.4609375,30.76171875,36.62109375,-23.4375
1771546211.8018436,30.76171875,23.92578125,29.78515625,37.59765625,64.94140625
1771546211.80575,29.296875,26.3671875,29.78515625,30.76171875,81.0546875
1771546211.8096561,24.4140625,25.390625,26.85546875,24.4140625,51.26953125
1771546211.8135624,38.0859375,29.78515625,29.296875,30.76171875,43.9453125
1771546211.8174686,49.8046875,32.2265625,31.73828125,37.59765625,39.0625
1771546211.821375,41.9921875,31.25,29.296875,37.109375,14.6484375
1771546211.8252811,38.0859375,34.1796875,24.4140625,25.390625,19.53125
1771546211.8291874,41.9921875,34.66796875,22.94921875,19.53125,6.8359375
1771546211.8330936,46.38671875,33.203125,25.390625,32.2265625,11.23046875
1771546211.850125,42.48046875,33.69140625,25.390625,34.1796875,18.06640625
1771546211.8540313,29.78515625,33.69140625,25.87890625,21.97265625,17.08984375
1771546211.8579376,33.69140625,37.59765625,25.87890625,23.92578125,8.7890625
1771546211.8618438,47.8515625,42.48046875,22.94921875,38.57421875,17.578125
1771546211.86575,43.45703125,36.62109375,23.92578125,40.52734375,42.96875
1771546211.8696563,34.66796875,33.203125,26.3671875,32.71484375,31.73828125
1771546211.8735626,35.15625,36.62109375,28.3203125,34.1796875,68.359375
1771546211.8774688,36.62109375,37.109375,30.76171875,44.921875,24.90234375
1771546211.881375,40.52734375,36.1328125,29.78515625,58.59375,34.66796875
1771546211.8852813,34.1796875,33.69140625,28.80859375,40.52734375,84.9609375
1771546211.8891876,23.4375,31.25,31.25,20.01953125,27.83203125
1771546211.8930938,28.80859375,29.296875,31.73828125,29.296875,37.59765625
1771546211.895125,33.69140625,26.85546875,28.80859375,38.57421875,15.625
1771546211.8990312,32.2265625,27.34375,26.85546875,31.25,4.39453125
1771546211.9029374,29.296875,32.71484375,29.78515625,22.94921875,39.0625
1771546211.9068437,32.71484375,33.203125,30.76171875,25.390625,59.5703125
1771546211.91075,39.55078125,28.80859375,27.83203125,31.73828125,91.30859375
1771546211.9146562,36.62109375,27.83203125,30.2734375,35.15625,40.52734375
1771546211.9185624,27.34375,30.2734375,35.64453125,29.296875,30.2734375
1771546211.9224687,30.2734375,32.71484375,36.62109375,30.76171875,58.10546875
1771546211.926375,41.9921875,31.73828125,32.71484375,35.15625,81.54296875
1771546211.9302812,39.0625,29.296875,29.296875,37.109375,45.41015625
1771546211.9341874,27.34375,29.78515625,31.73828125,29.78515625,16.11328125
1771546211.9380937,28.3203125,33.203125,32.2265625,26.85546875,10.7421875
1771546211.940125,38.0859375,32.2265625,22.4609375,37.59765625,-18.06640625
1771546211.9440312,39.55078125,29.78515625,26.85546875,36.1328125,61.03515625
1771546211.9479375,26.85546875,28.80859375,34.1796875,24.4140625,87.40234375
1771546211.9518437,21.97265625,28.80859375,32.71484375,24.4140625,36.1328125
1771546211.95575,29.78515625,27.34375,33.203125,31.25,47.36328125
1771546211.9596562,31.73828125,24.90234375,31.73828125,31.73828125,66.89453125
1771546211.9635625,26.85546875,26.85546875,31.73828125,30.76171875,58.59375
1771546211.9674687,21.484375,30.2734375,32.71484375,22.4609375,40.52734375
1771546211.971375,24.90234375,29.78515625,33.203125,19.04296875,8.7890625
1771546211.9752812,29.296875,28.3203125,33.203125,22.4609375,26.85546875
1771546211.9791875,26.85546875,27.34375,35.15625,20.01953125,36.62109375
1771546211.9830937,15.13671875,25.87890625,33.69140625,9.765625,4.39453125
1771546211.985125,8.30078125,25.390625,31.25,3.41796875,-0.9765625
1771546211.9890313,12.6953125,27.34375,32.2265625,14.16015625,35.15625
1771546211.9929376,16.11328125,29.296875,32.71484375,20.99609375,64.94140625
1771546211.9968438,11.23046875,27.34375,34.1796875,10.25390625,73.73046875
1771546212.00075,14.6484375,25.87890625,35.64453125,8.7890625,51.26953125
1771546212.0046563,25.87890625,28.80859375,36.62109375,21.484375,-4.39453125
1771546212.0085626,28.3203125,34.66796875,39.55078125,30.2734375,23.4375
1771546212.0124688,22.94921875,35.15625,37.109375,26.85546875,6.8359375
1771546212.016375,20.99609375,30.2734375,33.203125,21.484375,-20.99609375
1771546212.0202813,28.3203125,29.78515625,39.0625,23.4375,20.99609375
1771546212.0241876,34.1796875,29.296875,41.50390625,30.76171875,20.5078125
1771546212.0280938,37.109375,27.34375,38.57421875,35.15625,21.97265625
1771546212.030125,32.71484375,28.80859375,40.52734375,26.85546875,76.171875
1771546212.0340312,29.78515625,28.80859375,39.0625,24.4140625,89.35546875
1771546212.0379374,38.0859375,24.4140625,32.71484375,34.66796875,58.59375
1771546212.0418437,38.57421875,26.85546875,29.296875,30.76171875,72.265625
1771546212.04575,28.80859375,30.2734375,24.90234375,16.6015625,62.01171875
1771546212.0496562,30.2734375,30.2734375,25.390625,20.5078125,53.22265625
1771546212.0535624,38.0859375,31.73828125,26.3671875,29.296875,17.578125
1771546212.0574687,40.0390625,33.69140625,25.390625,31.25,-1.953125
1771546212.061375,31.25,32.2265625,26.85546875,22.4609375,33.203125
1771546212.0652812,29.296875,30.76171875,30.76171875,23.4375,14.16015625
1771546212.0691874,37.109375,31.25,31.25,31.73828125,-2.9296875
1771546212.0730937,38.0859375,31.25,30.2734375,31.73828125,35.64453125
1771546212.075125,29.78515625,30.2734375,32.71484375,31.73828125,45.8984375
1771546212.0790312,30.2734375,24.4140625,39.55078125,33.69140625,55.17578125
1771546212.0829375,43.9453125,20.01953125,41.9921875,47.8515625,27.34375
1771546212.0868437,42.48046875,29.296875,30.2734375,44.43359375,9.27734375
1771546212.09075,29.296875,37.109375,24.4140625,19.53125,46.38671875
1771546212.0946562,25.87890625,38.0859375,23.92578125,9.27734375,58.59375
1771546212.0985625,40.0390625,38.57421875,23.92578125,25.390625,48.828125
1771546212.1024687,43.45703125,36.1328125,24.90234375,35.15625,75.1953125
1771546212.106375,33.203125,40.0390625,20.99609375,25.87890625,69.82421875
1771546212.1102812,27.34375,44.921875,17.08984375,15.625,51.7578125
1771546212.1141875,31.25,48.33984375,7.32421875,13.18359375,29.78515625
1771546212.1180937,38.0859375,49.8046875,7.8125,25.390625,13.18359375
1771546212.120125,43.45703125,44.921875,18.06640625,37.59765625,35.64453125
1771546212.1240313,43.9453125,39.55078125,23.92578125,40.0390625,59.5703125
1771546212.1279376,33.203125,38.57421875,25.390625,35.15625,39.0625
1771546212.1318438,38.0859375,37.59765625,27.34375,38.0859375,47.8515625
1771546212.13575,50.29296875,36.1328125,29.296875,48.33984375,35.64453125
1771546212.1396563,43.9453125,37.59765625,25.390625,47.36328125,-16.11328125
1771546212.1435626,34.66796875,37.59765625,22.94921875,34.1796875,-8.7890625
1771546212.1474688,35.64453125,38.0859375,28.3203125,31.25,39.55078125
1771546212.151375,42.96875,39.55078125,29.296875,44.43359375,73.2421875
1771546212.1552813,41.50390625,39.55078125,28.80859375,41.9921875,35.15625
1771546212.1591876,37.59765625,39.55078125,31.73828125,25.87890625,26.85546875
1771546212.1630938,46.875,40.52734375,28.3203125,25.390625,30.76171875
1771546212.166125,44.921875,41.9921875,28.80859375,35.64453125,26.3671875
1771546212.1700313,45.41015625,40.52734375,31.25,41.015625,78.125
1771546212.1739376,45.41015625,38.0859375,28.80859375,34.1796875,68.84765625
1771546212.1778438,42.48046875,38.57421875,27.83203125,28.3203125,66.40625
1771546212.18175,44.43359375,39.0625,26.85546875,32.71484375,83.0078125
1771546212.1856563,52.24609375,36.1328125,25.390625,39.55078125,68.359375
1771546212.1895626,48.828125,32.71484375,25.390625,30.76171875,57.12890625
1771546212.1934688,36.62109375,36.1328125,23.4375,22.4609375,8.30078125
1771546212.197375,41.015625,35.64453125,20.01953125,31.25,10.25390625
1771546212.2012813,45.8984375,31.73828125,24.90234375,39.55078125,106.93359375
1771546212.2051876,39.0625,30.76171875,29.78515625,41.015625,84.47265625
1771546212.2090938,32.71484375,30.76171875,28.3203125,31.73828125,9.27734375
1771546212.225125,38.0859375,33.69140625,27.83203125,28.80859375,33.203125
1771546212.2290313,41.50390625,31.73828125,27.34375,40.52734375,37.59765625
1771546212.2329376,39.0625,30.76171875,25.87890625,40.0390625,22.4609375
1771546212.2368438,27.83203125,31.25,24.4140625,24.90234375,17.08984375
1771546212.24075,25.390625,31.25,22.94921875,27.34375,40.52734375
1771546212.2446563,36.62109375,29.296875,24.4140625,35.15625,69.82421875
1771546212.2485626,36.1328125,26.85546875,24.4140625,27.83203125,57.12890625
1771546212.2524688,30.2734375,28.3203125,25.390625,22.4609375,43.9453125
1771546212.256375,24.4140625,32.2265625,22.4609375,24.4140625,-11.23046875
1771546212.2602813,28.3203125,31.25,20.99609375,29.296875,0.48828125
1771546212.2641876,41.50390625,28.3203125,27.34375,31.25,50.29296875
1771546212.2680938,37.109375,29.296875,28.3203125,22.94921875,71.2890625
1771546212.270125,29.78515625,28.3203125,23.92578125,14.6484375,27.34375
1771546212.2740312,33.203125,24.4140625,24.90234375,26.85546875,13.18359375
1771546212.2779374,37.59765625,26.85546875,28.80859375,41.015625,33.203125
1771546212.2818437,41.50390625,28.3203125,26.85546875,27.83203125,27.83203125
1771546212.28575,42.48046875,27.34375,24.90234375,16.11328125,15.625
1771546212.2896562,44.43359375,28.80859375,26.3671875,26.3671875,20.5078125
1771546212.2935624,50.78125,29.78515625,27.34375,35.15625,26.3671875
1771546212.2974687,52.734375,30.76171875,27.83203125,36.62109375,49.8046875
1771546212.301375,41.50390625,30.76171875,24.4140625,33.69140625,39.0625
1771546212.3052812,41.015625,31.25,25.87890625,31.25,30.76171875
1771546212.3091874,49.31640625,34.66796875,29.78515625,39.0625,28.80859375
1771546212.3130937,48.828125,36.1328125,28.3203125,46.38671875,14.6484375
1771546212.315125,44.921875,34.1796875,26.85546875,39.0625,56.15234375
1771546212.3190312,40.52734375,32.71484375,25.87890625,31.25,78.61328125
1771546212.3229375,44.921875,33.203125,25.87890625,38.0859375,-25.390625
1771546212.3268437,52.24609375,36.1328125,29.296875,45.41015625,36.1328125
1771546212.33075,43.9453125,36.1328125,31.73828125,42.96875,58.59375
1771546212.3346562,34.1796875,35.64453125,29.78515625,34.1796875,-25.390625
1771546212.3385625,40.0390625,36.1328125,27.83203125,35.15625,-16.6015625
1771546212.3424687,47.36328125,34.1796875,27.34375,46.38671875,3.90625
1771546212.346375,45.41015625,30.76171875,27.83203125,40.52734375,35.15625
1771546212.3502812,40.0390625,29.296875,29.296875,20.99609375,71.2890625
1771546212.3541875,35.64453125,31.25,30.2734375,24.4140625,9.765625
1771546212.3580937,44.921875,34.1796875,29.78515625,35.15625,-8.7890625
1771546212.360125,42.96875,30.2734375,31.25,31.73828125,32.71484375
1771546212.3640313,31.25,28.80859375,33.203125,22.4609375,24.4140625
1771546212.3679376,34.66796875,33.203125,32.71484375,27.34375,10.25390625
1771546212.3718438,44.921875,31.73828125,35.15625,37.59765625,-6.8359375
1771546212.37575,43.45703125,28.80859375,35.64453125,37.109375,9.765625
1771546212.3796563,33.69140625,26.3671875,33.203125,22.94921875,19.04296875
1771546212.3835626,31.25,27.83203125,33.69140625,16.6015625,34.66796875
1771546212.3874688,36.62109375,32.2265625,31.73828125,27.34375,48.33984375
1771546212.391375,43.9453125,30.2734375,31.73828125,30.2734375,16.6015625
1771546212.3952813,36.1328125,24.90234375,35.64453125,28.3203125,39.55078125
1771546212.3991876,23.92578125,22.94921875,38.57421875,24.90234375,21.484375
1771546212.4030938,27.34375,23.4375,36.62109375,24.4140625,4.8828125
1771546212.405125,32.71484375,22.4609375,32.71484375,32.71484375,71.2890625
1771546212.4090312,27.34375,22.94921875,29.78515625,36.62109375,63.4765625
1771546212.4129374,20.99609375,22.4609375,31.25,25.87890625,23.4375
1771546212.4168437,17.578125,20.01953125,34.1796875,23.92578125,24.4140625
1771546212.42075,23.4375,20.99609375,29.296875,35.64453125,29.78515625
1771546212.4246562,31.73828125,24.4140625,25.87890625,42.48046875,37.59765625
1771546212.4285624,24.4140625,23.4375,26.3671875,35.15625,47.36328125
1771546212.4324687,20.5078125,24.4140625,27.83203125,28.80859375,55.6640625
1771546212.436375,32.2265625,25.87890625,30.2734375,35.15625,22.4609375
1771546212.4402812,37.59765625,22.4609375,32.71484375,44.921875,-30.76171875
1771546212.4441874,35.64453125,23.92578125,33.69140625,42.96875,-2.44140625
1771546212.4480937,38.0859375,26.85546875,30.76171875,33.203125,1.46484375
1771546212.449125,41.015625,29.296875,27.34375,29.78515625,-19.04296875
1771546212.4530313,43.9453125,31.73828125,32.2265625,38.57421875,21.97265625
1771546212.4569376,45.8984375,29.78515625,32.71484375,37.109375,11.71875
1771546212.4608438,39.55078125,30.2734375,31.25,27.34375,53.22265625
1771546212.46475,42.48046875,33.69140625,32.2265625,30.76171875,78.61328125
1771546212.4686563,49.31640625,32.71484375,33.69140625,38.0859375,34.66796875
1771546212.4725626,47.36328125,31.25,31.73828125,38.0859375,26.3671875
1771546212.4764688,44.43359375,34.1796875,31.73828125,28.80859375,74.70703125
1771546212.480375,42.48046875,34.66796875,35.64453125,27.83203125,98.14453125
1771546212.4842813,48.33984375,32.2265625,34.1796875,36.62109375,36.62109375
1771546212.4881876,47.8515625,32.71484375,34.66796875,40.52734375,21.484375
1771546212.4920938,42.96875,32.71484375,33.203125,32.71484375,5.37109375
1771546212.496125,39.0625,34.1796875,30.76171875,25.390625,-0.9765625
1771546212.5000312,44.43359375,34.1796875,35.15625,36.1328125,18.5546875
1771546212.5039375,46.38671875,31.25,37.59765625,42.96875,2.44140625
1771546212.5078437,31.25,31.25,39.0625,38.0859375,-18.06640625
1771546212.51175,21.484375,33.203125,36.62109375,33.69140625,-18.06640625
1771546212.5156562,22.94921875,35.64453125,36.1328125,42.48046875,72.265625
1771546212.5195625,24.90234375,32.2265625,36.62109375,44.921875,133.7890625
1771546212.5234687,22.94921875,29.78515625,37.109375,40.0390625,63.4765625
1771546212.527375,19.53125,34.1796875,39.0625,35.15625,23.4375
1771546212.5312812,29.78515625,35.64453125,36.1328125,38.57421875,62.01171875
1771546212.5351875,38.0859375,36.62109375,35.64453125,41.50390625,33.69140625
1771546212.5390937,39.0625,36.62109375,34.66796875,33.69140625,51.7578125
1771546212.540125,35.15625,34.66796875,33.203125,22.94921875,69.82421875
1771546212.5440311,33.203125,35.64453125,33.203125,22.94921875,61.5234375
1771546212.5479374,43.9453125,36.1328125,31.25,36.1328125,51.26953125
1771546212.5518436,46.38671875,29.296875,33.69140625,40.0390625,29.78515625
1771546212.55575,31.73828125,21.484375,39.55078125,29.78515625,11.71875
1771546212.5596561,21.97265625,20.01953125,38.0859375,23.4375,-15.13671875
1771546212.5635624,28.80859375,20.99609375,34.66796875,29.78515625,4.8828125
1771546212.5674686,44.43359375,22.4609375,36.62109375,37.109375,36.62109375
1771546212.571375,44.921875,26.85546875,32.2265625,36.1328125,50.78125
1771546212.5752811,33.203125,27.34375,27.34375,27.83203125,29.296875
1771546212.5791874,41.9921875,25.87890625,32.71484375,32.2265625,42.96875
1771546212.5830936,51.7578125,27.34375,34.1796875,42.48046875,53.22265625
1771546212.600125,41.50390625,25.87890625,29.78515625,41.015625,37.59765625
1771546212.6040313,33.69140625,22.4609375,32.2265625,34.1796875,43.45703125
1771546212.6079376,36.1328125,25.87890625,35.15625,33.69140625,44.921875
1771546212.6118438,39.0625,30.2734375,33.69140625,38.0859375,36.1328125
1771546212.61575,40.52734375,28.80859375,32.2265625,41.50390625,36.62109375
1771546212.6196563,30.76171875,24.90234375,30.76171875,32.2265625,61.5234375
1771546212.6235626,22.4609375,22.94921875,30.2734375,25.390625,49.8046875
1771546212.6274688,27.83203125,24.90234375,30.2734375,34.66796875,19.53125
1771546212.631375,34.1796875,25.87890625,28.80859375,42.96875,5.859375
1771546212.6352813,36.1328125,27.34375,26.85546875,34.66796875,34.1796875
1771546212.6391876,32.71484375,30.76171875,28.80859375,20.5078125,45.8984375
1771546212.6430938,35.15625,31.25,29.296875,22.94921875,-6.8359375
1771546212.645125,41.9921875,31.73828125,26.85546875,32.2265625,12.20703125
1771546212.6490312,41.9921875,34.1796875,25.390625,31.25,23.4375
1771546212.6529374,37.109375,34.1796875,28.80859375,25.87890625,22.4609375
1771546212.6568437,41.015625,35.64453125,31.73828125,24.4140625,26.85546875
1771546212.66075,47.36328125,34.66796875,31.25,31.73828125,22.4609375
1771546212.6646562,46.875,33.69140625,28.80859375,37.109375,33.203125
1771546212.6685624,41.50390625,35.64453125,24.4140625,26.85546875,57.6171875
1771546212.6724687,39.55078125,34.66796875,26.3671875,24.90234375,46.38671875
1771546212.676375,43.9453125,32.71484375,28.3203125,40.0390625,10.25390625
1771546212.6802812,47.36328125,30.76171875,25.87890625,43.45703125,-29.78515625
1771546212.6841874,41.015625,31.73828125,28.80859375,35.15625,-57.6171875
1771546212.6880937,36.1328125,34.66796875,31.25,35.64453125,2.44140625
1771546212.690125,41.015625,32.71484375,31.25,43.9453125,1.46484375
1771546212.6940312,46.875,34.66796875,32.2265625,52.734375,-18.5546875
1771546212.6979375,42.48046875,34.66796875,32.2265625,50.29296875,5.37109375
1771546212.7018437,35.64453125,32.71484375,29.78515625,37.59765625,13.18359375
1771546212.70575,41.50390625,33.69140625,27.34375,35.64453125,35.15625
1771546212.7096562,42.48046875,33.69140625,28.80859375,49.31640625,29.78515625
1771546212.7135625,36.62109375,30.2734375,30.76171875,50.78125,57.6171875
1771546212.7174687,34.1796875,32.2265625,26.3671875,34.66796875,34.1796875
1771546212.721375,35.15625,32.71484375,26.85546875,37.59765625,32.2265625
1771546212.7252812,41.015625,29.78515625,28.80859375,43.9453125,86.42578125
1771546212.7291875,37.109375,34.1796875,27.83203125,38.0859375,81.0546875
1771546212.7330937,33.69140625,32.2265625,28.3203125,35.64453125,38.57421875
1771546212.734125,38.0859375,28.80859375,27.83203125,36.1328125,22.4609375
1771546212.7380311,40.52734375,33.203125,26.3671875,37.109375,0.0
1771546212.7419374,44.43359375,32.71484375,28.3203125,41.50390625,41.9921875
1771546212.7458436,43.45703125,29.296875,27.34375,35.64453125,98.14453125
1771546212.74975,37.109375,30.76171875,21.484375,24.90234375,64.453125
1771546212.7536561,48.828125,32.2265625,20.99609375,35.15625,61.03515625
1771546212.7575624,54.6875,30.2734375,20.99609375,43.45703125,71.2890625
1771546212.7614686,41.9921875,30.76171875,19.04296875,34.1796875,45.41015625
1771546212.765375,36.1328125,28.3203125,21.484375,23.92578125,35.64453125
1771546212.7692811,41.015625,28.3203125,29.78515625,31.25,37.59765625
1771546212.7731874,46.38671875,28.80859375,33.69140625,47.8515625,50.78125
1771546212.7770936,46.38671875,28.80859375,28.3203125,44.43359375,45.8984375
1771546212.780125,33.69140625,29.296875,29.78515625,34.66796875,37.59765625
1771546212.7840312,29.296875,29.78515625,30.76171875,35.15625,21.484375
1771546212.7879374,34.66796875,33.69140625,28.80859375,34.1796875,19.04296875
1771546212.7918437,32.71484375,33.69140625,29.296875,32.2265625,0.0
1771546212.79575,22.4609375,31.73828125,25.87890625,27.34375,-24.4140625
1771546212.7996562,17.578125,30.76171875,25.87890625,23.4375,33.69140625
1771546212.8035624,24.90234375,27.34375,30.2734375,27.34375,41.50390625
1771546212.8074687,31.25,26.85546875,27.83203125,37.109375,37.109375
1771546212.811375,24.4140625,28.80859375,23.92578125,27.83203125,46.38671875
1771546212.8152812,15.625,31.25,24.90234375,17.08984375,15.625
1771546212.8191874,24.90234375,33.203125,23.92578125,28.3203125,39.55078125
1771546212.8230937,31.73828125,30.76171875,21.97265625,36.62109375,76.66015625
1771546212.825125,29.78515625,30.2734375,21.484375,30.2734375,40.52734375
1771546212.8290312,26.85546875,33.203125,23.92578125,24.4140625,42.48046875
1771546212.8329375,34.66796875,32.71484375,28.3203125,31.25,61.5234375
1771546212.8368437,41.015625,34.66796875,27.83203125,40.0390625,50.78125
1771546212.84075,34.1796875,34.66796875,23.4375,34.66796875,54.6875
1771546212.8446562,30.2734375,31.25,22.4609375,24.4140625,41.50390625
1771546212.8485625,31.25,31.25,22.94921875,28.80859375,-11.71875
1771546212.8524687,37.59765625,29.78515625,24.90234375,41.9921875,-3.90625
1771546212.856375,39.55078125,32.71484375,26.85546875,39.55078125,25.87890625
1771546212.8602812,33.69140625,33.203125,26.85546875,27.83203125,34.1796875
1771546212.8641875,33.69140625,28.80859375,30.76171875,31.25,8.7890625
1771546212.8680937,43.9453125,30.2734375,30.76171875,43.9453125,-3.90625
1771546212.870125,47.36328125,30.76171875,30.2734375,46.38671875,33.69140625
1771546212.8740313,36.62109375,31.73828125,35.15625,37.109375,66.40625
1771546212.8779376,29.296875,33.203125,26.85546875,28.3203125,56.640625
1771546212.8818438,32.71484375,32.71484375,15.625,30.2734375,62.01171875
1771546212.88575,36.1328125,30.2734375,20.99609375,34.1796875,52.24609375
1771546212.8896563,33.69140625,28.3203125,23.4375,35.64453125,62.01171875
1771546212.8935626,23.92578125,27.34375,24.4140625,24.90234375,31.25
1771546212.8974688,23.92578125,26.3671875,30.2734375,17.578125,16.11328125
1771546212.901375,39.55078125,29.78515625,32.71484375,29.78515625,71.2890625
1771546212.9052813,39.0625,30.2734375,31.73828125,34.1796875,24.90234375
1771546212.9091876,22.4609375,28.80859375,33.69140625,22.94921875,14.16015625
1771546212.9130938,22.4609375,29.296875,34.1796875,28.80859375,71.77734375
1771546212.915125,33.69140625,32.2265625,33.203125,41.50390625,47.8515625
1771546212.9190311,37.59765625,32.71484375,35.64453125,42.48046875,30.2734375
1771546212.9229374,31.25,30.76171875,35.64453125,33.69140625,20.5078125
1771546212.9268436,28.80859375,31.73828125,33.203125,24.90234375,-10.25390625
1771546212.93075,37.59765625,35.64453125,33.69140625,32.71484375,-14.6484375
1771546212.9346561,45.41015625,35.64453125,34.1796875,41.9921875,-16.6015625
1771546212.9385624,41.015625,31.73828125,33.203125,33.69140625,0.0
1771546212.9424686,37.109375,30.2734375,37.109375,31.25,77.1484375
1771546212.946375,39.0625,32.71484375,34.1796875,38.0859375,45.41015625
1771546212.9502811,43.45703125,35.64453125,23.4375,33.69140625,-15.625
1771546212.9541874,38.57421875,34.66796875,25.87890625,27.34375,-3.90625
1771546212.9580936,22.94921875,36.1328125,30.76171875,20.99609375,41.50390625
1771546212.975125,21.484375,36.62109375,31.73828125,18.06640625,62.5
1771546212.9790313,27.34375,36.1328125,31.25,22.4609375,25.390625
1771546212.9829376,28.80859375,41.015625,26.85546875,30.2734375,38.0859375
1771546212.9868438,25.390625,40.0390625,28.80859375,28.80859375,21.484375
1771546212.99075,30.76171875,41.015625,33.69140625,30.76171875,-20.5078125
1771546212.9946563,40.52734375,41.015625,34.66796875,41.50390625,-12.6953125
1771546212.9985626,38.0859375,37.59765625,34.1796875,46.38671875,-15.625
1771546213.0024688,27.83203125,39.0625,34.1796875,40.52734375,34.66796875
1771546213.006375,32.2265625,39.0625,33.69140625,36.62109375,41.50390625
1771546213.0102813,43.9453125,39.0625,31.73828125,38.0859375,0.9765625
1771546213.0141876,44.921875,41.9921875,32.2265625,38.57421875,11.23046875
1771546213.0180938,42.48046875,42.96875,34.1796875,39.0625,6.8359375
1771546213.020125,38.0859375,41.50390625,33.203125,34.1796875,42.48046875
1771546213.0240312,38.57421875,40.52734375,30.2734375,30.2734375,40.0390625
1771546213.0279374,41.015625,39.0625,30.2734375,35.64453125,-4.8828125
1771546213.0318437,37.59765625,38.0859375,28.80859375,39.0625,33.69140625
1771546213.03575,26.3671875,37.109375,26.85546875,28.80859375,26.3671875
1771546213.0396562,26.3671875,36.62109375,26.85546875,20.01953125,11.71875
1771546213.0435624,37.109375,38.57421875,28.80859375,20.99609375,44.43359375
1771546213.0474687,35.15625,38.0859375,28.3203125,23.92578125,-10.7421875
1771546213.051375,29.296875,33.203125,28.80859375,23.4375,-6.34765625
1771546213.0552812,31.73828125,32.2265625,31.25,21.97265625,25.87890625
1771546213.0591874,34.66796875,34.66796875,29.78515625,31.73828125,-3.41796875
1771546213.0630937,35.64453125,34.66796875,29.296875,41.9921875,78.125
1771546213.079125,33.203125,34.66796875,26.85546875,33.203125,108.88671875
1771546213.0830312,29.296875,34.1796875,26.85546875,25.390625,103.02734375
1771546213.0869374,34.1796875,31.73828125,31.73828125,34.1796875,90.8203125
1771546213.0908437,35.64453125,30.76171875,30.2734375,37.59765625,73.73046875
1771546213.09475,32.2265625,27.83203125,29.78515625,33.203125,42.96875
1771546213.0986562,28.80859375,21.484375,30.2734375,21.97265625,-7.32421875
1771546213.1025624,34.1796875,25.390625,32.71484375,26.3671875,30.2734375
1771546213.1064687,40.52734375,30.2734375,34.1796875,41.015625,40.0390625
1771546213.110375,42.48046875,24.90234375,31.73828125,37.59765625,31.73828125
1771546213.1142812,36.62109375,26.3671875,32.2265625,26.85546875,43.45703125
1771546213.1181874,27.83203125,29.296875,32.71484375,24.90234375,60.05859375
1771546213.1220937,30.2734375,26.3671875,31.73828125,33.203125,39.55078125
1771546213.110125,37.59765625,27.83203125,32.71484375,36.1328125,-0.48828125
1771546213.1140313,33.203125,31.73828125,26.85546875,25.390625,-3.41796875
1771546213.1179376,26.85546875,27.83203125,25.87890625,20.99609375,-7.8125
1771546213.1218438,32.71484375,24.90234375,31.25,29.78515625,-38.0859375
1771546213.12575,35.64453125,29.296875,32.71484375,32.71484375,-22.4609375
1771546213.1296563,28.80859375,28.3203125,37.109375,26.3671875,14.16015625
1771546213.1335626,23.92578125,27.83203125,37.109375,20.01953125,54.6875
1771546213.1374688,22.94921875,28.80859375,36.62109375,21.484375,29.78515625
1771546213.141375,25.87890625,26.85546875,39.0625,28.3203125,29.296875
1771546213.1452813,25.87890625,31.25,41.015625,25.390625,75.1953125
1771546213.1491876,22.4609375,37.109375,37.59765625,19.53125,61.03515625
1771546213.1530938,27.34375,37.109375,33.203125,24.90234375,40.0390625
1771546213.170125,34.1796875,35.64453125,33.203125,33.69140625,44.43359375
1771546213.1740313,39.0625,41.015625,31.25,36.62109375,51.26953125
1771546213.1779375,41.50390625,41.9921875,28.3203125,36.62109375,42.48046875
1771546213.1818438,40.0390625,35.15625,36.62109375,40.52734375,21.97265625
1771546213.18575,37.59765625,30.2734375,40.0390625,41.50390625,60.05859375
1771546213.1896563,37.109375,28.3203125,38.0859375,42.48046875,53.22265625
1771546213.1935625,31.25,29.296875,43.9453125,43.45703125,28.3203125
1771546213.1974688,31.25,31.73828125,41.9921875,40.52734375,25.390625
1771546213.201375,38.57421875,34.1796875,38.57421875,43.45703125,61.03515625
1771546213.2052813,41.9921875,38.0859375,41.015625,42.96875,73.2421875
1771546213.2091875,41.9921875,36.1328125,39.0625,34.66796875,9.27734375
1771546213.2130938,42.96875,31.25,39.0625,29.296875,16.6015625
1771546213.200125,42.96875,33.69140625,39.0625,30.76171875,57.6171875
1771546213.2040312,46.875,34.1796875,36.1328125,36.1328125,46.38671875
1771546213.2079375,48.828125,31.73828125,37.109375,38.0859375,50.29296875
1771546213.2118437,37.109375,33.203125,39.0625,34.1796875,113.76953125
1771546213.21575,34.1796875,28.3203125,41.015625,32.2265625,88.37890625
1771546213.2196562,41.9921875,24.4140625,39.55078125,36.62109375,20.5078125
1771546213.2235625,41.015625,24.4140625,38.57421875,37.109375,36.62109375
1771546213.2274687,28.80859375,22.94921875,38.57421875,22.4609375,65.91796875
1771546213.231375,21.484375,26.3671875,38.57421875,17.08984375,52.24609375
1771546213.2352812,29.296875,28.80859375,40.0390625,30.76171875,-13.18359375
1771546213.2391875,35.15625,29.78515625,37.109375,30.76171875,22.94921875
1771546213.2430937,27.83203125,30.76171875,31.25,11.71875,66.40625
1771546213.245125,20.01953125,31.25,33.203125,7.8125,30.2734375
1771546213.2490313,21.97265625,29.78515625,38.57421875,19.04296875,10.25390625
1771546213.2529376,25.87890625,29.296875,39.0625,25.87890625,28.80859375
1771546213.2568438,25.87890625,27.83203125,37.59765625,21.97265625,52.24609375
1771546213.26075,23.4375,25.390625,37.109375,14.6484375,29.296875
1771546213.2646563,28.3203125,24.90234375,34.66796875,24.90234375,25.390625
1771546213.2685626,36.62109375,22.4609375,33.203125,30.2734375,3.90625
1771546213.2724688,34.66796875,21.484375,35.15625,26.85546875,10.25390625
1771546213.276375,26.85546875,26.85546875,35.64453125,25.87890625,65.91796875
1771546213.2802813,30.76171875,26.3671875,35.15625,27.83203125,48.828125
1771546213.2841876,42.96875,24.90234375,32.2265625,35.15625,6.8359375
1771546213.2880938,44.921875,27.83203125,29.296875,44.43359375,-7.32421875
1771546213.290125,34.1796875,30.76171875,27.83203125,33.69140625,33.69140625
1771546213.2940311,30.76171875,31.25,26.85546875,20.01953125,20.01953125
1771546213.2979374,40.0390625,28.3203125,30.2734375,28.3203125,35.15625
1771546213.3018436,41.015625,25.390625,33.69140625,32.71484375,34.1796875
1771546213.30575,30.2734375,28.80859375,32.71484375,25.87890625,-0.9765625
1771546213.3096561,28.3203125,32.2265625,31.25,24.90234375,1.46484375
1771546213.3135624,38.0859375,30.76171875,32.2265625,29.78515625,20.01953125
1771546213.3174686,41.50390625,34.1796875,33.69140625,36.62109375,57.6171875
1771546213.321375,43.9453125,37.59765625,32.2265625,37.109375,40.52734375
1771546213.3252811,40.52734375,36.1328125,34.1796875,26.3671875,6.34765625
1771546213.3291874,35.64453125,34.66796875,35.64453125,25.390625,22.94921875
1771546213.3330936,40.52734375,37.109375,35.64453125,35.15625,58.59375
1771546213.365125,37.59765625,36.1328125,36.1328125,37.59765625,74.70703125
1771546213.3690312,22.94921875,29.296875,35.15625,24.90234375,80.078125
1771546213.3729374,25.390625,28.80859375,36.1328125,19.53125,6.34765625
1771546213.3768437,39.0625,31.73828125,37.109375,29.78515625,4.39453125
1771546213.38075,41.9921875,32.2265625,37.59765625,35.64453125,42.48046875
1771546213.3846562,26.3671875,32.71484375,38.0859375,28.3203125,22.4609375
1771546213.3885624,20.5078125,34.1796875,39.0625,19.04296875,32.71484375
1771546213.3924687,31.73828125,36.1328125,42.96875,26.85546875,33.203125
1771546213.396375,35.15625,35.15625,41.015625,35.15625,19.53125
1771546213.4002812,28.3203125,31.73828125,37.59765625,25.87890625,44.43359375
1771546213.4041874,22.94921875,32.2265625,39.55078125,20.01953125,65.4296875
1771546213.4080937,27.83203125,34.1796875,40.52734375,27.83203125,84.47265625
1771546213.395125,32.71484375,31.25,37.59765625,35.15625,44.43359375
1771546213.3990312,31.25,26.85546875,38.0859375,34.66796875,-6.8359375
1771546213.4029374,23.92578125,29.296875,40.0390625,23.92578125,56.640625
1771546213.4068437,21.484375,30.76171875,37.109375,23.92578125,35.64453125
1771546213.41075,33.203125,30.2734375,39.55078125,38.57421875,47.36328125
1771546213.4146562,38.57421875,32.71484375,39.0625,39.0625,56.640625
1771546213.4185624,28.80859375,33.203125,39.0625,30.76171875,-65.4296875
1771546213.4224687,30.76171875,33.69140625,43.9453125,29.78515625,-64.453125
1771546213.426375,35.15625,37.59765625,43.9453125,30.76171875,19.04296875
1771546213.4302812,30.76171875,36.1328125,43.45703125,29.78515625,12.6953125
1771546213.4341874,28.3203125,31.73828125,43.45703125,22.4609375,38.0859375
1771546213.4380937,21.97265625,28.3203125,49.31640625,19.53125,53.22265625
1771546213.441125,26.85546875,29.78515625,47.36328125,25.390625,14.6484375
1771546213.4450312,28.80859375,36.62109375,41.50390625,18.5546875,34.1796875
1771546213.4489374,12.20703125,41.015625,44.921875,5.37109375,67.3828125
1771546213.4528437,-1.953125,47.36328125,46.38671875,-6.34765625,54.19921875
1771546213.45675,-4.8828125,42.48046875,49.31640625,-8.30078125,34.1796875
1771546213.4606562,-4.39453125,34.66796875,52.24609375,-4.39453125,13.671875
1771546213.4645624,-3.90625,43.9453125,59.08203125,-12.20703125,-0.9765625
1771546213.4684687,-10.25390625,64.453125,59.5703125,-29.296875,26.85546875
1771546213.472375,-26.85546875,55.6640625,49.31640625,-41.9921875,49.31640625
1771546213.4762812,-36.62109375,38.0859375,60.05859375,-45.41015625,-0.9765625
1771546213.4801874,-47.36328125,42.96875,71.77734375,-53.7109375,0.0
1771546213.4840937,-66.89453125,51.7578125,62.5,-76.171875,60.546875
1771546213.484125,-81.0546875,53.22265625,63.96484375,-97.65625,44.43359375
1771546213.4880311,-85.44921875,50.29296875,73.2421875,-99.12109375,31.73828125
1771546213.4919374,-90.33203125,53.22265625,78.61328125,-96.19140625,-3.41796875
1771546213.4958436,-106.93359375,59.08203125,82.03125,-119.140625,-22.4609375
1771546213.49975,-126.953125,61.5234375,86.9140625,-141.11328125,34.1796875
1771546213.5036561,-134.27734375,59.08203125,85.44921875,-146.97265625,49.8046875
1771546213.5075624,-125.0,66.40625,85.44921875,-143.06640625,23.4375
1771546213.5114686,-127.9296875,68.359375,83.984375,-145.01953125,14.6484375
1771546213.515375,-147.4609375,56.640625,82.51953125,-168.9453125,28.3203125
1771546213.5192811,-147.94921875,56.15234375,84.9609375,-171.38671875,34.66796875
1771546213.5231874,-145.99609375,64.453125,86.42578125,-155.76171875,27.34375
1771546213.5270936,-147.94921875,73.73046875,83.49609375,-154.296875,51.7578125
1771546213.530125,-157.71484375,73.73046875,79.58984375,-172.8515625,108.88671875
1771546213.5340312,-168.9453125,60.05859375,83.984375,-180.6640625,36.1328125
1771546213.5379374,-160.64453125,56.640625,82.03125,-167.96875,3.90625
1771546213.5418437,-152.83203125,60.546875,74.70703125,-158.203125,35.15625
1771546213.54575,-156.25,59.08203125,77.1484375,-163.57421875,-4.39453125
1771546213.5496562,-149.90234375,57.6171875,80.078125,-163.0859375,0.48828125
1771546213.5535624,-137.20703125,58.10546875,79.1015625,-145.5078125,47.36328125
1771546213.5574687,-132.32421875,56.640625,72.75390625,-142.08984375,43.45703125
1771546213.561375,-134.27734375,63.4765625,67.87109375,-150.87890625,32.71484375
1771546213.5652812,-137.20703125,69.82421875,67.87109375,-145.01953125,28.80859375
1771546213.5691874,-128.90625,60.05859375,70.3125,-131.8359375,37.59765625
1771546213.5730937,-113.76953125,56.15234375,66.89453125,-123.53515625,20.99609375
1771546213.590125,-109.375,59.08203125,62.98828125,-120.1171875,10.25390625
1771546213.5940313,-110.83984375,60.546875,62.5,-119.140625,28.3203125
1771546213.5979376,-101.07421875,57.12890625,62.01171875,-106.4453125,59.08203125
1771546213.6018438,-87.40234375,58.10546875,58.59375,-92.7734375,43.45703125
1771546213.60575,-82.03125,58.59375,48.828125,-92.7734375,39.55078125
1771546213.6096563,-83.0078125,53.7109375,52.24609375,-94.7265625,67.3828125
1771546213.6135626,-79.1015625,54.6875,52.734375,-91.30859375,27.83203125
