timestamps,TP9,AF7,AF8,TP10,Right AUX
1771540074.515125,11.23046875,26.3671875,89.84375,15.13671875,44.921875
1771540074.5190313,10.7421875,25.390625,87.40234375,20.99609375,46.38671875
1771540074.5229375,26.3671875,25.390625,87.40234375,22.4609375,19.53125
1771540074.5268438,24.90234375,26.85546875,98.6328125,27.83203125,-11.23046875
1771540074.53075,17.08984375,28.3203125,106.93359375,38.57421875,7.8125
1771540074.5346563,6.34765625,27.83203125,95.703125,30.76171875,-3.90625
1771540074.5385625,24.4140625,25.390625,78.125,10.25390625,38.57421875
1771540074.5424688,30.76171875,25.87890625,92.7734375,7.8125,51.26953125
1771540074.546375,22.4609375,30.76171875,115.72265625,23.4375,-2.9296875
1771540074.5502813,17.08984375,31.25,96.6796875,21.97265625,-17.578125
1771540074.5541875,13.671875,33.69140625,100.5859375,15.13671875,33.69140625
1771540074.5580938,22.4609375,37.109375,110.3515625,22.4609375,47.8515625
1771540074.574125,24.90234375,33.203125,104.4921875,28.3203125,41.9921875
1771540074.5780313,12.20703125,30.76171875,85.9375,21.484375,40.0390625
1771540074.5819376,18.06640625,31.73828125,83.984375,20.5078125,-1.46484375
1771540074.5858438,29.78515625,29.296875,94.7265625,23.92578125,-11.71875
1771540074.58975,20.01953125,27.34375,83.0078125,26.3671875,6.34765625
1771540074.5936563,16.11328125,25.390625,66.40625,29.78515625,40.52734375
1771540074.5975626,25.390625,22.4609375,53.7109375,25.390625,43.9453125
1771540074.6014688,21.484375,26.85546875,91.30859375,17.578125,14.16015625
1771540074.605375,25.87890625,29.78515625,101.5625,21.97265625,23.92578125
1771540074.6092813,34.66796875,28.80859375,71.77734375,26.3671875,18.5546875
1771540074.6131876,23.92578125,29.296875,79.58984375,25.87890625,36.1328125
1771540074.6170938,18.06640625,28.3203125,91.796875,21.484375,74.70703125
1771540074.619125,20.5078125,26.3671875,85.44921875,37.109375,80.56640625
1771540074.6230311,21.484375,28.3203125,84.9609375,43.9453125,79.58984375
1771540074.6269374,23.4375,29.296875,85.9375,19.53125,11.71875
1771540074.6308436,27.34375,27.83203125,92.7734375,21.97265625,-20.99609375
1771540074.63475,30.2734375,25.390625,88.8671875,37.109375,-37.59765625
1771540074.6386561,38.57421875,23.92578125,71.2890625,31.25,-45.41015625
1771540074.6425624,36.62109375,26.85546875,68.84765625,38.0859375,4.39453125
1771540074.6464686,37.109375,24.4140625,79.1015625,32.2265625,30.76171875
1771540074.650375,35.64453125,22.4609375,78.61328125,21.97265625,16.11328125
1771540074.6542811,29.296875,21.484375,41.015625,28.80859375,38.57421875
1771540074.6581874,21.97265625,20.5078125,43.45703125,20.5078125,80.078125
1771540074.6620936,16.11328125,23.4375,78.61328125,13.18359375,82.03125
1771540074.664125,17.08984375,24.4140625,68.359375,20.01953125,95.703125
1771540074.6680312,23.4375,23.92578125,51.7578125,32.71484375,45.8984375
1771540074.6719375,32.2265625,23.92578125,64.453125,30.2734375,-24.90234375
1771540074.6758437,26.3671875,22.4609375,73.73046875,10.25390625,9.27734375
1771540074.67975,29.78515625,20.01953125,73.2421875,7.8125,58.59375
1771540074.6836562,42.48046875,20.01953125,68.84765625,20.99609375,91.30859375
1771540074.6875625,36.62109375,19.04296875,70.80078125,33.69140625,82.03125
1771540074.6914687,26.3671875,18.5546875,83.49609375,40.0390625,53.7109375
1771540074.695375,39.55078125,19.53125,62.5,34.66796875,-3.90625
1771540074.6992812,54.6875,20.01953125,49.8046875,30.76171875,13.671875
1771540074.7031875,35.15625,22.94921875,84.47265625,22.4609375,51.26953125
1771540074.7070937,22.4609375,21.97265625,76.66015625,35.64453125,-1.46484375
1771540074.709125,32.71484375,23.92578125,66.89453125,56.15234375,15.13671875
1771540074.7130313,43.9453125,24.4140625,71.77734375,51.26953125,45.8984375
1771540074.7169375,45.8984375,20.5078125,67.3828125,35.64453125,29.78515625
1771540074.7208438,35.64453125,21.97265625,66.89453125,37.109375,79.58984375
1771540074.72475,36.62109375,20.99609375,61.5234375,50.78125,73.73046875
1771540074.7286563,49.31640625,18.06640625,58.10546875,55.17578125,6.8359375
1771540074.7325625,42.48046875,18.5546875,69.3359375,53.22265625,33.69140625
1771540074.7364688,37.109375,19.04296875,67.87109375,43.9453125,27.34375
1771540074.740375,35.15625,19.04296875,39.55078125,32.2265625,18.06640625
1771540074.7442813,39.55078125,22.4609375,68.84765625,24.90234375,86.9140625
1771540074.7481875,42.96875,23.4375,88.37890625,26.85546875,50.29296875
1771540074.7520938,33.203125,19.04296875,48.828125,32.2265625,-4.8828125
1771540074.755125,32.71484375,18.06640625,48.33984375,25.87890625,13.671875
1771540074.7590313,32.2265625,19.53125,79.1015625,36.1328125,3.90625
1771540074.7629375,22.94921875,19.53125,84.9609375,41.50390625,5.37109375
1771540074.7668438,19.53125,17.578125,72.75390625,31.25,29.296875
1771540074.77075,15.13671875,16.6015625,78.61328125,31.73828125,44.921875
1771540074.7746563,21.484375,15.625,85.44921875,26.85546875,90.33203125
1771540074.7785625,35.15625,18.5546875,92.28515625,33.69140625,58.59375
1771540074.7824688,37.59765625,17.08984375,77.1484375,38.0859375,57.12890625
1771540074.786375,40.52734375,17.578125,71.2890625,40.0390625,44.921875
1771540074.7902813,29.296875,21.484375,113.28125,32.2265625,10.25390625
1771540074.7941875,18.5546875,17.578125,118.1640625,35.64453125,2.9296875
1771540074.7980938,36.62109375,16.11328125,75.1953125,31.25,-49.8046875
1771540074.800125,33.69140625,20.01953125,79.1015625,-1.46484375,-35.64453125
1771540074.8040311,7.8125,21.97265625,106.93359375,2.9296875,28.3203125
1771540074.8079374,16.11328125,21.484375,101.5625,19.53125,67.87109375
1771540074.8118436,34.1796875,20.01953125,83.984375,24.4140625,33.69140625
1771540074.81575,34.1796875,17.08984375,87.890625,27.34375,-6.8359375
1771540074.8196561,21.97265625,17.578125,97.16796875,21.484375,32.71484375
1771540074.8235624,27.34375,20.01953125,105.95703125,21.97265625,83.49609375
1771540074.8274686,39.55078125,17.08984375,87.890625,34.1796875,63.4765625
1771540074.831375,41.50390625,17.08984375,98.14453125,39.0625,8.30078125
1771540074.8352811,35.64453125,21.484375,136.71875,31.25,2.9296875
1771540074.8391874,27.34375,19.53125,130.37109375,21.97265625,115.234375
1771540074.8430936,31.25,17.08984375,119.62890625,27.34375,110.3515625
1771540074.844125,23.4375,17.578125,123.046875,18.06640625,48.33984375
1771540074.8480313,18.06640625,16.6015625,110.83984375,27.83203125,29.296875
1771540074.8519375,18.5546875,18.06640625,101.5625,39.55078125,21.484375
1771540074.8558438,22.94921875,21.97265625,116.69921875,20.01953125,22.4609375
1771540074.85975,31.73828125,20.01953125,115.72265625,18.06640625,0.9765625
1771540074.8636563,38.57421875,23.4375,116.2109375,31.73828125,18.06640625
1771540074.8675625,28.80859375,23.92578125,98.14453125,25.390625,1.953125
1771540074.8714688,33.203125,20.5078125,86.9140625,26.85546875,0.0
1771540074.875375,41.015625,24.4140625,135.25390625,28.80859375,40.52734375
1771540074.8792813,26.3671875,25.390625,140.625,37.109375,56.15234375
1771540074.8831875,40.0390625,29.78515625,132.8125,56.640625,51.7578125
1771540074.8870938,45.41015625,31.73828125,145.99609375,40.52734375,55.17578125
1771540074.889125,51.7578125,30.2734375,142.08984375,39.0625,32.2265625
1771540074.8930314,72.265625,29.296875,129.8828125,53.22265625,1.953125
1771540074.8969376,62.98828125,26.85546875,122.55859375,55.17578125,26.3671875
1771540074.9008439,48.33984375,28.3203125,126.953125,62.5,21.484375
1771540074.90475,64.453125,31.73828125,123.53515625,78.61328125,41.9921875
1771540074.9086564,72.75390625,25.390625,94.7265625,88.8671875,41.50390625
1771540074.9125626,71.77734375,20.5078125,65.4296875,82.03125,75.1953125
1771540074.9164689,73.2421875,26.3671875,82.03125,73.2421875,92.7734375
1771540074.920375,72.265625,31.25,123.046875,61.03515625,21.484375
1771540074.9242814,74.21875,30.2734375,96.19140625,51.7578125,20.5078125
1771540074.9281876,69.3359375,30.2734375,72.75390625,53.7109375,30.2734375
1771540074.9320939,58.10546875,34.66796875,84.9609375,43.45703125,38.0859375
1771540074.950125,51.26953125,34.1796875,89.84375,50.78125,43.45703125
1771540074.9540312,61.03515625,31.73828125,71.77734375,62.5,21.97265625
1771540074.9579375,58.59375,29.78515625,67.3828125,58.59375,14.16015625
1771540074.9618437,46.875,27.83203125,78.125,49.31640625,23.92578125
1771540074.96575,41.9921875,26.3671875,65.4296875,32.2265625,-47.8515625
1771540074.9696562,62.01171875,24.90234375,45.41015625,47.8515625,-46.38671875
1771540074.9735625,62.98828125,28.3203125,60.546875,62.01171875,33.203125
1771540074.9774687,38.57421875,32.2265625,94.23828125,43.45703125,19.53125
1771540074.981375,31.25,30.76171875,93.26171875,36.1328125,51.26953125
1771540074.9852812,32.71484375,26.3671875,68.359375,35.15625,77.63671875
1771540074.9891875,29.78515625,27.34375,77.63671875,44.921875,13.18359375
1771540074.9930937,22.4609375,29.78515625,121.09375,42.96875,14.6484375
1771540074.994125,25.390625,28.3203125,113.76953125,43.45703125,1.953125
1771540074.9980311,37.109375,27.83203125,110.83984375,50.29296875,47.36328125
1771540075.0019374,44.43359375,29.296875,107.91015625,52.734375,81.0546875
1771540075.0058436,35.15625,32.2265625,93.75,54.6875,46.875
1771540075.00975,29.78515625,32.71484375,85.44921875,46.875,59.08203125
1771540075.0136561,32.2265625,33.69140625,68.84765625,50.78125,45.41015625
1771540075.0175624,41.50390625,32.2265625,68.84765625,46.875,5.859375
1771540075.0214686,38.57421875,31.25,93.26171875,32.2265625,23.4375
1771540075.025375,40.0390625,31.73828125,80.078125,36.1328125,22.94921875
1771540075.0292811,33.69140625,27.83203125,54.6875,39.55078125,31.25
1771540075.0331874,21.484375,29.296875,99.12109375,32.71484375,68.359375
1771540075.0370936,29.78515625,30.2734375,118.1640625,36.1328125,12.6953125
1771540075.040125,23.4375,24.4140625,99.609375,44.921875,-17.08984375
1771540075.0440311,18.5546875,25.390625,112.79296875,46.38671875,30.2734375
1771540075.0479374,30.2734375,28.3203125,150.390625,52.24609375,69.82421875
1771540075.0518436,38.0859375,26.85546875,143.5546875,54.6875,57.12890625
1771540075.05575,42.96875,25.87890625,114.2578125,45.8984375,-30.76171875
1771540075.0596561,33.69140625,27.34375,117.1875,37.109375,-11.23046875
1771540075.0635624,23.92578125,29.78515625,135.25390625,39.0625,60.546875
1771540075.0674686,28.3203125,30.76171875,142.08984375,36.1328125,18.5546875
1771540075.071375,40.0390625,28.3203125,112.3046875,26.85546875,54.6875
1771540075.0752811,35.15625,27.83203125,95.21484375,20.99609375,65.91796875
1771540075.0791874,34.66796875,30.2734375,125.0,20.99609375,-14.16015625
1771540075.0830936,37.59765625,26.3671875,120.1171875,31.25,1.953125
1771540075.085125,31.73828125,25.87890625,111.81640625,36.62109375,18.06640625
1771540075.0890312,13.671875,29.296875,103.515625,39.0625,45.41015625
1771540075.0929375,-0.48828125,29.78515625,109.86328125,49.8046875,64.453125
1771540075.0968437,11.71875,29.296875,115.72265625,53.7109375,13.18359375
1771540075.10075,15.13671875,28.80859375,107.421875,44.43359375,69.82421875
1771540075.1046562,5.37109375,30.76171875,105.95703125,47.8515625,102.5390625
1771540075.1085625,7.32421875,32.71484375,117.67578125,40.52734375,60.05859375
1771540075.1124687,24.4140625,31.25,130.859375,38.0859375,17.08984375
1771540075.116375,32.2265625,28.80859375,103.02734375,48.33984375,39.0625
1771540075.1202812,20.5078125,33.203125,117.67578125,40.52734375,47.36328125
1771540075.1241875,3.90625,35.15625,151.3671875,27.34375,56.640625
1771540075.1280937,32.71484375,35.15625,129.39453125,21.484375,91.796875
1771540075.129125,44.43359375,37.109375,122.0703125,27.34375,58.10546875
1771540075.1330314,25.87890625,37.59765625,138.671875,25.390625,27.83203125
1771540075.1369376,26.3671875,36.62109375,130.859375,29.78515625,9.765625
1771540075.1408439,25.87890625,33.203125,112.3046875,42.96875,19.53125
1771540075.14475,23.92578125,31.73828125,110.83984375,41.015625,63.96484375
1771540075.1486564,34.66796875,30.2734375,104.4921875,50.29296875,28.80859375
1771540075.1525626,18.5546875,27.83203125,110.83984375,51.7578125,-22.94921875
1771540075.1564689,0.9765625,24.90234375,102.05078125,27.83203125,37.109375
1771540075.160375,16.6015625,25.87890625,85.44921875,22.4609375,93.26171875
1771540075.1642814,26.3671875,29.296875,128.90625,30.76171875,54.6875
1771540075.1681876,23.92578125,30.2734375,136.23046875,38.57421875,30.2734375
1771540075.1720939,15.625,30.2734375,108.3984375,41.9921875,31.73828125
1771540075.174125,17.08984375,28.3203125,101.5625,41.015625,1.953125
1771540075.1780312,31.25,27.83203125,108.3984375,42.96875,18.06640625
1771540075.1819375,26.3671875,28.80859375,103.02734375,55.6640625,13.671875
1771540075.1858437,12.6953125,27.83203125,89.84375,48.828125,-8.7890625
1771540075.18975,22.4609375,27.83203125,92.7734375,39.0625,-15.625
1771540075.1936562,27.34375,25.390625,87.40234375,52.24609375,-8.30078125
1771540075.1975625,15.625,26.85546875,83.49609375,64.453125,-23.4375
1771540075.2014687,7.32421875,29.78515625,54.6875,36.62109375,5.37109375
1771540075.205375,-3.41796875,30.76171875,66.40625,11.23046875,14.16015625
1771540075.2092812,16.11328125,36.1328125,108.3984375,36.1328125,-2.44140625
1771540075.2131875,39.0625,35.15625,77.63671875,36.1328125,21.97265625
1771540075.2170937,38.57421875,34.1796875,56.15234375,18.5546875,39.0625
1771540075.219125,34.66796875,40.52734375,62.5,25.87890625,40.0390625
1771540075.2230313,36.62109375,39.55078125,62.98828125,42.96875,13.671875
1771540075.2269375,30.76171875,34.1796875,54.19921875,57.12890625,20.5078125
1771540075.2308438,33.69140625,31.73828125,60.05859375,50.78125,20.5078125
1771540075.23475,32.2265625,29.296875,82.51953125,53.7109375,0.0
1771540075.2386563,29.78515625,26.85546875,90.8203125,48.828125,50.29296875
1771540075.2425625,42.48046875,24.90234375,64.453125,47.36328125,34.66796875
1771540075.2464688,28.3203125,24.4140625,77.63671875,42.48046875,8.30078125
1771540075.250375,21.484375,26.3671875,121.09375,37.59765625,-0.9765625
1771540075.2542813,38.57421875,29.296875,126.953125,46.38671875,-4.8828125
1771540075.2581875,43.9453125,30.2734375,131.8359375,43.45703125,53.7109375
1771540075.2620938,39.0625,30.76171875,140.13671875,41.50390625,97.65625
1771540075.264125,47.36328125,29.296875,139.6484375,48.33984375,29.296875
1771540075.2680314,43.9453125,26.85546875,125.0,52.734375,20.99609375
1771540075.2719376,22.94921875,24.90234375,118.1640625,49.31640625,62.98828125
1771540075.2758439,29.296875,22.4609375,112.3046875,45.41015625,21.484375
1771540075.27975,25.390625,22.4609375,112.79296875,47.36328125,-15.625
1771540075.2836564,15.625,18.5546875,100.09765625,43.9453125,16.6015625
1771540075.2875626,27.83203125,15.625,77.63671875,40.52734375,38.57421875
1771540075.2914689,21.484375,17.578125,104.00390625,27.83203125,49.8046875
1771540075.295375,16.11328125,20.01953125,128.41796875,33.203125,34.66796875
1771540075.2992814,29.296875,20.99609375,115.234375,35.64453125,37.59765625
1771540075.3031876,35.64453125,21.484375,111.328125,32.2265625,10.7421875
1771540075.3070939,40.0390625,22.94921875,122.0703125,36.62109375,21.484375
1771540075.325125,26.3671875,23.4375,119.140625,26.3671875,12.20703125
1771540075.3290312,17.08984375,21.97265625,84.47265625,26.85546875,-29.296875
1771540075.3329375,32.2265625,22.94921875,78.125,24.4140625,-6.34765625
1771540075.3368437,32.2265625,25.390625,102.05078125,25.87890625,-9.765625
1771540075.34075,16.11328125,24.90234375,101.5625,35.64453125,5.859375
1771540075.3446562,15.625,21.97265625,66.40625,37.59765625,-19.53125
1771540075.3485625,20.5078125,20.5078125,79.1015625,35.15625,-29.78515625
1771540075.3524687,7.8125,22.94921875,147.4609375,25.390625,32.2265625
1771540075.356375,3.90625,23.92578125,137.20703125,20.5078125,70.3125
1771540075.3602812,6.8359375,21.484375,110.3515625,30.76171875,22.94921875
1771540075.3641875,-0.48828125,22.94921875,123.046875,27.34375,15.625
1771540075.3680937,6.34765625,23.4375,141.6015625,26.85546875,15.625
1771540075.370125,8.7890625,21.97265625,132.32421875,28.3203125,15.13671875
1771540075.3740313,0.48828125,21.97265625,116.2109375,22.94921875,51.7578125
1771540075.3779376,-5.37109375,19.53125,121.09375,20.01953125,24.90234375
1771540075.3818438,4.39453125,19.04296875,134.765625,36.1328125,19.04296875
1771540075.38575,-0.9765625,17.578125,131.34765625,31.25,21.484375
1771540075.3896563,3.41796875,18.06640625,140.13671875,25.87890625,69.3359375
1771540075.3935626,8.7890625,20.01953125,169.43359375,29.296875,78.125
1771540075.3974688,-3.41796875,20.99609375,188.4765625,25.390625,7.8125
1771540075.401375,14.16015625,20.5078125,183.59375,35.64453125,20.01953125
1771540075.4052813,15.625,16.6015625,149.90234375,29.296875,35.15625
1771540075.4091876,-2.44140625,21.484375,183.10546875,20.99609375,46.875
1771540075.4130938,8.30078125,26.3671875,218.75,28.3203125,60.05859375
1771540075.415125,10.25390625,25.390625,186.5234375,33.69140625,27.83203125
1771540075.4190311,16.11328125,26.3671875,170.41015625,33.69140625,-15.625
1771540075.4229374,17.08984375,29.78515625,193.84765625,26.85546875,-0.48828125
1771540075.4268436,6.8359375,29.78515625,190.4296875,18.5546875,0.9765625
1771540075.43075,13.671875,27.34375,173.33984375,27.34375,28.3203125
1771540075.4346561,13.671875,26.3671875,176.26953125,50.29296875,43.45703125
1771540075.4385624,19.53125,30.2734375,197.75390625,35.15625,28.3203125
1771540075.4424686,17.578125,34.66796875,222.16796875,14.16015625,55.6640625
1771540075.446375,19.04296875,30.76171875,181.15234375,29.78515625,28.80859375
1771540075.4502811,28.80859375,30.76171875,170.41015625,31.73828125,-2.44140625
1771540075.4541874,19.04296875,35.15625,238.28125,17.08984375,54.19921875
1771540075.4580936,10.25390625,35.64453125,226.5625,28.80859375,51.7578125
1771540075.460125,6.8359375,33.69140625,200.1953125,25.390625,12.20703125
1771540075.4640312,7.32421875,31.25,202.1484375,13.18359375,65.4296875
1771540075.4679375,8.30078125,33.203125,194.3359375,26.3671875,41.50390625
1771540075.4718437,13.18359375,35.15625,198.73046875,39.0625,53.7109375
1771540075.47575,19.04296875,35.15625,187.01171875,33.203125,76.171875
1771540075.4796562,17.08984375,33.69140625,167.96875,34.66796875,16.11328125
1771540075.4835625,15.625,35.15625,181.640625,36.1328125,61.5234375
1771540075.4874687,21.97265625,35.64453125,180.6640625,31.73828125,89.84375
1771540075.491375,20.5078125,31.73828125,131.8359375,33.69140625,9.27734375
1771540075.4952812,5.859375,29.296875,150.390625,24.4140625,-48.828125
1771540075.4991875,0.0,31.25,210.9375,22.4609375,-19.53125
1771540075.5030937,6.8359375,29.296875,188.4765625,30.76171875,5.859375
1771540075.504125,-14.16015625,27.83203125,190.91796875,29.78515625,-5.859375
1771540075.5080314,-5.859375,28.3203125,220.21484375,31.25,5.37109375
1771540075.5119376,25.390625,27.83203125,204.58984375,34.1796875,9.27734375
1771540075.5158439,23.92578125,24.90234375,174.8046875,38.0859375,33.203125
1771540075.51975,19.53125,23.4375,167.48046875,40.0390625,59.5703125
1771540075.5236564,10.7421875,23.4375,150.390625,34.1796875,-2.9296875
1771540075.5275626,15.625,25.87890625,171.38671875,31.73828125,11.71875
1771540075.5314689,31.73828125,25.87890625,149.90234375,29.296875,50.78125
1771540075.535375,27.34375,24.4140625,99.12109375,22.4609375,-3.90625
1771540075.5392814,14.6484375,28.80859375,157.2265625,26.3671875,-19.04296875
1771540075.5431876,27.83203125,32.2265625,186.03515625,28.80859375,5.37109375
1771540075.5470939,27.34375,31.73828125,171.875,27.83203125,3.90625
1771540075.550125,3.90625,34.1796875,182.12890625,29.78515625,2.9296875
1771540075.5540311,5.37109375,37.59765625,199.70703125,30.2734375,35.64453125
1771540075.5579374,19.53125,31.25,206.54296875,39.55078125,30.76171875
1771540075.5618436,1.46484375,25.390625,200.1953125,26.3671875,23.92578125
1771540075.56575,-1.953125,22.94921875,191.89453125,23.92578125,29.296875
1771540075.5696561,9.27734375,22.94921875,163.57421875,31.25,20.5078125
1771540075.5735624,5.37109375,25.390625,149.90234375,32.2265625,33.203125
1771540075.5774686,16.11328125,18.5546875,138.18359375,34.1796875,59.5703125
1771540075.581375,-3.90625,16.11328125,154.296875,26.3671875,77.63671875
1771540075.5852811,-19.04296875,17.578125,165.52734375,22.94921875,41.50390625
1771540075.5891874,-1.46484375,15.625,124.51171875,26.85546875,19.53125
1771540075.5930936,8.7890625,15.13671875,119.62890625,31.73828125,33.203125
1771540075.595125,8.7890625,14.6484375,143.06640625,32.2265625,26.3671875
1771540075.5990312,0.0,11.71875,150.390625,45.8984375,42.96875
1771540075.6029375,1.953125,11.71875,130.37109375,41.50390625,62.01171875
1771540075.6068437,19.04296875,12.20703125,134.765625,20.5078125,24.4140625
1771540075.61075,9.27734375,12.20703125,162.59765625,35.15625,13.671875
1771540075.6146562,-5.37109375,12.20703125,149.4140625,46.38671875,29.78515625
1771540075.6185625,1.46484375,12.20703125,120.60546875,44.43359375,52.734375
1771540075.6224687,7.32421875,13.18359375,136.71875,30.2734375,74.70703125
1771540075.626375,7.8125,17.578125,181.15234375,14.6484375,45.41015625
1771540075.6302812,3.90625,19.04296875,166.9921875,26.85546875,17.578125
1771540075.6341875,2.44140625,21.484375,153.3203125,26.85546875,58.59375
1771540075.6380937,18.06640625,22.94921875,151.85546875,20.5078125,34.66796875
1771540075.640125,24.90234375,25.390625,147.94921875,18.06640625,40.52734375
1771540075.6440313,5.859375,27.83203125,137.20703125,23.4375,70.80078125
1771540075.6479375,-7.8125,26.3671875,119.140625,26.85546875,4.8828125
1771540075.6518438,4.39453125,32.2265625,130.859375,30.2734375,-1.46484375
1771540075.65575,16.11328125,32.2265625,156.25,45.8984375,37.59765625
1771540075.6596563,15.13671875,25.390625,124.0234375,48.828125,24.90234375
1771540075.6635625,13.18359375,26.85546875,113.76953125,38.0859375,0.0
1771540075.6674688,3.41796875,29.296875,164.0625,37.109375,37.109375
1771540075.671375,14.6484375,29.78515625,181.640625,35.64453125,96.19140625
1771540075.6752813,14.16015625,25.390625,118.1640625,35.15625,48.828125
1771540075.6791875,-3.41796875,22.94921875,72.75390625,35.64453125,-35.15625
1771540075.6830938,-6.8359375,26.3671875,107.91015625,20.5078125,35.64453125
1771540075.699125,5.37109375,26.85546875,101.5625,29.78515625,12.20703125
1771540075.7030313,-3.41796875,23.92578125,77.1484375,39.0625,-11.23046875
1771540075.7069376,-6.8359375,22.94921875,78.125,28.3203125,28.3203125
1771540075.7108438,6.8359375,25.390625,90.33203125,26.85546875,38.57421875
1771540075.71475,7.32421875,27.34375,115.234375,35.64453125,48.828125
1771540075.7186563,18.06640625,25.390625,102.05078125,53.22265625,55.6640625
1771540075.7225626,25.390625,26.3671875,70.80078125,33.203125,84.47265625
1771540075.7264688,10.7421875,30.76171875,128.90625,14.16015625,99.12109375
1771540075.730375,13.18359375,30.76171875,154.296875,30.2734375,66.89453125
1771540075.7342813,27.34375,29.78515625,127.9296875,42.96875,2.9296875
1771540075.7381876,16.6015625,29.296875,119.140625,42.96875,9.27734375
1771540075.7420938,10.7421875,26.85546875,104.98046875,30.2734375,-18.5546875
1771540075.744125,5.859375,24.90234375,102.5390625,20.99609375,-16.11328125
1771540075.7480311,16.11328125,24.90234375,115.234375,34.1796875,-8.30078125
1771540075.7519374,19.53125,28.3203125,126.46484375,33.69140625,6.8359375
1771540075.7558436,5.37109375,31.73828125,115.234375,30.2734375,28.80859375
1771540075.75975,9.765625,32.2265625,94.23828125,31.25,19.53125
1771540075.7636561,18.06640625,34.66796875,84.47265625,27.83203125,70.3125
1771540075.7675624,10.25390625,31.73828125,83.0078125,33.69140625,85.44921875
1771540075.7714686,-7.8125,26.85546875,94.7265625,34.1796875,41.50390625
1771540075.775375,-5.859375,27.34375,88.8671875,36.62109375,37.109375
1771540075.7792811,6.8359375,24.90234375,69.3359375,31.25,56.640625
1771540075.7831874,8.7890625,24.4140625,90.33203125,26.85546875,13.18359375
1771540075.7870936,7.8125,27.34375,115.72265625,39.0625,-19.53125
1771540075.789125,9.765625,25.87890625,106.93359375,38.57421875,-8.7890625
1771540075.7930312,19.04296875,25.390625,78.61328125,31.73828125,8.30078125
1771540075.7969375,25.390625,29.296875,129.8828125,32.71484375,17.578125
1771540075.8008437,4.39453125,28.3203125,154.78515625,41.015625,38.0859375
1771540075.80475,-15.13671875,23.92578125,115.234375,28.80859375,27.83203125
1771540075.8086562,-20.99609375,22.94921875,100.5859375,7.8125,21.97265625
1771540075.8125625,-7.32421875,28.3203125,126.46484375,8.30078125,55.17578125
1771540075.8164687,5.37109375,29.296875,140.13671875,22.4609375,87.40234375
1771540075.820375,13.18359375,26.3671875,78.125,36.1328125,87.40234375
1771540075.8242812,23.92578125,26.85546875,38.57421875,37.109375,7.32421875
1771540075.8281875,34.66796875,30.2734375,107.91015625,32.71484375,-24.90234375
1771540075.8320937,28.80859375,36.1328125,128.41796875,33.203125,42.96875
1771540075.834125,23.92578125,39.55078125,96.6796875,35.15625,41.015625
1771540075.8380313,27.83203125,36.1328125,104.00390625,41.50390625,64.94140625
1771540075.8419375,18.5546875,32.71484375,101.07421875,39.55078125,68.84765625
1771540075.8458438,38.57421875,32.71484375,87.40234375,59.08203125,27.83203125
1771540075.84975,41.015625,27.83203125,76.171875,68.84765625,37.109375
1771540075.8536563,31.73828125,22.4609375,63.96484375,42.48046875,12.20703125
1771540075.8575625,30.76171875,24.90234375,77.63671875,46.875,-18.06640625
1771540075.8614688,32.71484375,30.2734375,97.16796875,53.7109375,8.30078125
1771540075.865375,24.4140625,30.2734375,64.453125,39.0625,38.57421875
1771540075.8692813,22.94921875,31.73828125,88.37890625,30.76171875,-2.44140625
1771540075.8731875,22.94921875,33.69140625,133.7890625,24.90234375,-45.41015625
1771540075.8770938,27.34375,34.1796875,126.46484375,44.921875,25.390625
1771540075.879125,35.64453125,33.69140625,107.421875,58.10546875,43.9453125
1771540075.8830314,13.18359375,35.64453125,108.3984375,43.9453125,-16.11328125
1771540075.8869376,12.20703125,36.62109375,104.98046875,34.66796875,-9.765625
1771540075.8908439,25.87890625,32.71484375,88.8671875,30.76171875,6.8359375
1771540075.89475,31.73828125,33.69140625,83.0078125,44.43359375,-12.6953125
1771540075.8986564,30.76171875,33.69140625,83.0078125,50.78125,32.2265625
1771540075.9025626,11.71875,35.15625,95.21484375,50.29296875,69.3359375
1771540075.9064689,33.69140625,33.69140625,85.44921875,45.8984375,96.6796875
1771540075.910375,57.6171875,30.2734375,79.1015625,42.96875,87.40234375
1771540075.9142814,18.5546875,30.76171875,120.60546875,51.7578125,12.20703125
1771540075.9181876,2.44140625,29.78515625,114.74609375,42.96875,-1.953125
1771540075.9220939,3.90625,28.80859375,103.02734375,41.50390625,17.578125
1771540075.925125,32.71484375,28.80859375,102.5390625,50.29296875,23.4375
1771540075.9290311,24.90234375,27.83203125,109.375,54.6875,54.19921875
1771540075.9329374,13.671875,27.83203125,114.2578125,63.4765625,69.3359375
1771540075.9368436,18.06640625,28.3203125,91.796875,54.19921875,48.33984375
1771540075.94075,20.01953125,26.85546875,103.515625,45.41015625,22.4609375
1771540075.9446561,32.2265625,23.4375,98.6328125,47.36328125,-16.6015625
1771540075.9485624,20.01953125,25.390625,92.7734375,38.0859375,13.671875
1771540075.9524686,14.16015625,26.3671875,73.73046875,30.2734375,44.43359375
1771540075.956375,19.04296875,28.80859375,105.46875,31.25,31.25
1771540075.9602811,21.97265625,30.2734375,147.94921875,39.0625,18.06640625
1771540075.9641874,25.390625,30.76171875,117.1875,27.83203125,23.4375
1771540075.9680936,25.390625,33.69140625,112.79296875,35.15625,21.484375
1771540075.970125,15.13671875,32.71484375,142.578125,41.9921875,69.82421875
1771540075.9740312,13.671875,31.73828125,135.25390625,21.97265625,95.21484375
1771540075.9779375,20.01953125,31.25,88.8671875,21.97265625,33.69140625
1771540075.9818437,10.25390625,32.2265625,86.42578125,38.0859375,20.99609375
1771540075.98575,9.27734375,32.71484375,111.81640625,36.1328125,43.45703125
1771540075.9896562,26.3671875,31.25,109.375,46.38671875,22.94921875
1771540075.9935625,29.296875,30.2734375,83.984375,38.0859375,18.5546875
1771540075.9974687,26.85546875,31.25,53.7109375,20.01953125,14.6484375
1771540076.001375,13.18359375,33.69140625,98.14453125,19.53125,16.6015625
1771540076.0052812,16.11328125,38.0859375,114.74609375,25.390625,34.66796875
1771540076.0091875,34.66796875,36.62109375,84.9609375,34.1796875,53.22265625
1771540076.0130937,27.83203125,32.2265625,68.359375,44.43359375,39.0625
1771540076.015125,10.7421875,31.73828125,64.453125,35.15625,20.99609375
1771540076.0190313,0.9765625,29.296875,71.77734375,28.3203125,45.41015625
1771540076.0229375,1.46484375,28.3203125,82.03125,45.8984375,51.7578125
1771540076.0268438,-6.8359375,30.76171875,93.26171875,45.41015625,-6.8359375
1771540076.03075,0.48828125,31.25,104.98046875,41.015625,9.27734375
1771540076.0346563,10.7421875,27.34375,103.02734375,26.85546875,52.734375
1771540076.0385625,14.16015625,25.390625,77.63671875,18.06640625,54.6875
1771540076.0424688,25.390625,29.296875,94.23828125,20.99609375,37.59765625
1771540076.046375,3.90625,34.1796875,144.04296875,37.109375,-14.6484375
1771540076.0502813,-9.765625,32.71484375,125.0,40.52734375,27.83203125
1771540076.0541875,9.27734375,32.2265625,116.69921875,14.6484375,62.98828125
1771540076.0580938,15.625,35.64453125,132.32421875,20.01953125,29.296875
1771540076.075125,12.20703125,34.66796875,127.9296875,24.4140625,67.3828125
1771540076.0790312,12.20703125,30.2734375,104.00390625,26.85546875,63.96484375
1771540076.0829375,16.11328125,33.69140625,111.328125,33.203125,31.25
1771540076.0868437,9.765625,36.62109375,144.04296875,24.90234375,61.03515625
1771540076.09075,14.6484375,38.57421875,129.8828125,28.80859375,78.61328125
1771540076.0946562,29.296875,37.59765625,69.82421875,45.8984375,42.48046875
1771540076.0985625,20.99609375,31.73828125,76.66015625,39.55078125,-6.8359375
1771540076.1024687,16.11328125,34.1796875,135.25390625,34.66796875,5.859375
1771540076.106375,25.87890625,39.55078125,111.81640625,41.015625,8.7890625
1771540076.1102812,27.34375,46.38671875,89.84375,21.484375,-5.37109375
1771540076.1141875,7.32421875,46.875,108.88671875,21.97265625,14.6484375
1771540076.1180937,21.484375,41.50390625,123.046875,34.66796875,6.34765625
1771540076.119125,27.83203125,40.0390625,104.4921875,53.22265625,-40.0390625
1771540076.1230311,24.90234375,39.0625,117.67578125,49.31640625,0.48828125
1771540076.1269374,28.80859375,35.64453125,141.6015625,28.80859375,26.85546875
1771540076.1308436,16.6015625,31.73828125,149.4140625,24.90234375,-12.20703125
1771540076.13475,21.97265625,31.73828125,144.53125,30.76171875,13.671875
1771540076.1386561,25.390625,32.71484375,122.55859375,38.0859375,40.0390625
1771540076.1425624,20.99609375,30.2734375,117.1875,43.9453125,-8.7890625
1771540076.1464686,27.34375,33.69140625,144.53125,43.9453125,-38.57421875
1771540076.150375,34.66796875,37.59765625,147.4609375,40.0390625,-22.4609375
1771540076.1542811,37.59765625,37.109375,101.07421875,43.45703125,44.921875
1771540076.1581874,23.4375,37.109375,137.6953125,35.64453125,64.94140625
1771540076.1620936,7.8125,37.109375,212.40234375,24.90234375,49.31640625
1771540076.164125,20.99609375,34.1796875,180.17578125,31.25,43.45703125
1771540076.1680312,25.390625,31.25,148.92578125,29.296875,81.54296875
1771540076.1719375,20.5078125,29.78515625,165.52734375,24.90234375,52.24609375
1771540076.1758437,5.37109375,27.83203125,155.2734375,31.25,-3.41796875
1771540076.17975,4.8828125,27.34375,135.25390625,31.73828125,56.640625
1771540076.1836562,36.62109375,27.34375,100.09765625,30.76171875,25.87890625
1771540076.1875625,25.390625,27.83203125,99.12109375,32.2265625,-13.671875
1771540076.1914687,5.37109375,28.80859375,121.58203125,27.83203125,37.59765625
1771540076.195375,22.4609375,27.34375,81.54296875,20.99609375,12.20703125
1771540076.1992812,21.97265625,27.83203125,82.51953125,13.18359375,-0.9765625
1771540076.2031875,4.8828125,31.73828125,156.25,15.13671875,-13.18359375
1771540076.2070937,12.20703125,30.2734375,176.26953125,25.87890625,-22.4609375
1771540076.209125,21.97265625,25.390625,187.01171875,25.87890625,-43.45703125
1771540076.2130313,23.4375,25.87890625,230.46875,23.4375,-16.11328125
1771540076.2169375,18.5546875,27.83203125,254.39453125,20.01953125,77.63671875
1771540076.2208438,13.671875,25.390625,226.5625,24.4140625,94.7265625
1771540076.22475,10.7421875,22.4609375,189.94140625,31.73828125,58.10546875
1771540076.2286563,22.94921875,22.94921875,206.0546875,17.578125,50.29296875
1771540076.2325625,28.80859375,24.4140625,220.21484375,21.97265625,43.9453125
1771540076.2364688,27.34375,24.90234375,202.1484375,30.2734375,-17.08984375
1771540076.240375,9.765625,22.4609375,177.734375,17.578125,23.92578125
1771540076.2442813,4.8828125,24.4140625,231.4453125,20.01953125,83.984375
1771540076.2481875,20.99609375,28.3203125,245.60546875,29.296875,4.39453125
1771540076.2520938,16.6015625,26.3671875,196.77734375,29.78515625,31.73828125
1771540076.254125,3.41796875,28.80859375,218.75,16.11328125,38.57421875
1771540076.2580314,13.18359375,29.296875,306.640625,25.390625,8.7890625
1771540076.2619376,24.90234375,24.4140625,357.91015625,40.0390625,9.27734375
1771540076.2658439,23.92578125,23.92578125,352.05078125,25.87890625,4.39453125
1771540076.26975,13.671875,25.87890625,402.34375,18.06640625,49.8046875
1771540076.2736564,15.625,26.3671875,447.75390625,22.4609375,35.64453125
1771540076.2775626,28.3203125,28.3203125,484.375,32.71484375,35.15625
1771540076.2814689,16.11328125,27.34375,457.51953125,39.55078125,39.55078125
1771540076.285375,27.34375,23.92578125,415.0390625,33.203125,70.80078125
1771540076.2892814,34.1796875,26.85546875,474.12109375,31.25,88.8671875
1771540076.2931876,24.90234375,28.80859375,470.21484375,40.52734375,53.7109375
1771540076.2970939,26.3671875,28.3203125,413.57421875,35.15625,5.859375
1771540076.299125,13.671875,27.34375,387.20703125,25.87890625,-3.90625
1771540076.3030312,4.39453125,25.390625,408.69140625,36.1328125,-29.296875
1771540076.3069375,7.8125,27.83203125,423.33984375,47.36328125,-1.46484375
1771540076.3108437,15.625,26.85546875,401.85546875,49.31640625,28.3203125
1771540076.31475,15.13671875,24.90234375,398.92578125,41.50390625,24.4140625
1771540076.3186562,14.16015625,27.34375,369.62890625,33.69140625,60.546875
1771540076.3225625,23.92578125,28.3203125,370.60546875,30.76171875,29.296875
1771540076.3264687,34.1796875,26.3671875,353.515625,39.0625,-12.6953125
1771540076.330375,30.76171875,29.78515625,343.26171875,36.1328125,33.69140625
1771540076.3342812,21.484375,36.62109375,365.234375,21.97265625,49.31640625
1771540076.3381875,29.296875,35.15625,298.828125,25.87890625,12.6953125
1771540076.3420937,36.1328125,33.69140625,256.34765625,33.69140625,-18.5546875
1771540076.344125,17.578125,34.66796875,247.0703125,37.109375,7.8125
1771540076.3480313,11.23046875,33.69140625,237.3046875,42.96875,4.39453125
1771540076.3519375,18.06640625,30.76171875,220.703125,38.0859375,59.5703125
1771540076.3558438,27.83203125,32.2265625,228.515625,40.0390625,71.2890625
1771540076.35975,25.390625,33.69140625,249.0234375,32.2265625,51.7578125
1771540076.3636563,17.578125,28.80859375,226.5625,25.87890625,62.98828125
1771540076.3675625,15.625,25.390625,194.3359375,36.62109375,39.55078125
1771540076.3714688,30.2734375,24.90234375,223.6328125,39.0625,55.17578125
1771540076.375375,35.64453125,30.76171875,298.33984375,29.78515625,40.0390625
1771540076.3792813,33.69140625,30.76171875,314.94140625,33.69140625,-19.04296875
1771540076.3831875,33.203125,27.83203125,289.55078125,47.36328125,-10.25390625
1771540076.3870938,31.25,30.2734375,284.1796875,34.1796875,37.59765625
1771540076.389125,29.78515625,29.296875,309.5703125,32.2265625,87.40234375
1771540076.3930314,34.1796875,28.3203125,310.05859375,43.45703125,69.82421875
1771540076.3969376,33.69140625,28.3203125,278.3203125,38.0859375,18.5546875
1771540076.4008439,20.99609375,27.83203125,260.7421875,40.0390625,19.53125
1771540076.40475,26.85546875,29.296875,271.484375,44.921875,69.3359375
1771540076.4086564,29.296875,25.390625,247.0703125,47.8515625,64.453125
1771540076.4125626,28.80859375,20.01953125,199.21875,36.1328125,27.34375
1771540076.4164689,16.11328125,24.90234375,227.05078125,36.62109375,43.45703125
1771540076.420375,12.6953125,27.34375,277.83203125,48.828125,63.4765625
1771540076.4242814,29.78515625,22.4609375,224.609375,41.015625,48.828125
1771540076.4281876,21.484375,20.99609375,218.75,22.4609375,-6.8359375
1771540076.4320939,5.37109375,22.94921875,300.78125,20.99609375,18.5546875
1771540076.449125,16.11328125,21.484375,308.10546875,32.2265625,44.921875
1771540076.4530313,31.25,22.4609375,270.99609375,34.66796875,75.68359375
1771540076.4569376,30.2734375,26.85546875,247.55859375,32.2265625,36.1328125
1771540076.4608438,22.4609375,26.85546875,243.65234375,31.25,-6.8359375
1771540076.46475,16.6015625,25.390625,232.421875,41.015625,4.39453125
1771540076.4686563,33.203125,28.80859375,185.05859375,39.0625,33.69140625
1771540076.4725626,38.0859375,31.73828125,146.484375,21.97265625,36.62109375
1771540076.4764688,21.97265625,34.1796875,208.49609375,22.94921875,16.6015625
1771540076.480375,16.11328125,31.73828125,225.09765625,31.73828125,67.87109375
1771540076.4842813,27.83203125,28.80859375,178.7109375,32.71484375,7.8125
1771540076.4881876,28.80859375,29.78515625,184.08203125,34.66796875,2.44140625
1771540076.4920938,24.90234375,30.76171875,197.75390625,33.203125,49.8046875
1771540076.495125,29.78515625,31.73828125,167.96875,39.0625,12.20703125
1771540076.4990313,32.2265625,32.2265625,141.6015625,46.875,22.94921875
1771540076.5029376,27.34375,33.203125,122.55859375,40.0390625,28.3203125
1771540076.5068438,31.25,35.15625,104.4921875,38.0859375,2.44140625
1771540076.51075,24.90234375,35.64453125,106.93359375,38.57421875,51.26953125
1771540076.5146563,20.5078125,34.1796875,114.74609375,43.9453125,35.15625
1771540076.5185626,30.2734375,34.66796875,136.71875,50.78125,7.32421875
1771540076.5224688,25.390625,36.62109375,182.6171875,42.48046875,35.15625
1771540076.526375,25.390625,39.0625,173.33984375,37.109375,59.08203125
1771540076.5302813,36.1328125,37.59765625,85.44921875,33.69140625,45.8984375
1771540076.5341876,27.83203125,37.109375,114.74609375,29.296875,-8.30078125
1771540076.5380938,25.87890625,40.0390625,175.78125,35.64453125,7.32421875
1771540076.539125,42.96875,36.62109375,114.74609375,49.31640625,-24.4140625
1771540076.5430312,36.62109375,37.109375,118.1640625,33.203125,4.39453125
1771540076.5469375,27.83203125,40.0390625,147.94921875,23.4375,81.54296875
1771540076.5508437,40.0390625,37.59765625,142.578125,47.36328125,47.36328125
1771540076.55475,34.1796875,30.2734375,128.41796875,45.8984375,3.41796875
1771540076.5586562,9.765625,25.87890625,145.5078125,16.11328125,-15.625
1771540076.5625625,13.671875,31.73828125,229.98046875,13.18359375,-27.34375
1771540076.5664687,21.97265625,34.66796875,263.18359375,28.80859375,2.9296875
1771540076.570375,17.08984375,29.296875,149.4140625,26.3671875,20.01953125
1771540076.5742812,-0.9765625,26.85546875,79.58984375,7.8125,40.52734375
1771540076.5781875,-14.6484375,27.83203125,140.625,3.90625,63.4765625
1771540076.5820937,-5.859375,24.4140625,114.74609375,6.34765625,22.4609375
1771540076.585125,-7.8125,22.4609375,81.0546875,1.953125,2.9296875
1771540076.5890312,-7.8125,24.90234375,92.7734375,9.765625,-11.71875
1771540076.5929375,-3.90625,26.3671875,110.3515625,10.25390625,13.18359375
1771540076.5968437,-4.8828125,24.4140625,88.37890625,14.16015625,33.69140625
1771540076.60075,3.90625,24.90234375,41.9921875,19.04296875,18.5546875
1771540076.6046562,11.71875,23.4375,42.48046875,17.08984375,23.4375
1771540076.6085625,9.27734375,23.4375,60.05859375,9.27734375,43.45703125
1771540076.6124687,15.13671875,24.4140625,43.45703125,9.765625,16.11328125
1771540076.616375,15.625,25.87890625,32.2265625,20.01953125,13.671875
1771540076.6202812,11.71875,27.83203125,53.7109375,23.92578125,44.43359375
1771540076.6241875,10.7421875,27.83203125,35.15625,16.6015625,20.99609375
1771540076.6280937,11.71875,28.3203125,-41.50390625,17.578125,18.5546875
1771540076.629125,22.94921875,25.87890625,-139.16015625,35.15625,62.5
1771540076.6330314,22.94921875,28.80859375,-78.125,34.1796875,62.98828125
1771540076.6369376,21.484375,31.25,29.78515625,23.4375,2.9296875
1771540076.6408439,22.4609375,30.2734375,23.4375,18.06640625,-27.34375
1771540076.64475,12.6953125,30.2734375,37.109375,21.97265625,8.30078125
1771540076.6486564,20.99609375,30.2734375,46.38671875,26.85546875,10.7421875
1771540076.6525626,26.85546875,35.15625,66.40625,26.3671875,5.859375
1771540076.6564689,20.99609375,31.73828125,73.73046875,26.3671875,11.71875
1771540076.660375,27.83203125,27.83203125,68.359375,41.015625,-9.27734375
1771540076.6642814,20.99609375,31.73828125,174.31640625,43.9453125,50.29296875
1771540076.6681876,14.16015625,32.2265625,202.63671875,32.2265625,64.94140625
1771540076.6720939,15.13671875,29.296875,178.22265625,25.87890625,8.7890625
1771540076.674125,17.08984375,27.83203125,207.51953125,22.94921875,20.01953125
1771540076.6780312,24.90234375,27.34375,193.359375,27.83203125,9.27734375
1771540076.6819375,31.73828125,29.296875,173.828125,30.2734375,42.96875
1771540076.6858437,20.99609375,32.71484375,165.0390625,29.78515625,54.19921875
1771540076.68975,23.92578125,30.76171875,167.48046875,20.99609375,47.8515625
1771540076.6936562,34.1796875,27.83203125,138.18359375,17.08984375,53.22265625
1771540076.6975625,34.66796875,31.73828125,112.79296875,18.5546875,13.18359375
1771540076.7014687,30.2734375,30.2734375,56.15234375,22.4609375,26.85546875
1771540076.705375,22.94921875,29.296875,72.75390625,18.06640625,29.296875
1771540076.7092812,31.25,31.73828125,124.0234375,31.73828125,-3.41796875
1771540076.7131875,32.2265625,28.80859375,74.70703125,41.015625,0.0
1771540076.7170937,18.06640625,26.3671875,63.4765625,45.8984375,21.97265625
1771540076.720125,14.16015625,27.34375,67.3828125,39.55078125,4.8828125
1771540076.7240312,28.80859375,29.296875,62.98828125,30.76171875,-27.34375
1771540076.7279375,39.0625,28.3203125,48.828125,36.62109375,15.625
1771540076.7318437,33.203125,23.92578125,88.37890625,26.3671875,32.71484375
1771540076.73575,23.4375,24.90234375,145.99609375,20.99609375,-17.08984375
1771540076.7396562,27.83203125,29.296875,153.80859375,40.52734375,8.7890625
1771540076.7435625,33.69140625,26.3671875,114.2578125,41.50390625,20.5078125
1771540076.7474687,32.71484375,25.390625,134.765625,23.4375,29.78515625
1771540076.751375,25.87890625,29.78515625,220.21484375,29.78515625,-0.9765625
1771540076.7552812,29.78515625,28.3203125,229.00390625,33.203125,-23.92578125
1771540076.7591875,42.96875,26.85546875,217.28515625,29.296875,79.1015625
1771540076.7630937,48.828125,29.296875,165.0390625,33.203125,93.75
1771540076.765125,34.66796875,30.76171875,119.140625,37.109375,28.80859375
1771540076.7690313,26.85546875,34.66796875,104.98046875,37.109375,35.15625
1771540076.7729375,32.71484375,35.64453125,84.47265625,38.57421875,53.22265625
1771540076.7768438,34.66796875,37.109375,116.2109375,37.59765625,26.85546875
1771540076.78075,45.8984375,43.9453125,142.08984375,37.59765625,41.9921875
1771540076.7846563,49.8046875,41.50390625,107.421875,38.57421875,44.921875
1771540076.7885625,38.0859375,31.25,76.66015625,30.76171875,11.23046875
1771540076.7924688,28.3203125,28.3203125,130.859375,38.0859375,33.203125
1771540076.796375,32.2265625,31.25,206.0546875,53.22265625,59.5703125
1771540076.8002813,37.59765625,32.2265625,136.23046875,55.6640625,86.42578125
1771540076.8041875,35.15625,32.2265625,92.7734375,51.26953125,37.59765625
1771540076.8080938,40.0390625,31.73828125,129.8828125,49.31640625,-25.87890625
1771540076.825125,45.41015625,29.78515625,148.92578125,46.38671875,12.20703125
1771540076.8290312,33.69140625,27.83203125,106.4453125,49.8046875,57.12890625
1771540076.8329375,45.41015625,27.34375,34.66796875,51.7578125,68.359375
1771540076.8368437,56.640625,23.92578125,46.875,43.45703125,68.359375
1771540076.84075,42.48046875,27.34375,101.5625,49.8046875,55.17578125
1771540076.8446562,43.9453125,27.83203125,84.9609375,59.08203125,56.640625
1771540076.8485625,36.62109375,20.01953125,75.1953125,50.29296875,86.9140625
1771540076.8524687,41.9921875,24.90234375,187.98828125,52.24609375,73.73046875
1771540076.856375,44.921875,28.3203125,260.25390625,65.91796875,24.90234375
1771540076.8602812,38.0859375,26.85546875,278.3203125,57.12890625,14.6484375
1771540076.8641875,31.25,28.80859375,310.546875,25.87890625,45.8984375
1771540076.8680937,33.203125,28.3203125,333.49609375,24.4140625,33.69140625
1771540076.869125,50.78125,27.34375,362.79296875,39.55078125,30.76171875
1771540076.8730311,49.8046875,27.34375,395.01953125,38.0859375,38.57421875
1771540076.8769374,31.25,28.80859375,408.69140625,34.66796875,35.64453125
1771540076.8808436,32.71484375,31.25,404.296875,36.1328125,61.5234375
1771540076.88475,35.15625,28.80859375,365.234375,42.96875,4.8828125
1771540076.8886561,41.015625,28.3203125,336.9140625,40.52734375,25.87890625
1771540076.8925624,42.48046875,28.80859375,384.27734375,34.66796875,86.9140625
1771540076.8964686,41.9921875,26.85546875,457.03125,41.9921875,26.85546875
1771540076.900375,46.38671875,28.80859375,492.67578125,56.640625,38.0859375
1771540076.9042811,42.96875,27.34375,430.17578125,55.17578125,55.6640625
1771540076.9081874,24.4140625,28.3203125,527.34375,51.26953125,63.4765625
1771540076.9120936,10.7421875,27.34375,664.55078125,40.0390625,43.45703125
1771540076.914125,25.390625,23.4375,658.69140625,36.62109375,16.6015625
1771540076.9180312,42.48046875,24.90234375,683.10546875,49.31640625,18.5546875
1771540076.9219375,24.90234375,24.90234375,758.30078125,41.50390625,50.29296875
1771540076.9258437,8.30078125,21.97265625,783.203125,43.45703125,30.76171875
1771540076.92975,37.109375,21.97265625,776.3671875,52.24609375,-1.953125
1771540076.9336562,49.8046875,21.484375,760.25390625,48.828125,-32.2265625
1771540076.9375625,37.59765625,22.4609375,784.66796875,35.15625,-18.06640625
1771540076.9414687,21.97265625,24.4140625,826.171875,23.92578125,40.52734375
1771540076.945375,26.3671875,21.484375,808.10546875,26.3671875,11.23046875
1771540076.9492812,41.9921875,20.5078125,822.265625,32.2265625,-13.671875
1771540076.9531875,32.2265625,25.390625,946.2890625,28.80859375,-18.06640625
1771540076.9570937,17.578125,27.34375,976.5625,28.3203125,91.30859375
1771540076.959125,18.06640625,24.90234375,911.1328125,32.2265625,107.91015625
1771540076.9630313,28.3203125,23.4375,869.140625,35.64453125,40.0390625
1771540076.9669375,32.2265625,26.3671875,846.19140625,39.0625,54.19921875
1771540076.9708438,42.48046875,29.296875,836.42578125,36.1328125,55.17578125
1771540076.97475,47.8515625,27.34375,823.73046875,22.94921875,30.2734375
1771540076.9786563,25.390625,29.296875,821.77734375,25.390625,29.78515625
1771540076.9825625,19.04296875,29.78515625,819.3359375,36.62109375,25.87890625
1771540076.9864688,30.76171875,29.296875,839.35546875,36.1328125,-21.484375
1771540076.990375,31.25,29.296875,801.7578125,25.87890625,36.62109375
1771540076.9942813,37.59765625,28.3203125,750.9765625,26.3671875,0.48828125
1771540076.9981875,38.0859375,31.73828125,740.72265625,25.87890625,-27.34375
1771540077.0020938,27.34375,28.3203125,682.6171875,29.296875,-11.71875
1771540077.004125,19.53125,23.92578125,688.96484375,39.55078125,-0.48828125
1771540077.0080314,20.99609375,28.3203125,718.26171875,35.64453125,41.50390625
1771540077.0119376,37.59765625,30.2734375,679.19921875,29.296875,47.8515625
1771540077.0158439,41.50390625,27.83203125,671.875,36.62109375,54.19921875
1771540077.01975,37.109375,27.34375,630.859375,43.9453125,29.78515625
1771540077.0236564,39.55078125,26.85546875,492.1875,40.52734375,6.34765625
1771540077.0275626,55.6640625,27.83203125,474.609375,40.0390625,49.8046875
1771540077.0314689,53.7109375,25.87890625,499.0234375,41.50390625,58.10546875
1771540077.035375,32.2265625,22.4609375,519.04296875,43.9453125,46.875
1771540077.0392814,26.3671875,25.390625,660.64453125,38.57421875,71.77734375
1771540077.0431876,40.0390625,25.87890625,649.90234375,39.0625,81.0546875
1771540077.0470939,43.45703125,25.87890625,523.4375,36.1328125,23.92578125
1771540077.050125,40.52734375,26.85546875,471.19140625,29.78515625,-4.8828125
1771540077.0540311,36.62109375,25.390625,505.37109375,31.73828125,33.203125
1771540077.0579374,38.0859375,23.92578125,533.69140625,40.0390625,-3.90625
1771540077.0618436,36.62109375,24.4140625,536.1328125,35.15625,-37.59765625
1771540077.06575,41.50390625,26.85546875,591.796875,27.83203125,41.015625
1771540077.0696561,41.9921875,27.34375,610.83984375,24.90234375,34.1796875
1771540077.0735624,35.15625,28.3203125,609.375,29.296875,-13.671875
1771540077.0774686,33.203125,26.3671875,569.82421875,32.71484375,28.80859375
1771540077.081375,30.2734375,26.85546875,681.640625,20.01953125,14.16015625
1771540077.0852811,29.296875,31.25,850.09765625,27.83203125,32.71484375
1771540077.0891874,32.71484375,28.80859375,744.62890625,36.62109375,-9.27734375
1771540077.0930936,43.45703125,25.87890625,706.0546875,24.4140625,-43.45703125
1771540077.095125,56.15234375,25.390625,749.51171875,25.390625,19.04296875
1771540077.0990312,44.43359375,24.90234375,756.8359375,33.203125,80.56640625
1771540077.1029375,30.2734375,21.97265625,712.40234375,31.25,73.2421875
1771540077.1068437,38.0859375,22.94921875,672.8515625,26.85546875,36.1328125
1771540077.11075,30.2734375,23.92578125,712.890625,27.34375,72.75390625
1771540077.1146562,18.5546875,21.97265625,606.93359375,32.2265625,21.97265625
1771540077.1185625,23.92578125,22.4609375,493.65234375,24.4140625,16.6015625
1771540077.1224687,34.66796875,21.97265625,433.59375,24.90234375,94.23828125
1771540077.126375,38.0859375,24.4140625,491.2109375,29.296875,83.49609375
1771540077.1302812,36.62109375,25.87890625,547.8515625,29.296875,32.71484375
1771540077.1341875,26.3671875,23.4375,454.58984375,36.62109375,-20.99609375
1771540077.1380937,29.78515625,25.390625,395.5078125,37.109375,-8.7890625
1771540077.140125,39.0625,27.34375,407.2265625,35.15625,40.0390625
1771540077.1440313,44.43359375,25.87890625,310.546875,50.29296875,22.94921875
1771540077.1479375,45.41015625,27.83203125,207.51953125,29.296875,7.32421875
1771540077.1518438,33.69140625,27.34375,219.7265625,10.25390625,35.15625
1771540077.15575,39.55078125,23.4375,253.90625,34.66796875,28.3203125
1771540077.1596563,46.38671875,24.4140625,290.0390625,52.24609375,42.96875
1771540077.1635625,40.0390625,22.94921875,323.2421875,51.26953125,59.08203125
1771540077.1674688,36.62109375,24.4140625,442.3828125,33.203125,32.2265625
1771540077.171375,38.0859375,27.34375,530.2734375,31.25,-25.390625
1771540077.1752813,31.73828125,22.4609375,365.234375,39.0625,-37.59765625
1771540077.1791875,26.3671875,20.5078125,260.25390625,46.875,-4.8828125
1771540077.1830938,24.90234375,23.92578125,315.91796875,51.26953125,16.6015625
1771540077.185125,33.69140625,26.85546875,388.18359375,47.36328125,53.7109375
1771540077.1890314,50.78125,25.87890625,369.140625,54.6875,98.6328125
1771540077.1929376,42.96875,22.94921875,359.375,46.38671875,94.7265625
1771540077.1968439,15.625,20.99609375,358.3984375,31.73828125,27.34375
1771540077.20075,6.8359375,22.4609375,314.453125,35.64453125,35.15625
1771540077.2046564,18.06640625,19.53125,175.29296875,30.76171875,66.40625
1771540077.2085626,14.16015625,15.625,61.03515625,26.3671875,26.85546875
1771540077.2124689,-9.27734375,17.08984375,181.640625,11.71875,31.25
1771540077.216375,-14.16015625,19.04296875,281.25,-2.44140625,35.15625
1771540077.2202814,8.30078125,19.53125,225.5859375,5.37109375,-8.30078125
1771540077.2241876,14.6484375,20.99609375,209.9609375,8.7890625,7.32421875
1771540077.2280939,11.23046875,23.92578125,261.23046875,9.27734375,36.62109375
1771540077.244125,8.7890625,22.4609375,216.30859375,5.859375,45.41015625
1771540077.2480311,14.6484375,21.484375,185.546875,5.859375,98.6328125
1771540077.2519374,31.25,21.97265625,167.48046875,14.6484375,82.03125
1771540077.2558436,28.3203125,22.4609375,158.69140625,21.97265625,26.3671875
1771540077.25975,11.71875,23.92578125,184.08203125,24.4140625,47.36328125
1771540077.2636561,28.80859375,22.94921875,212.890625,37.59765625,26.85546875
1771540077.2675624,46.38671875,21.484375,296.875,47.8515625,47.36328125
1771540077.2714686,41.9921875,22.4609375,314.94140625,41.9921875,65.4296875
1771540077.275375,32.71484375,19.53125,274.90234375,58.59375,6.34765625
1771540077.2792811,38.0859375,14.16015625,170.41015625,50.29296875,-24.90234375
1771540077.2831874,42.48046875,16.6015625,245.60546875,18.5546875,5.859375
1771540077.2870936,38.0859375,21.484375,388.18359375,26.3671875,19.53125
1771540077.289125,37.59765625,20.99609375,260.25390625,37.109375,-26.85546875
1771540077.2930312,28.80859375,21.97265625,210.9375,38.57421875,11.71875
1771540077.2969375,33.203125,22.4609375,246.58203125,36.1328125,33.69140625
1771540077.3008437,39.55078125,21.484375,199.21875,38.57421875,23.4375
1771540077.30475,30.76171875,19.53125,117.67578125,41.015625,45.41015625
1771540077.3086562,32.2265625,19.04296875,74.70703125,38.57421875,22.94921875
1771540077.3125625,41.015625,19.53125,161.62109375,42.96875,16.6015625
1771540077.3164687,28.80859375,20.01953125,259.27734375,46.875,21.484375
1771540077.320375,25.87890625,20.5078125,183.10546875,33.203125,25.390625
1771540077.3242812,30.76171875,21.484375,155.2734375,26.85546875,33.203125
1771540077.3281875,22.94921875,23.4375,329.1015625,38.57421875,0.48828125
1771540077.3320937,32.2265625,20.01953125,334.9609375,42.48046875,9.27734375
1771540077.334125,37.109375,20.01953125,260.7421875,22.4609375,50.29296875
1771540077.3380313,22.94921875,25.87890625,292.48046875,13.18359375,2.44140625
1771540077.3419375,16.11328125,26.85546875,302.24609375,14.6484375,-43.45703125
1771540077.3458438,21.484375,22.94921875,289.0625,14.16015625,-33.69140625
1771540077.34975,16.11328125,20.5078125,283.69140625,27.83203125,29.78515625
1771540077.3536563,18.5546875,19.53125,246.58203125,23.4375,56.640625
1771540077.3575625,21.97265625,20.99609375,233.88671875,13.18359375,5.37109375
1771540077.3614688,22.94921875,24.4140625,259.765625,34.1796875,-2.9296875
1771540077.365375,19.53125,21.97265625,140.13671875,24.90234375,37.109375
1771540077.3692813,14.6484375,21.97265625,140.625,17.08984375,21.97265625
1771540077.3731875,13.18359375,27.83203125,233.88671875,26.85546875,-28.80859375
1771540077.3770938,24.90234375,27.83203125,171.38671875,23.4375,-23.92578125
1771540077.380125,37.59765625,26.3671875,165.0390625,41.015625,24.4140625
1771540077.3840313,31.73828125,24.4140625,170.41015625,39.0625,51.26953125
1771540077.3879375,27.34375,24.4140625,160.64453125,27.34375,39.55078125
1771540077.3918438,32.2265625,23.4375,138.18359375,39.55078125,-14.6484375
1771540077.39575,43.45703125,23.92578125,146.97265625,29.78515625,40.52734375
1771540077.3996563,44.43359375,23.92578125,140.13671875,28.3203125,41.50390625
1771540077.4035625,34.66796875,22.4609375,122.55859375,36.62109375,-39.55078125
1771540077.4074688,38.0859375,21.97265625,145.01953125,35.15625,51.26953125
1771540077.411375,38.0859375,21.484375,151.3671875,24.4140625,84.47265625
1771540077.4152813,28.3203125,25.87890625,254.8828125,27.83203125,26.3671875
1771540077.4191875,24.4140625,26.3671875,257.32421875,35.64453125,-18.5546875
1771540077.4230938,18.06640625,24.90234375,233.3984375,25.87890625,0.48828125
1771540077.425125,28.3203125,25.390625,251.46484375,35.64453125,47.36328125
1771540077.4290311,27.34375,24.4140625,214.84375,46.38671875,4.8828125
1771540077.4329374,32.71484375,26.3671875,148.92578125,46.875,3.90625
1771540077.4368436,41.015625,27.83203125,111.328125,41.015625,23.92578125
1771540077.44075,43.45703125,31.25,108.3984375,48.33984375,34.66796875
1771540077.4446561,43.9453125,31.73828125,110.83984375,51.26953125,80.078125
1771540077.4485624,42.96875,30.76171875,107.421875,49.31640625,59.5703125
1771540077.4524686,43.9453125,33.203125,91.30859375,36.1328125,34.66796875
1771540077.456375,39.0625,33.69140625,144.53125,13.18359375,65.4296875
1771540077.4602811,49.8046875,33.69140625,172.36328125,28.80859375,58.10546875
1771540077.4641874,56.15234375,32.2265625,83.49609375,47.8515625,32.71484375
1771540077.4680936,37.109375,26.85546875,5.859375,52.24609375,20.01953125
1771540077.470125,21.484375,29.296875,91.30859375,35.64453125,30.2734375
1771540077.4740312,42.48046875,34.66796875,161.1328125,35.15625,51.7578125
1771540077.4779375,47.36328125,33.69140625,93.26171875,41.50390625,41.9921875
1771540077.4818437,32.2265625,32.2265625,80.078125,32.71484375,62.98828125
1771540077.48575,27.83203125,31.73828125,114.74609375,39.55078125,54.19921875
1771540077.4896562,54.19921875,29.296875,101.07421875,40.0390625,44.43359375
1771540077.4935625,54.6875,28.80859375,56.640625,36.1328125,67.3828125
1771540077.4974687,26.3671875,25.87890625,-19.04296875,33.69140625,37.59765625
1771540077.501375,23.4375,26.3671875,86.42578125,23.4375,62.98828125
1771540077.5052812,27.83203125,31.73828125,148.4375,20.5078125,38.0859375
1771540077.5091875,27.83203125,31.25,96.6796875,24.90234375,24.4140625
1771540077.5130937,16.6015625,27.34375,86.42578125,42.96875,22.4609375
1771540077.514125,20.5078125,29.78515625,96.19140625,46.38671875,11.71875
1771540077.5180314,37.109375,31.25,86.42578125,33.69140625,-1.46484375
1771540077.5219376,41.9921875,30.2734375,78.125,31.25,-10.25390625
1771540077.5258439,39.0625,32.2265625,83.984375,45.41015625,23.4375
1771540077.52975,36.62109375,34.66796875,79.58984375,37.59765625,22.94921875
1771540077.5336564,37.109375,32.71484375,37.109375,16.11328125,46.875
1771540077.5375626,44.43359375,30.2734375,19.04296875,21.97265625,76.171875
1771540077.5414689,51.7578125,30.2734375,47.8515625,27.83203125,52.24609375
1771540077.545375,48.828125,32.2265625,33.69140625,27.83203125,27.34375
1771540077.5492814,33.203125,32.2265625,-14.16015625,40.52734375,84.47265625
1771540077.5531876,33.203125,28.80859375,-121.58203125,41.015625,78.61328125
1771540077.5570939,22.4609375,30.2734375,-94.7265625,19.53125,-16.11328125
1771540077.559125,24.4140625,35.64453125,12.6953125,26.3671875,1.953125
1771540077.5630312,43.9453125,36.62109375,-42.48046875,31.25,62.01171875
1771540077.5669374,37.109375,33.203125,-50.29296875,35.64453125,73.2421875
1771540077.5708437,33.69140625,31.73828125,-10.7421875,43.45703125,51.7578125
1771540077.57475,30.2734375,34.66796875,-22.4609375,28.80859375,61.5234375
1771540077.5786562,40.52734375,32.2265625,-143.5546875,26.85546875,16.6015625
1771540077.5825624,46.38671875,28.3203125,-183.59375,41.9921875,-33.203125
1771540077.5864687,41.50390625,32.71484375,-20.01953125,62.5,20.01953125
1771540077.590375,50.29296875,32.71484375,-24.90234375,59.08203125,42.48046875
1771540077.5942812,45.41015625,29.78515625,-112.3046875,23.92578125,20.01953125
1771540077.5981874,24.4140625,30.76171875,-104.4921875,1.46484375,40.0390625
1771540077.6020937,21.484375,30.76171875,-95.703125,21.484375,31.25
1771540077.619125,23.92578125,31.73828125,-73.2421875,41.50390625,-6.8359375
1771540077.6230311,30.2734375,30.76171875,-76.66015625,43.9453125,30.2734375
1771540077.6269374,30.2734375,30.2734375,-61.5234375,43.45703125,45.8984375
1771540077.6308436,30.2734375,32.2265625,-20.99609375,38.57421875,26.3671875
1771540077.63475,50.78125,32.2265625,-53.7109375,40.52734375,33.69140625
1771540077.6386561,49.31640625,31.73828125,-124.51171875,46.38671875,-0.9765625
1771540077.6425624,29.78515625,30.76171875,-84.9609375,44.921875,13.671875
1771540077.6464686,29.296875,32.2265625,-13.671875,49.31640625,26.85546875
1771540077.650375,44.43359375,32.71484375,-43.9453125,51.7578125,5.859375
1771540077.6542811,59.08203125,28.3203125,-117.67578125,47.36328125,12.20703125
1771540077.6581874,49.8046875,28.80859375,-37.59765625,44.921875,51.26953125
1771540077.6620936,28.80859375,33.69140625,42.96875,41.50390625,71.77734375
1771540077.665125,35.15625,34.66796875,-14.6484375,42.96875,23.92578125
1771540077.6690311,39.0625,31.73828125,-62.5,45.41015625,10.25390625
1771540077.6729374,40.52734375,33.69140625,-43.9453125,47.8515625,15.625
1771540077.6768436,35.15625,36.1328125,12.20703125,39.0625,19.04296875
1771540077.68075,35.64453125,34.1796875,-16.6015625,33.69140625,53.22265625
1771540077.6846561,46.38671875,33.203125,-62.5,39.55078125,92.7734375
1771540077.6885624,37.109375,32.2265625,-21.97265625,39.55078125,31.73828125
1771540077.6924686,25.390625,30.76171875,34.1796875,41.9921875,-10.7421875
1771540077.696375,40.52734375,30.76171875,-6.8359375,42.48046875,25.390625
1771540077.7002811,53.22265625,30.2734375,-28.3203125,47.8515625,63.4765625
1771540077.7041874,41.9921875,33.69140625,66.89453125,36.1328125,71.2890625
1771540077.7080936,44.43359375,35.64453125,55.6640625,22.94921875,37.109375
1771540077.710125,56.15234375,36.62109375,58.10546875,28.3203125,84.9609375
1771540077.7140312,51.7578125,37.59765625,59.08203125,29.296875,29.78515625
1771540077.7179375,39.0625,36.1328125,47.8515625,37.59765625,-3.90625
1771540077.7218437,33.203125,37.59765625,42.96875,41.9921875,75.1953125
1771540077.72575,31.25,39.0625,8.7890625,38.0859375,75.68359375
1771540077.7296562,35.15625,38.0859375,-10.25390625,42.48046875,20.5078125
1771540077.7335625,29.78515625,34.66796875,24.90234375,31.25,13.18359375
1771540077.7374687,40.52734375,34.66796875,69.3359375,29.296875,51.7578125
1771540077.741375,49.31640625,32.2265625,-30.2734375,23.92578125,44.921875
1771540077.7452812,24.90234375,29.78515625,2.9296875,30.2734375,-8.30078125
1771540077.7491875,11.71875,34.1796875,166.50390625,45.41015625,-22.4609375
1771540077.7530937,24.4140625,32.71484375,117.1875,31.73828125,11.23046875
1771540077.755125,26.85546875,32.71484375,73.2421875,25.87890625,27.34375
1771540077.7590313,30.2734375,37.59765625,114.74609375,38.0859375,26.3671875
1771540077.7629375,40.52734375,36.62109375,121.58203125,38.0859375,4.8828125
1771540077.7668438,47.36328125,34.66796875,60.546875,41.015625,-44.43359375
1771540077.77075,50.78125,38.0859375,62.98828125,51.7578125,-16.6015625
1771540077.7746563,51.7578125,40.52734375,95.21484375,48.828125,69.3359375
1771540077.7785625,45.41015625,39.55078125,103.515625,47.8515625,49.8046875
1771540077.7824688,24.4140625,41.50390625,65.4296875,50.29296875,30.76171875
1771540077.786375,38.0859375,41.015625,-38.0859375,54.6875,15.625
1771540077.7902813,46.38671875,40.52734375,91.796875,42.96875,44.43359375
1771540077.7941875,40.0390625,40.52734375,178.7109375,33.203125,78.61328125
1771540077.7980938,41.50390625,35.64453125,100.5859375,37.59765625,38.57421875
1771540077.799125,42.48046875,34.1796875,92.28515625,51.7578125,16.6015625
1771540077.8030312,43.9453125,36.1328125,93.26171875,51.7578125,-1.46484375
1771540077.8069375,45.8984375,37.59765625,86.9140625,59.08203125,27.83203125
1771540077.8108437,49.8046875,38.0859375,59.08203125,62.98828125,62.01171875
1771540077.81475,50.78125,40.0390625,29.78515625,51.7578125,28.80859375
1771540077.8186562,46.875,41.015625,12.20703125,41.9921875,46.38671875
1771540077.8225625,49.8046875,41.9921875,-9.765625,47.36328125,34.1796875
1771540077.8264687,48.828125,44.43359375,10.25390625,48.828125,-7.8125
1771540077.830375,58.59375,45.41015625,35.15625,42.48046875,38.57421875
1771540077.8342812,49.8046875,41.015625,22.4609375,50.78125,31.25
1771540077.8381875,25.87890625,39.55078125,17.08984375,36.62109375,7.32421875
1771540077.8420937,51.26953125,38.0859375,-95.21484375,31.25,-18.06640625
1771540077.845125,61.03515625,39.0625,-37.109375,41.015625,44.921875
1771540077.8490312,47.8515625,42.96875,67.3828125,39.0625,83.0078125
1771540077.8529375,37.109375,39.0625,-6.34765625,42.96875,56.640625
1771540077.8568437,46.38671875,35.15625,6.8359375,47.36328125,62.98828125
1771540077.86075,60.546875,39.0625,24.4140625,42.96875,20.99609375
1771540077.8646562,58.59375,37.59765625,-15.625,55.17578125,28.3203125
1771540077.8685625,44.43359375,35.64453125,-48.828125,51.7578125,63.96484375
1771540077.8724687,20.99609375,39.0625,-36.62109375,41.9921875,69.3359375
1771540077.876375,17.578125,41.50390625,44.921875,46.875,16.11328125
1771540077.8802812,32.2265625,40.0390625,41.50390625,60.546875,45.41015625
1771540077.8841875,36.1328125,38.57421875,-28.3203125,48.33984375,61.03515625
1771540077.8880937,29.78515625,38.57421875,-31.25,43.9453125,45.41015625
1771540077.890125,42.48046875,40.0390625,15.625,51.7578125,39.0625
1771540077.8940313,38.0859375,40.0390625,-3.41796875,34.66796875,29.78515625
1771540077.8979375,30.2734375,37.59765625,-74.21875,20.5078125,16.6015625
1771540077.9018438,28.3203125,37.109375,-48.828125,20.99609375,11.71875
1771540077.90575,32.71484375,37.109375,-5.37109375,37.59765625,-11.71875
1771540077.9096563,43.45703125,36.62109375,-46.38671875,40.52734375,-30.76171875
1771540077.9135625,39.55078125,35.15625,-94.23828125,50.29296875,15.625
1771540077.9174688,26.3671875,36.1328125,-32.71484375,39.55078125,37.59765625
1771540077.921375,23.92578125,37.59765625,72.265625,32.2265625,31.73828125
1771540077.9252813,39.55078125,38.57421875,34.1796875,47.36328125,43.45703125
1771540077.9291875,40.0390625,38.0859375,-4.39453125,55.6640625,28.3203125
1771540077.9330938,26.3671875,37.59765625,9.765625,39.0625,-23.4375
1771540077.935125,34.1796875,35.15625,36.62109375,26.85546875,-11.23046875
1771540077.9390314,41.9921875,32.2265625,-6.8359375,43.9453125,34.66796875
1771540077.9429376,40.0390625,33.69140625,-37.109375,48.828125,6.34765625
1771540077.9468439,28.3203125,35.15625,34.66796875,40.52734375,-15.13671875
1771540077.95075,22.4609375,34.1796875,68.84765625,37.59765625,15.13671875
1771540077.9546564,43.45703125,31.73828125,5.37109375,33.69140625,25.390625
1771540077.9585626,40.0390625,30.76171875,-58.59375,23.92578125,26.3671875
1771540077.9624689,17.08984375,33.69140625,51.26953125,23.92578125,15.625
1771540077.966375,13.671875,35.64453125,117.1875,26.3671875,18.06640625
1771540077.9702814,17.578125,35.15625,96.19140625,29.296875,66.40625
1771540077.9741876,25.87890625,34.66796875,77.63671875,28.80859375,80.078125
1771540077.9780939,24.90234375,30.2734375,47.36328125,27.34375,-4.39453125
1771540077.994125,14.6484375,28.80859375,56.640625,33.203125,7.8125
1771540077.9980311,32.2265625,29.296875,72.265625,37.109375,59.5703125
1771540078.0019374,34.66796875,26.85546875,83.984375,37.109375,23.92578125
1771540078.0058436,18.5546875,28.80859375,55.6640625,43.45703125,23.92578125
1771540078.00975,10.7421875,28.80859375,40.0390625,38.0859375,18.5546875
1771540078.0136561,14.16015625,25.87890625,9.27734375,16.11328125,43.45703125
1771540078.0175624,33.203125,28.3203125,27.83203125,22.4609375,33.203125
1771540078.0214686,23.92578125,31.73828125,140.625,39.55078125,17.08984375
1771540078.025375,17.08984375,31.73828125,91.30859375,39.55078125,-6.34765625
1771540078.0292811,30.76171875,30.76171875,60.546875,32.71484375,-11.23046875
1771540078.0331874,33.69140625,30.2734375,100.5859375,35.64453125,-4.8828125
1771540078.0370936,25.390625,35.15625,81.0546875,40.0390625,-18.06640625
1771540078.040125,23.4375,38.0859375,55.6640625,31.73828125,24.90234375
1771540078.0440311,17.08984375,37.109375,55.6640625,32.71484375,33.203125
1771540078.0479374,25.390625,39.55078125,100.09765625,50.78125,36.62109375
1771540078.0518436,27.34375,37.109375,84.9609375,50.78125,34.1796875
1771540078.05575,22.4609375,30.2734375,8.7890625,30.2734375,21.97265625
1771540078.0596561,27.34375,30.76171875,-17.578125,18.06640625,45.41015625
1771540078.0635624,34.1796875,34.1796875,9.765625,19.04296875,39.0625
1771540078.0674686,34.66796875,36.62109375,34.1796875,36.1328125,-4.39453125
1771540078.071375,24.90234375,36.62109375,-5.859375,49.31640625,-9.765625
1771540078.0752811,23.4375,33.69140625,-62.5,44.921875,43.9453125
1771540078.0791874,31.73828125,37.59765625,59.5703125,36.1328125,63.96484375
1771540078.0830936,42.96875,41.9921875,97.65625,45.8984375,17.08984375
1771540078.084125,37.59765625,38.57421875,34.66796875,44.43359375,-2.9296875
1771540078.0880313,28.80859375,36.62109375,42.96875,34.1796875,38.57421875
1771540078.0919375,27.83203125,34.66796875,65.91796875,43.45703125,60.05859375
1771540078.0958438,36.1328125,33.203125,50.78125,55.17578125,30.76171875
1771540078.09975,28.3203125,32.71484375,3.41796875,38.0859375,-2.9296875
1771540078.1036563,31.73828125,33.69140625,-13.18359375,37.59765625,1.46484375
1771540078.1075625,44.921875,35.64453125,17.08984375,36.62109375,9.765625
1771540078.1114688,36.62109375,35.64453125,56.15234375,20.01953125,-20.99609375
1771540078.115375,30.76171875,31.25,-27.34375,28.80859375,25.87890625
1771540078.1192813,20.99609375,26.3671875,-37.59765625,36.62109375,33.203125
1771540078.1231875,15.625,29.296875,89.84375,26.85546875,22.4609375
1771540078.1270938,25.390625,31.25,61.03515625,28.3203125,61.5234375
1771540078.129125,27.83203125,29.296875,23.4375,41.9921875,67.3828125
1771540078.1330314,24.4140625,28.80859375,49.31640625,30.76171875,73.2421875
1771540078.1369376,19.53125,27.83203125,32.2265625,20.01953125,22.94921875
1771540078.1408439,12.20703125,28.3203125,14.16015625,26.85546875,14.16015625
1771540078.14475,22.4609375,26.85546875,19.04296875,36.1328125,23.92578125
1771540078.1486564,26.3671875,23.92578125,24.90234375,42.48046875,62.98828125
1771540078.1525626,14.6484375,26.85546875,42.96875,35.15625,97.16796875
1771540078.1564689,15.625,24.4140625,-1.953125,30.2734375,76.66015625
1771540078.160375,25.87890625,20.01953125,-44.43359375,40.52734375,9.27734375
1771540078.1642814,14.16015625,22.4609375,51.7578125,32.71484375,-7.32421875
1771540078.1681876,15.625,25.390625,61.03515625,24.4140625,31.73828125
1771540078.1720939,15.625,24.4140625,-16.6015625,20.99609375,11.23046875
1771540078.174125,22.94921875,25.87890625,29.296875,26.85546875,0.0
1771540078.1780312,29.296875,27.83203125,82.51953125,35.64453125,5.859375
1771540078.1819375,11.71875,27.34375,43.9453125,26.3671875,33.69140625
1771540078.1858437,-0.9765625,27.34375,18.06640625,27.83203125,6.34765625
1771540078.18975,9.27734375,24.90234375,59.08203125,38.57421875,12.6953125
1771540078.1936562,29.296875,24.4140625,47.36328125,41.015625,28.80859375
1771540078.1975625,32.2265625,25.390625,44.43359375,42.96875,-13.18359375
1771540078.2014687,31.25,22.4609375,18.5546875,40.52734375,58.59375
1771540078.205375,22.94921875,20.01953125,39.55078125,33.69140625,68.359375
1771540078.2092812,28.80859375,22.4609375,144.53125,42.48046875,22.94921875
1771540078.2131875,32.71484375,23.92578125,86.42578125,57.12890625,0.0
1771540078.2170937,20.5078125,25.390625,57.6171875,46.875,8.30078125
1771540078.220125,16.11328125,26.3671875,103.02734375,27.34375,45.41015625
1771540078.2240312,21.97265625,25.87890625,104.4921875,36.1328125,60.546875
1771540078.2279375,27.83203125,22.4609375,32.71484375,44.921875,31.73828125
1771540078.2318437,24.90234375,21.97265625,10.7421875,35.15625,15.13671875
1771540078.23575,23.92578125,23.4375,72.75390625,38.0859375,55.17578125
1771540078.2396562,32.2265625,22.94921875,69.82421875,42.48046875,94.7265625
1771540078.2435625,30.76171875,18.5546875,-19.04296875,30.76171875,20.99609375
1771540078.2474687,24.4140625,20.01953125,-39.55078125,43.45703125,-7.8125
1771540078.251375,13.671875,26.3671875,82.03125,45.8984375,56.640625
1771540078.2552812,21.484375,26.3671875,82.03125,40.0390625,22.94921875
1771540078.2591875,35.15625,28.3203125,40.52734375,40.0390625,14.16015625
1771540078.2630937,32.2265625,31.25,32.2265625,31.73828125,20.99609375
1771540078.264125,25.390625,32.71484375,43.9453125,17.578125,34.66796875
1771540078.2680314,33.203125,32.2265625,38.0859375,27.83203125,39.55078125
1771540078.2719376,36.62109375,34.66796875,15.625,38.57421875,4.8828125
1771540078.2758439,20.5078125,34.1796875,-5.37109375,31.73828125,41.50390625
1771540078.27975,16.11328125,30.2734375,-19.04296875,32.2265625,21.97265625
1771540078.2836564,19.04296875,31.73828125,3.90625,31.73828125,61.5234375
1771540078.2875626,17.08984375,33.69140625,-70.3125,44.921875,69.82421875
1771540078.2914689,24.90234375,33.69140625,-79.58984375,44.921875,1.46484375
1771540078.295375,40.0390625,35.15625,36.62109375,33.203125,36.1328125
1771540078.2992814,33.69140625,34.66796875,-10.25390625,31.25,26.3671875
1771540078.3031876,30.2734375,30.76171875,-34.1796875,27.83203125,24.90234375
1771540078.3070939,28.3203125,29.296875,-6.34765625,31.25,37.109375
1771540078.310125,19.53125,30.76171875,-20.99609375,44.43359375,33.69140625
1771540078.3140314,16.11328125,28.80859375,-53.7109375,44.43359375,63.96484375
1771540078.3179376,20.5078125,27.34375,-75.1953125,29.78515625,-8.30078125
1771540078.3218439,33.203125,27.83203125,-37.59765625,35.15625,-34.1796875
1771540078.32575,35.64453125,26.85546875,-46.875,40.0390625,6.34765625
1771540078.3296564,36.1328125,25.390625,-117.1875,41.50390625,40.0390625
1771540078.3335626,32.71484375,21.484375,-183.10546875,27.34375,34.66796875
1771540078.3374689,32.71484375,23.4375,-68.84765625,24.4140625,-4.39453125
1771540078.341375,29.296875,27.34375,3.41796875,37.109375,-1.953125
1771540078.3452814,18.5546875,26.85546875,-72.265625,39.55078125,4.8828125
1771540078.3491876,22.94921875,30.2734375,-61.03515625,40.52734375,20.5078125
1771540078.3530939,32.71484375,29.296875,-13.18359375,28.80859375,58.10546875
1771540078.369125,34.66796875,26.3671875,-30.2734375,21.97265625,88.8671875
1771540078.3730311,31.25,27.34375,-71.2890625,21.97265625,61.03515625
1771540078.3769374,20.5078125,28.80859375,-83.49609375,18.06640625,-2.9296875
1771540078.3808436,29.296875,31.73828125,-63.96484375,23.92578125,-42.48046875
1771540078.38475,33.203125,33.69140625,-57.6171875,31.25,-0.48828125
1771540078.3886561,30.2734375,32.2265625,-110.83984375,32.71484375,33.203125
1771540078.3925624,25.87890625,35.15625,-95.703125,37.59765625,42.48046875
1771540078.3964686,25.87890625,41.015625,-42.96875,41.9921875,43.45703125
1771540078.400375,35.15625,42.48046875,-56.640625,38.57421875,81.54296875
1771540078.4042811,46.875,39.0625,-150.87890625,42.48046875,84.9609375
1771540078.4081874,43.9453125,41.50390625,-123.53515625,42.48046875,28.3203125
1771540078.4120936,20.99609375,45.41015625,-12.6953125,38.0859375,25.87890625
1771540078.414125,27.83203125,41.015625,-39.0625,47.36328125,87.40234375
1771540078.4180312,49.8046875,36.62109375,-84.47265625,50.78125,33.69140625
1771540078.4219375,43.45703125,33.69140625,-56.640625,38.57421875,-25.87890625
1771540078.4258437,27.83203125,33.203125,-25.390625,32.2265625,51.26953125
1771540078.42975,28.3203125,32.2265625,-64.453125,39.0625,21.97265625
1771540078.4336562,31.73828125,29.78515625,-102.05078125,35.64453125,16.11328125
1771540078.4375625,26.85546875,31.73828125,-71.2890625,29.78515625,14.6484375
1771540078.4414687,12.20703125,32.71484375,-28.80859375,11.23046875,16.6015625
1771540078.445375,24.4140625,27.34375,-97.16796875,9.765625,38.0859375
1771540078.4492812,31.25,24.90234375,-128.90625,28.80859375,57.6171875
1771540078.4531875,27.83203125,26.85546875,-74.70703125,33.69140625,32.71484375
1771540078.4570937,34.66796875,25.87890625,-66.89453125,45.41015625,11.71875
1771540078.459125,24.4140625,25.390625,-77.1484375,55.17578125,-5.859375
1771540078.4630313,32.2265625,32.2265625,-41.50390625,37.59765625,40.52734375
1771540078.4669375,34.1796875,35.15625,-20.99609375,21.97265625,63.96484375
1771540078.4708438,32.71484375,34.66796875,-61.03515625,40.0390625,-23.92578125
1771540078.47475,28.3203125,34.1796875,-59.08203125,41.50390625,-41.9921875
1771540078.4786563,34.66796875,31.25,-56.15234375,28.80859375,-12.20703125
1771540078.4825625,45.41015625,31.25,-28.3203125,31.25,31.73828125
1771540078.4864688,31.73828125,29.78515625,-12.20703125,28.80859375,46.38671875
1771540078.490375,29.296875,26.3671875,-111.328125,28.80859375,18.06640625
1771540078.4942813,37.109375,28.80859375,-74.70703125,40.0390625,-31.73828125
1771540078.4981875,30.2734375,32.71484375,45.41015625,59.5703125,23.92578125
1771540078.5020938,35.15625,33.203125,-10.7421875,46.875,67.3828125
1771540078.505125,42.96875,32.2265625,-48.828125,21.484375,39.55078125
1771540078.5090313,35.15625,30.2734375,-8.7890625,27.34375,48.33984375
1771540078.5129375,47.8515625,31.73828125,26.85546875,34.66796875,60.546875
1771540078.5168438,41.9921875,31.25,-24.90234375,37.59765625,70.80078125
1771540078.52075,26.3671875,30.76171875,-59.5703125,48.33984375,56.640625
1771540078.5246563,40.52734375,32.2265625,-32.71484375,54.19921875,12.20703125
1771540078.5285625,45.8984375,34.1796875,2.44140625,55.6640625,-0.9765625
1771540078.5324688,34.66796875,33.69140625,-39.0625,50.78125,11.71875
1771540078.536375,35.15625,31.25,-78.125,62.01171875,39.55078125
1771540078.5402813,34.66796875,33.203125,15.625,52.734375,44.43359375
1771540078.5441875,45.41015625,33.69140625,18.06640625,24.90234375,14.6484375
1771540078.5480938,50.78125,30.2734375,-9.27734375,33.203125,42.96875
1771540078.550125,40.52734375,25.87890625,-19.53125,41.015625,43.45703125
1771540078.5540311,38.0859375,31.73828125,-11.71875,37.109375,49.8046875
1771540078.5579374,40.0390625,35.15625,0.0,51.7578125,105.95703125
1771540078.5618436,41.9921875,32.2265625,-41.50390625,55.17578125,63.4765625
1771540078.56575,38.0859375,31.73828125,-51.26953125,40.52734375,9.765625
1771540078.5696561,41.9921875,28.80859375,-71.2890625,41.50390625,-18.5546875
1771540078.5735624,46.875,29.78515625,-34.66796875,51.26953125,25.390625
1771540078.5774686,43.9453125,26.3671875,-81.0546875,56.15234375,65.91796875
1771540078.581375,43.45703125,25.390625,-108.88671875,55.17578125,41.9921875
1771540078.5852811,38.0859375,30.2734375,14.16015625,48.33984375,50.29296875
1771540078.5891874,39.0625,27.34375,-14.16015625,33.69140625,47.8515625
1771540078.5930936,42.48046875,26.3671875,-43.9453125,38.57421875,49.8046875
1771540078.594125,33.69140625,30.76171875,-28.80859375,56.15234375,37.59765625
1771540078.5980313,35.15625,30.76171875,-44.43359375,50.78125,0.0
1771540078.6019375,43.45703125,29.296875,-63.96484375,42.96875,38.57421875
1771540078.6058438,42.96875,29.78515625,-60.546875,40.0390625,11.71875
1771540078.60975,50.78125,32.71484375,-17.578125,40.52734375,25.87890625
1771540078.6136563,42.96875,33.69140625,-43.45703125,46.875,83.49609375
1771540078.6175625,40.52734375,33.203125,-96.19140625,48.33984375,33.69140625
1771540078.6214688,50.29296875,32.71484375,-118.65234375,49.31640625,2.9296875
1771540078.625375,28.3203125,30.76171875,-19.04296875,38.57421875,0.48828125
1771540078.6292813,32.71484375,32.71484375,47.8515625,35.15625,19.53125
1771540078.6331875,39.55078125,33.203125,4.39453125,45.41015625,58.10546875
1771540078.6370938,35.64453125,31.25,1.953125,50.29296875,52.24609375
1771540078.640125,37.59765625,31.73828125,13.18359375,49.8046875,34.66796875
1771540078.6440313,37.59765625,31.73828125,-11.71875,49.8046875,37.59765625
1771540078.6479375,38.57421875,32.71484375,-32.71484375,36.62109375,58.10546875
1771540078.6518438,31.73828125,33.203125,-15.625,32.71484375,59.08203125
1771540078.65575,30.2734375,30.2734375,-1.953125,37.59765625,33.203125
1771540078.6596563,36.62109375,29.78515625,-51.26953125,37.109375,3.41796875
1771540078.6635625,40.0390625,25.87890625,-115.72265625,41.50390625,5.859375
1771540078.6674688,26.85546875,23.92578125,-63.4765625,34.1796875,-0.9765625
1771540078.671375,18.06640625,29.78515625,32.71484375,29.78515625,-7.32421875
1771540078.6752813,20.99609375,29.296875,5.37109375,37.109375,-21.484375
1771540078.6791875,31.73828125,24.90234375,-15.13671875,29.296875,11.23046875
1771540078.6830938,25.87890625,28.3203125,25.390625,40.52734375,54.6875
1771540078.685125,24.90234375,32.71484375,23.4375,47.36328125,7.8125
1771540078.6890314,42.96875,32.2265625,-7.8125,39.55078125,41.9921875
1771540078.6929376,44.43359375,31.25,-28.80859375,40.0390625,53.7109375
1771540078.6968439,36.1328125,29.78515625,0.0,40.0390625,9.27734375
1771540078.70075,26.85546875,27.34375,24.90234375,51.26953125,38.57421875
1771540078.7046564,33.69140625,27.83203125,-35.15625,55.17578125,8.7890625
1771540078.7085626,37.59765625,29.296875,-26.3671875,47.36328125,18.06640625
1771540078.7124689,25.87890625,25.87890625,39.55078125,46.875,29.78515625
1771540078.716375,12.20703125,24.4140625,58.59375,38.57421875,45.8984375
1771540078.7202814,34.1796875,27.34375,-7.8125,39.55078125,73.73046875
1771540078.7241876,50.78125,25.87890625,-65.4296875,45.41015625,66.89453125
1771540078.7280939,40.52734375,29.296875,17.08984375,28.3203125,31.25
1771540078.745125,38.0859375,32.71484375,38.57421875,31.73828125,28.3203125
1771540078.7490313,44.921875,30.76171875,-11.71875,47.8515625,22.4609375
1771540078.7529376,41.015625,30.76171875,-1.953125,45.41015625,21.97265625
1771540078.7568438,34.1796875,27.83203125,25.87890625,48.33984375,25.87890625
1771540078.76075,21.484375,28.80859375,19.53125,45.8984375,37.59765625
1771540078.7646563,34.1796875,32.2265625,-8.30078125,53.22265625,64.94140625
1771540078.7685626,43.45703125,29.78515625,-2.9296875,57.6171875,8.30078125
1771540078.7724688,26.3671875,30.76171875,52.734375,29.78515625,21.97265625
1771540078.776375,24.4140625,28.80859375,38.57421875,19.04296875,62.01171875
1771540078.7802813,20.99609375,28.80859375,1.46484375,22.4609375,51.7578125
1771540078.7841876,18.5546875,31.73828125,52.734375,27.34375,29.296875
1771540078.7880938,28.80859375,31.25,92.28515625,37.59765625,33.203125
1771540078.790125,34.1796875,28.80859375,45.8984375,36.62109375,41.015625
1771540078.7940311,22.94921875,26.85546875,26.3671875,30.76171875,0.48828125
1771540078.7979374,21.97265625,28.3203125,85.44921875,44.921875,5.37109375
1771540078.8018436,28.3203125,32.2265625,82.51953125,40.0390625,15.625
1771540078.80575,31.25,32.71484375,20.99609375,36.1328125,-7.32421875
1771540078.8096561,29.296875,33.203125,-12.6953125,44.921875,-31.25
1771540078.8135624,29.78515625,33.203125,50.29296875,28.3203125,-23.4375
1771540078.8174686,28.80859375,35.64453125,105.95703125,28.3203125,-17.578125
1771540078.821375,31.25,36.62109375,36.62109375,32.2265625,-12.6953125
1771540078.8252811,26.85546875,34.1796875,-6.8359375,27.83203125,-17.08984375
1771540078.8291874,13.18359375,34.1796875,87.40234375,30.76171875,-50.29296875
1771540078.8330936,29.296875,35.15625,102.5390625,34.66796875,-21.484375
1771540078.834125,42.96875,35.15625,61.03515625,33.203125,45.41015625
1771540078.8380313,41.50390625,33.203125,50.78125,34.1796875,18.06640625
1771540078.8419375,32.71484375,30.2734375,69.3359375,33.203125,15.625
1771540078.8458438,31.25,32.71484375,61.03515625,41.50390625,45.8984375
1771540078.84975,33.69140625,31.73828125,20.5078125,45.41015625,25.87890625
1771540078.8536563,29.296875,28.80859375,14.16015625,40.52734375,36.1328125
1771540078.8575625,18.06640625,29.296875,52.24609375,36.62109375,39.0625
1771540078.8614688,23.4375,29.78515625,80.56640625,39.0625,17.578125
1771540078.865375,44.921875,27.83203125,-16.6015625,21.97265625,3.90625
1771540078.8692813,42.48046875,29.296875,-1.46484375,14.16015625,9.765625
1771540078.8731875,33.203125,35.15625,96.19140625,31.25,62.5
1771540078.8770938,50.29296875,36.1328125,46.38671875,43.9453125,89.35546875
1771540078.879125,55.17578125,33.203125,27.34375,43.9453125,50.29296875
1771540078.8830314,37.109375,34.1796875,45.41015625,32.2265625,31.25
1771540078.8869376,30.76171875,35.15625,46.875,38.0859375,21.484375
1771540078.8908439,41.015625,33.69140625,8.30078125,33.69140625,-19.53125
1771540078.89475,33.203125,32.2265625,1.46484375,39.55078125,-57.6171875
1771540078.8986564,21.484375,28.3203125,14.16015625,63.4765625,-9.27734375
1771540078.9025626,25.87890625,27.34375,17.578125,51.26953125,14.16015625
1771540078.9064689,25.390625,24.90234375,18.5546875,39.55078125,50.78125
1771540078.910375,37.109375,19.53125,-26.85546875,40.0390625,60.05859375
1771540078.9142814,37.109375,22.94921875,44.921875,36.1328125,87.40234375
1771540078.9181876,30.76171875,28.80859375,65.4296875,45.41015625,51.7578125
1771540078.9220939,34.66796875,33.203125,33.203125,46.875,61.5234375
1771540078.924125,42.48046875,32.71484375,50.29296875,51.7578125,48.828125
1771540078.9280312,45.8984375,32.2265625,62.01171875,47.8515625,20.5078125
1771540078.9319375,35.64453125,33.203125,47.36328125,30.76171875,86.9140625
1771540078.9358437,21.484375,30.76171875,25.390625,26.3671875,90.33203125
1771540078.93975,21.97265625,25.87890625,35.15625,36.1328125,37.109375
1771540078.9436562,37.59765625,23.92578125,16.6015625,48.33984375,-0.9765625
1771540078.9475625,40.0390625,28.3203125,30.2734375,53.7109375,-3.90625
1771540078.9514687,35.15625,24.90234375,-15.625,37.59765625,41.015625
1771540078.955375,44.43359375,26.85546875,4.39453125,28.80859375,74.70703125
1771540078.9592812,38.57421875,35.64453125,114.74609375,41.50390625,85.9375
1771540078.9631875,25.390625,33.69140625,55.6640625,43.9453125,99.609375
1771540078.9670937,25.87890625,31.73828125,0.9765625,27.34375,79.1015625
1771540078.970125,15.13671875,33.69140625,39.55078125,25.390625,33.203125
1771540078.9740312,23.92578125,37.59765625,60.546875,34.1796875,-1.46484375
1771540078.9779375,36.1328125,37.109375,16.6015625,36.62109375,8.30078125
1771540078.9818437,35.15625,33.203125,14.16015625,41.50390625,43.9453125
1771540078.98575,26.3671875,35.64453125,43.45703125,34.66796875,77.1484375
1771540078.9896562,29.296875,33.203125,10.25390625,37.59765625,52.24609375
1771540078.9935625,41.50390625,28.80859375,-35.64453125,48.33984375,-2.9296875
1771540078.9974687,41.015625,31.73828125,-39.0625,31.73828125,15.13671875
1771540079.001375,24.4140625,37.59765625,47.36328125,20.99609375,16.6015625
1771540079.0052812,29.78515625,41.015625,85.9375,27.83203125,53.7109375
1771540079.0091875,41.015625,35.64453125,7.8125,43.45703125,47.36328125
1771540079.0130937,34.66796875,31.25,15.13671875,46.875,33.203125
1771540079.014125,25.87890625,30.76171875,74.70703125,37.109375,85.44921875
1771540079.0180314,26.85546875,29.296875,46.875,35.15625,60.546875
1771540079.0219376,41.015625,27.83203125,21.97265625,42.96875,16.6015625
1771540079.0258439,22.4609375,25.390625,20.01953125,43.45703125,-16.6015625
1771540079.02975,11.71875,22.4609375,31.73828125,27.34375,1.46484375
1771540079.0336564,32.71484375,26.3671875,4.39453125,25.87890625,-13.18359375
1771540079.0375626,39.0625,26.3671875,-26.3671875,31.73828125,-3.90625
1771540079.0414689,30.76171875,23.4375,16.6015625,24.4140625,22.94921875
1771540079.045375,27.34375,28.80859375,82.03125,27.83203125,-19.04296875
1771540079.0492814,30.2734375,30.76171875,58.59375,36.62109375,-5.37109375
1771540079.0531876,39.0625,30.2734375,66.89453125,43.45703125,66.89453125
1771540079.0570939,35.64453125,30.76171875,86.9140625,41.9921875,87.40234375
1771540079.060125,27.34375,27.34375,41.015625,45.41015625,16.11328125
1771540079.0640314,38.0859375,26.85546875,-2.44140625,43.45703125,-23.4375
1771540079.0679376,42.96875,27.34375,13.671875,27.34375,9.27734375
1771540079.0718439,43.45703125,27.83203125,62.98828125,30.76171875,28.80859375
1771540079.07575,26.3671875,26.3671875,46.38671875,44.43359375,0.0
1771540079.0796564,25.87890625,25.87890625,-25.390625,38.0859375,-7.8125
1771540079.0835626,40.0390625,27.83203125,-40.0390625,6.8359375,0.0
1771540079.0874689,36.62109375,27.83203125,77.1484375,12.20703125,61.03515625
1771540079.091375,35.64453125,28.80859375,82.51953125,31.73828125,76.171875
1771540079.0952814,44.921875,28.3203125,24.4140625,32.71484375,58.59375
1771540079.0991876,44.43359375,27.83203125,27.34375,26.85546875,45.41015625
1771540079.1030939,42.48046875,27.34375,60.546875,35.15625,30.76171875
1771540079.119125,47.8515625,25.87890625,57.6171875,39.0625,56.640625
1771540079.1230311,38.0859375,27.83203125,25.390625,23.4375,33.69140625
1771540079.1269374,28.80859375,29.296875,23.4375,17.08984375,10.7421875
1771540079.1308436,31.25,27.34375,42.96875,30.2734375,37.59765625
1771540079.13475,26.85546875,27.34375,49.8046875,30.2734375,-15.625
1771540079.1386561,31.25,27.34375,-40.52734375,29.296875,-43.9453125
1771540079.1425624,46.875,29.78515625,-22.4609375,39.55078125,47.36328125
1771540079.1464686,43.45703125,40.0390625,110.83984375,37.59765625,72.75390625
1771540079.150375,34.1796875,36.1328125,77.1484375,25.390625,-2.9296875
1771540079.1542811,22.94921875,20.5078125,44.921875,22.4609375,20.99609375
1771540079.1581874,14.16015625,17.08984375,68.359375,34.1796875,59.5703125
1771540079.1620936,20.99609375,20.5078125,64.453125,25.87890625,59.08203125
1771540079.164125,30.2734375,16.11328125,40.0390625,20.99609375,39.0625
1771540079.1680312,30.76171875,13.18359375,26.3671875,40.0390625,12.6953125
1771540079.1719375,23.92578125,20.99609375,52.24609375,27.83203125,20.5078125
1771540079.1758437,15.625,25.87890625,60.05859375,24.90234375,15.13671875
1771540079.17975,26.85546875,26.3671875,44.921875,41.50390625,20.01953125
1771540079.1836562,31.25,27.83203125,27.34375,41.9921875,39.55078125
1771540079.1875625,30.2734375,30.2734375,51.7578125,28.80859375,76.66015625
1771540079.1914687,29.296875,32.2265625,83.0078125,7.32421875,39.55078125
1771540079.195375,22.4609375,28.3203125,51.26953125,10.25390625,19.53125
1771540079.1992812,22.94921875,20.99609375,-23.92578125,24.90234375,31.25
1771540079.2031875,17.578125,23.4375,56.15234375,27.83203125,-1.46484375
1771540079.2070937,20.5078125,28.3203125,112.3046875,31.25,28.80859375
1771540079.209125,20.99609375,27.83203125,74.21875,31.25,46.38671875
1771540079.2130313,10.25390625,28.3203125,91.796875,39.0625,66.40625
1771540079.2169375,29.78515625,28.3203125,90.33203125,35.15625,74.21875
1771540079.2208438,33.203125,28.80859375,52.24609375,32.2265625,16.11328125
1771540079.22475,23.4375,28.3203125,29.78515625,27.83203125,-9.765625
1771540079.2286563,28.3203125,27.34375,31.25,26.3671875,44.43359375
1771540079.2325625,27.34375,27.34375,40.0390625,36.1328125,31.25
1771540079.2364688,33.69140625,27.34375,49.31640625,40.0390625,-44.43359375
1771540079.240375,34.66796875,23.4375,4.8828125,39.0625,-27.34375
1771540079.2442813,22.94921875,21.97265625,68.359375,28.80859375,23.92578125
1771540079.2481875,6.8359375,24.90234375,176.7578125,15.13671875,34.66796875
1771540079.2520938,21.484375,24.4140625,117.1875,15.13671875,22.94921875
1771540079.254125,20.01953125,21.97265625,78.61328125,32.71484375,14.6484375
1771540079.2580314,5.859375,25.87890625,114.2578125,25.390625,48.828125
1771540079.2619376,30.76171875,27.83203125,106.93359375,12.20703125,33.203125
1771540079.2658439,35.15625,24.4140625,60.546875,18.5546875,20.5078125
1771540079.26975,17.578125,24.90234375,52.24609375,27.83203125,57.12890625
1771540079.2736564,21.484375,23.92578125,45.8984375,32.71484375,52.24609375
1771540079.2775626,37.59765625,23.4375,64.453125,28.3203125,57.6171875
1771540079.2814689,31.73828125,20.01953125,18.06640625,29.296875,32.2265625
1771540079.285375,11.23046875,17.08984375,-41.9921875,20.5078125,-29.78515625
1771540079.2892814,12.6953125,20.5078125,68.359375,13.18359375,6.34765625
1771540079.2931876,22.4609375,20.99609375,76.66015625,21.484375,51.26953125
1771540079.2970939,35.64453125,20.5078125,-9.27734375,28.80859375,13.18359375
1771540079.299125,26.85546875,18.5546875,10.7421875,30.76171875,-32.71484375
1771540079.3030312,0.9765625,17.08984375,69.3359375,29.296875,26.85546875
1771540079.3069375,20.01953125,20.5078125,47.8515625,25.87890625,50.78125
1771540079.3108437,33.69140625,21.97265625,43.9453125,25.87890625,48.828125
1771540079.31475,19.53125,23.92578125,41.50390625,26.85546875,56.15234375
1771540079.3186562,13.671875,26.3671875,-2.44140625,26.3671875,11.71875
1771540079.3225625,8.30078125,25.390625,20.5078125,36.62109375,-11.71875
1771540079.3264687,33.203125,21.97265625,-18.06640625,49.8046875,6.34765625
1771540079.330375,41.9921875,21.97265625,-7.8125,51.7578125,32.71484375
1771540079.3342812,15.625,26.3671875,85.44921875,43.45703125,23.4375
1771540079.3381875,17.08984375,25.87890625,41.50390625,27.83203125,14.6484375
1771540079.3420937,34.66796875,24.4140625,17.08984375,32.2265625,2.9296875
1771540079.345125,40.0390625,25.87890625,24.90234375,40.0390625,27.83203125
1771540079.3490312,44.43359375,28.80859375,54.19921875,38.57421875,75.1953125
1771540079.3529375,43.9453125,25.87890625,18.06640625,46.38671875,58.10546875
1771540079.3568437,41.9921875,22.94921875,-3.90625,40.52734375,72.75390625
1771540079.36075,37.109375,26.3671875,60.546875,36.62109375,83.49609375
1771540079.3646562,31.73828125,27.83203125,35.15625,43.9453125,25.87890625
1771540079.3685625,25.87890625,26.85546875,-8.7890625,45.8984375,-4.8828125
1771540079.3724687,26.3671875,25.87890625,14.16015625,33.203125,33.203125
1771540079.376375,32.71484375,29.78515625,81.0546875,15.625,-19.53125
1771540079.3802812,34.66796875,31.25,94.23828125,24.90234375,-30.2734375
1771540079.3841875,28.80859375,29.296875,85.44921875,29.296875,36.62109375
1771540079.3880937,21.484375,28.80859375,100.09765625,29.78515625,18.5546875
1771540079.389125,28.3203125,29.78515625,116.69921875,31.73828125,45.41015625
1771540079.3930314,22.4609375,27.83203125,75.1953125,37.59765625,69.3359375
1771540079.3969376,18.06640625,25.87890625,28.80859375,44.43359375,68.359375
1771540079.4008439,32.71484375,27.34375,35.64453125,29.78515625,51.26953125
1771540079.40475,38.0859375,28.3203125,70.3125,19.04296875,71.77734375
1771540079.4086564,27.34375,28.80859375,35.64453125,37.59765625,123.046875
1771540079.4125626,28.80859375,28.3203125,-60.05859375,35.64453125,80.56640625
1771540079.4164689,22.94921875,27.83203125,-37.109375,16.11328125,52.24609375
1771540079.420375,17.578125,31.73828125,81.0546875,29.296875,48.33984375
1771540079.4242814,39.55078125,32.2265625,42.48046875,56.640625,41.015625
1771540079.4281876,54.6875,31.73828125,0.9765625,50.78125,24.4140625
1771540079.4320939,47.8515625,32.71484375,35.15625,44.921875,6.8359375
1771540079.435125,38.0859375,32.71484375,65.4296875,55.6640625,31.73828125
1771540079.4390314,31.25,30.2734375,24.90234375,54.6875,-0.9765625
1771540079.4429376,34.1796875,29.78515625,2.9296875,50.29296875,-2.44140625
1771540079.4468439,29.78515625,31.25,41.50390625,37.109375,-6.34765625
1771540079.45075,27.34375,30.76171875,60.546875,36.1328125,21.97265625
1771540079.4546564,40.52734375,25.87890625,2.9296875,46.38671875,58.10546875
1771540079.4585626,42.96875,20.01953125,-100.5859375,39.55078125,24.90234375
1771540079.4624689,40.0390625,24.4140625,4.39453125,32.2265625,44.921875
1771540079.466375,31.25,27.34375,96.6796875,26.3671875,69.82421875
1771540079.4702814,36.1328125,24.90234375,47.8515625,23.92578125,75.1953125
1771540079.4741876,31.73828125,23.92578125,29.296875,43.9453125,10.25390625
1771540079.4780939,26.85546875,21.484375,38.0859375,57.12890625,-66.40625
1771540079.494125,27.83203125,21.484375,68.359375,43.9453125,15.625
1771540079.4980311,22.4609375,22.4609375,71.77734375,29.296875,70.3125
1771540079.5019374,39.0625,23.4375,55.17578125,18.5546875,26.3671875
1771540079.5058436,56.15234375,25.390625,46.38671875,27.83203125,6.8359375
1771540079.50975,57.12890625,26.85546875,34.1796875,39.0625,-0.9765625
1771540079.5136561,26.85546875,24.90234375,12.6953125,47.36328125,-10.7421875
1771540079.5175624,43.45703125,26.85546875,28.3203125,39.55078125,30.2734375
1771540079.5214686,63.4765625,26.3671875,27.83203125,31.73828125,23.92578125
1771540079.525375,28.3203125,22.94921875,37.109375,42.96875,-17.578125
1771540079.5292811,15.625,19.53125,-5.37109375,38.0859375,23.4375
1771540079.5331874,17.578125,19.53125,17.578125,26.3671875,29.78515625
1771540079.5370936,36.62109375,25.390625,115.72265625,30.2734375,53.7109375
1771540079.540125,43.9453125,24.4140625,55.6640625,54.6875,70.3125
1771540079.5440311,38.57421875,21.484375,17.08984375,63.96484375,40.52734375
1771540079.5479374,46.875,22.94921875,40.52734375,56.15234375,14.16015625
1771540079.5518436,58.10546875,25.390625,35.15625,53.7109375,18.06640625
1771540079.55575,52.24609375,26.3671875,-0.48828125,45.41015625,44.43359375
1771540079.5596561,46.38671875,29.78515625,-23.4375,36.62109375,64.94140625
1771540079.5635624,57.12890625,30.2734375,2.9296875,41.50390625,51.26953125
1771540079.5674686,63.4765625,32.2265625,47.36328125,47.36328125,53.7109375
1771540079.571375,63.96484375,32.71484375,-31.25,52.734375,53.22265625
1771540079.5752811,35.15625,30.2734375,-110.3515625,41.9921875,-0.9765625
1771540079.5791874,25.87890625,36.1328125,9.765625,47.8515625,40.52734375
1771540079.5830936,45.41015625,39.0625,42.48046875,74.70703125,76.66015625
1771540079.585125,52.24609375,36.62109375,-61.5234375,66.89453125,36.62109375
1771540079.5890312,39.55078125,36.62109375,-74.70703125,22.4609375,34.1796875
1771540079.5929375,27.83203125,37.109375,-41.50390625,12.6953125,35.15625
1771540079.5968437,35.15625,37.59765625,-61.03515625,27.83203125,23.92578125
1771540079.60075,44.921875,40.0390625,-102.05078125,37.109375,29.78515625
1771540079.6046562,26.85546875,40.0390625,-156.25,39.0625,22.4609375
1771540079.6085625,19.53125,41.9921875,-183.10546875,34.66796875,-52.24609375
1771540079.6124687,39.0625,45.8984375,-150.87890625,27.83203125,-44.43359375
1771540079.616375,43.45703125,44.921875,-222.65625,45.8984375,52.24609375
1771540079.6202812,44.43359375,46.38671875,-232.421875,55.17578125,50.29296875
1771540079.6241875,35.15625,47.36328125,-149.90234375,52.734375,39.0625
1771540079.6280937,39.55078125,45.8984375,-194.82421875,63.4765625,21.484375
1771540079.629125,36.1328125,45.8984375,-223.6328125,54.6875,20.5078125
1771540079.6330314,36.1328125,45.8984375,-206.54296875,49.8046875,22.4609375
1771540079.6369376,38.0859375,48.828125,-193.84765625,57.12890625,24.4140625
1771540079.6408439,25.390625,49.31640625,-233.88671875,60.05859375,45.8984375
1771540079.64475,40.0390625,46.875,-252.9296875,48.33984375,48.828125
1771540079.6486564,47.36328125,46.875,-245.60546875,61.5234375,13.671875
1771540079.6525626,33.203125,46.875,-228.02734375,64.453125,0.48828125
1771540079.6564689,13.671875,41.9921875,-247.0703125,41.50390625,13.671875
1771540079.660375,17.578125,40.52734375,-266.6015625,59.5703125,1.953125
1771540079.6642814,30.2734375,44.43359375,-211.9140625,54.19921875,16.6015625
1771540079.6681876,31.73828125,45.8984375,-220.21484375,29.296875,8.7890625
1771540079.6720939,28.3203125,42.48046875,-284.1796875,44.921875,5.859375
1771540079.675125,31.73828125,38.0859375,-262.6953125,59.08203125,38.57421875
1771540079.6790311,27.34375,38.57421875,-191.40625,68.84765625,37.109375
1771540079.6829374,24.90234375,38.57421875,-241.2109375,72.265625,47.8515625
1771540079.6868436,22.94921875,40.0390625,-284.1796875,42.48046875,75.1953125
1771540079.69075,19.53125,39.55078125,-247.55859375,64.94140625,42.48046875
1771540079.6946561,25.390625,38.57421875,-244.140625,89.35546875,62.01171875
1771540079.6985624,24.90234375,40.52734375,-262.6953125,55.6640625,96.19140625
1771540079.7024686,26.85546875,37.109375,-344.7265625,24.90234375,42.48046875
1771540079.706375,22.94921875,37.109375,-332.51953125,50.29296875,29.78515625
1771540079.7102811,18.06640625,41.015625,-259.27734375,70.80078125,25.87890625
1771540079.7141874,25.87890625,43.9453125,-342.7734375,52.734375,9.765625
1771540079.7180936,29.296875,48.33984375,-370.1171875,52.734375,60.546875
1771540079.719125,13.671875,43.9453125,-347.16796875,49.8046875,69.82421875
1771540079.7230313,16.6015625,38.57421875,-360.3515625,71.2890625,19.04296875
1771540079.7269375,22.94921875,35.15625,-395.99609375,110.3515625,38.0859375
1771540079.7308438,22.94921875,35.64453125,-411.1328125,76.171875,34.1796875
1771540079.73475,27.83203125,38.57421875,-395.5078125,44.43359375,-5.37109375
1771540079.7386563,21.97265625,37.59765625,-382.32421875,72.75390625,53.7109375
1771540079.7425625,21.97265625,39.0625,-422.8515625,79.58984375,34.66796875
1771540079.7464688,32.71484375,32.71484375,-487.3046875,113.76953125,15.13671875
1771540079.750375,1.46484375,29.296875,-415.0390625,92.7734375,48.33984375
1771540079.7542813,-2.44140625,34.1796875,-382.8125,44.921875,20.5078125
1771540079.7581875,25.390625,30.76171875,-473.14453125,83.49609375,-33.69140625
1771540079.7620938,29.78515625,31.25,-507.8125,83.0078125,-73.2421875
1771540079.765125,15.13671875,34.1796875,-506.34765625,58.10546875,-36.1328125
1771540079.7690313,11.23046875,36.62109375,-523.4375,70.3125,22.94921875
1771540079.7729375,25.87890625,33.69140625,-544.43359375,73.2421875,40.52734375
1771540079.7768438,26.85546875,25.390625,-559.08203125,87.890625,12.6953125
1771540079.78075,20.5078125,21.97265625,-569.82421875,103.02734375,-17.08984375
1771540079.7846563,16.11328125,25.87890625,-585.44921875,102.5390625,-5.859375
1771540079.7885625,12.20703125,30.2734375,-612.79296875,102.5390625,60.546875
1771540079.7924688,16.11328125,30.76171875,-605.46875,94.7265625,59.08203125
1771540079.796375,14.6484375,32.71484375,-534.1796875,82.03125,-1.953125
1771540079.8002813,9.27734375,33.69140625,-541.50390625,80.56640625,-26.85546875
1771540079.8041875,11.23046875,32.71484375,-540.0390625,84.47265625,31.25
1771540079.8080938,14.6484375,35.15625,-506.34765625,97.16796875,61.03515625
1771540079.810125,26.85546875,36.1328125,-507.8125,98.6328125,41.9921875
1771540079.8140314,21.484375,34.1796875,-538.0859375,100.09765625,43.45703125
1771540079.8179376,15.13671875,34.1796875,-544.921875,126.46484375,40.52734375
1771540079.8218439,12.20703125,33.69140625,-524.90234375,109.86328125,70.80078125
1771540079.82575,18.06640625,32.2265625,-564.453125,72.265625,66.40625
1771540079.8296564,26.3671875,29.78515625,-657.71484375,76.171875,20.99609375
1771540079.8335626,16.6015625,29.296875,-687.01171875,84.47265625,32.71484375
1771540079.8374689,16.11328125,33.69140625,-624.51171875,83.984375,8.7890625
1771540079.841375,19.53125,37.109375,-630.37109375,109.375,-9.765625
1771540079.8452814,20.01953125,35.15625,-666.50390625,147.4609375,26.85546875
1771540079.8491876,20.01953125,32.71484375,-670.8984375,112.3046875,11.71875
1771540079.8530939,13.18359375,31.73828125,-633.7890625,92.7734375,-8.7890625
1771540079.870125,12.20703125,31.73828125,-625.0,82.03125,3.41796875
1771540079.8740313,21.484375,29.78515625,-667.96875,97.65625,31.25
1771540079.8779376,12.20703125,32.2265625,-652.83203125,148.4375,70.80078125
1771540079.8818438,22.4609375,36.62109375,-629.8828125,89.84375,70.3125
1771540079.88575,35.64453125,35.15625,-674.8046875,57.6171875,22.94921875
1771540079.8896563,29.78515625,35.15625,-721.6796875,72.265625,13.18359375
1771540079.8935626,20.99609375,35.64453125,-711.42578125,58.10546875,40.52734375
1771540079.8974688,12.20703125,36.1328125,-672.36328125,71.77734375,50.29296875
1771540079.901375,18.06640625,31.25,-690.4296875,110.83984375,44.43359375
1771540079.9052813,19.53125,28.3203125,-746.58203125,111.81640625,23.92578125
1771540079.9091876,18.06640625,31.25,-708.984375,125.0,20.99609375
1771540079.9130938,14.6484375,29.78515625,-682.12890625,134.765625,-14.16015625
1771540079.914125,20.99609375,26.3671875,-741.2109375,122.0703125,14.16015625
1771540079.9180312,15.625,23.4375,-791.9921875,125.9765625,24.90234375
1771540079.9219375,10.25390625,26.85546875,-782.2265625,97.16796875,1.953125
1771540079.9258437,0.9765625,30.2734375,-770.5078125,75.1953125,46.38671875
1771540079.92975,2.9296875,28.80859375,-793.9453125,119.140625,34.66796875
1771540079.9336562,22.94921875,28.3203125,-817.3828125,129.8828125,29.296875
1771540079.9375625,23.92578125,29.78515625,-800.29296875,84.9609375,36.62109375
1771540079.9414687,17.578125,30.2734375,-760.7421875,98.14453125,16.6015625
1771540079.945375,22.94921875,29.78515625,-772.94921875,124.0234375,57.6171875
1771540079.9492812,36.62109375,29.78515625,-791.015625,158.69140625,27.83203125
1771540079.9531875,42.96875,33.203125,-729.4921875,145.5078125,-26.3671875
1771540079.9570937,34.66796875,36.62109375,-702.63671875,103.02734375,104.00390625
1771540079.961125,27.83203125,38.0859375,-725.5859375,95.21484375,101.07421875
1771540079.9650311,33.203125,39.55078125,-693.359375,96.6796875,58.10546875
1771540079.9689374,31.25,40.52734375,-670.41015625,104.00390625,52.734375
1771540079.9728436,26.85546875,43.45703125,-647.94921875,133.7890625,-20.5078125
1771540079.97675,28.3203125,39.55078125,-613.28125,161.62109375,30.76171875
1771540079.9806561,13.671875,34.66796875,-595.21484375,125.48828125,54.19921875
1771540079.9845624,6.8359375,35.15625,-554.19921875,89.35546875,17.08984375
1771540079.9884686,17.08984375,34.1796875,-504.39453125,96.19140625,13.18359375
1771540079.992375,5.37109375,28.80859375,-513.18359375,104.00390625,32.71484375
1771540079.9962811,8.7890625,25.87890625,-445.80078125,104.98046875,25.390625
1771540080.0001874,22.4609375,27.34375,-328.125,121.09375,35.64453125
1771540080.0040936,29.78515625,28.80859375,-320.80078125,148.4375,63.4765625
1771540080.004125,27.34375,34.1796875,-298.828125,141.6015625,44.43359375
1771540080.0080314,28.3203125,41.015625,-229.98046875,97.16796875,56.640625
1771540080.0119376,37.59765625,43.9453125,-204.58984375,103.515625,11.71875
1771540080.0158439,46.38671875,42.48046875,-201.171875,103.515625,-6.34765625
1771540080.01975,34.1796875,43.45703125,-178.7109375,104.98046875,34.66796875
1771540080.0236564,11.23046875,44.43359375,-147.4609375,149.4140625,-12.6953125
1771540080.0275626,18.5546875,47.36328125,-106.4453125,120.60546875,8.30078125
1771540080.0314689,26.85546875,50.29296875,-104.4921875,79.1015625,59.08203125
1771540080.035375,27.83203125,43.9453125,-138.671875,99.609375,-19.53125
1771540080.0392814,27.34375,43.9453125,-61.03515625,95.703125,-49.31640625
1771540080.0431876,17.578125,48.33984375,8.30078125,109.86328125,-3.41796875
1771540080.0470939,19.04296875,48.828125,-20.5078125,127.44140625,-26.3671875
1771540080.050125,29.296875,50.29296875,-24.4140625,136.23046875,-62.5
1771540080.0540311,32.71484375,49.8046875,-1.953125,135.25390625,-23.4375
1771540080.0579374,32.71484375,47.36328125,10.7421875,155.76171875,-14.16015625
1771540080.0618436,41.9921875,47.8515625,14.6484375,109.375,-27.83203125
1771540080.06575,45.8984375,45.8984375,26.85546875,69.3359375,63.96484375
1771540080.0696561,25.390625,41.015625,15.13671875,109.86328125,35.64453125
1771540080.0735624,21.97265625,41.50390625,9.765625,90.8203125,-56.640625
1771540080.0774686,46.875,41.9921875,35.64453125,93.75,14.16015625
1771540080.081375,47.36328125,40.52734375,71.2890625,119.140625,68.359375
1771540080.0852811,25.87890625,40.52734375,80.56640625,118.1640625,6.34765625
1771540080.0891874,11.71875,41.015625,83.0078125,107.91015625,19.04296875
1771540080.0930936,29.296875,36.62109375,65.4296875,109.86328125,91.30859375
1771540080.094125,50.29296875,37.59765625,89.84375,111.81640625,78.125
1771540080.0980313,35.15625,41.9921875,130.859375,121.09375,97.65625
1771540080.1019375,28.3203125,38.57421875,101.07421875,145.99609375,69.82421875
1771540080.1058438,36.62109375,37.59765625,101.5625,108.3984375,17.08984375
1771540080.10975,45.8984375,40.52734375,118.1640625,85.44921875,48.33984375
1771540080.1136563,49.31640625,39.0625,96.6796875,109.86328125,21.484375
1771540080.1175625,38.57421875,38.0859375,75.1953125,75.68359375,-26.3671875
1771540080.1214688,38.0859375,36.62109375,80.078125,49.8046875,5.859375
1771540080.125375,41.9921875,38.57421875,124.51171875,68.359375,39.55078125
1771540080.1292813,41.9921875,38.0859375,115.234375,104.98046875,2.9296875
1771540080.1331875,33.69140625,34.1796875,78.125,87.890625,-36.62109375
1771540080.1370938,29.78515625,34.66796875,100.09765625,73.2421875,38.57421875
1771540080.139125,40.0390625,33.69140625,131.8359375,66.40625,100.5859375
1771540080.1430314,32.71484375,32.2265625,111.81640625,70.3125,109.86328125
1771540080.1469376,21.97265625,33.203125,93.75,83.49609375,89.84375
1771540080.1508439,34.1796875,30.2734375,87.890625,112.3046875,-15.625
1771540080.15475,43.45703125,31.25,93.26171875,124.51171875,-64.94140625
1771540080.1586564,26.85546875,30.76171875,84.47265625,83.49609375,-1.46484375
1771540080.1625626,16.6015625,30.76171875,51.26953125,55.17578125,41.50390625
1771540080.1664689,10.7421875,33.69140625,66.89453125,62.98828125,21.484375
1771540080.170375,24.4140625,37.109375,119.62890625,78.125,10.7421875
1771540080.1742814,34.66796875,37.109375,103.02734375,97.16796875,30.2734375
1771540080.1781876,30.76171875,36.1328125,86.9140625,90.8203125,35.15625
1771540080.1820939,37.59765625,34.66796875,84.9609375,83.0078125,16.11328125
1771540080.185125,31.73828125,36.1328125,93.75,106.4453125,-4.8828125
1771540080.1890314,24.4140625,36.62109375,95.21484375,110.3515625,60.05859375
1771540080.1929376,33.69140625,32.71484375,66.89453125,53.22265625,54.6875
1771540080.1968439,29.296875,37.109375,94.7265625,39.0625,69.3359375
1771540080.20075,35.15625,38.0859375,108.88671875,121.58203125,99.12109375
1771540080.2046564,38.0859375,34.66796875,66.40625,74.70703125,19.04296875
1771540080.2085626,29.78515625,33.69140625,53.7109375,29.78515625,-1.46484375
1771540080.2124689,32.2265625,38.57421875,112.3046875,58.59375,63.96484375
1771540080.216375,33.203125,41.50390625,117.67578125,60.546875,71.2890625
1771540080.2202814,39.0625,38.57421875,101.07421875,70.3125,78.125
1771540080.2241876,34.1796875,38.0859375,99.609375,79.1015625,87.40234375
1771540080.2280939,26.85546875,40.52734375,90.8203125,113.28125,16.11328125
1771540080.244125,30.2734375,46.38671875,86.42578125,112.79296875,0.9765625
1771540080.2480311,55.6640625,46.38671875,83.49609375,78.61328125,49.31640625
1771540080.2519374,56.640625,39.55078125,90.33203125,68.359375,66.40625
1771540080.2558436,29.296875,38.0859375,97.65625,29.78515625,67.3828125
1771540080.25975,24.4140625,35.15625,92.7734375,76.171875,-9.765625
1771540080.2636561,27.34375,29.296875,67.3828125,78.61328125,0.48828125
1771540080.2675624,7.32421875,28.3203125,72.265625,67.3828125,82.03125
1771540080.2714686,-6.34765625,27.34375,119.140625,57.6171875,54.6875
1771540080.275375,-11.71875,21.97265625,106.93359375,24.4140625,13.18359375
1771540080.2792811,-2.9296875,24.4140625,98.14453125,45.41015625,59.08203125
1771540080.2831874,10.25390625,29.78515625,106.4453125,42.96875,51.26953125
1771540080.2870936,15.625,29.78515625,103.515625,43.9453125,46.38671875
1771540080.289125,11.71875,25.87890625,86.42578125,63.4765625,85.44921875
1771540080.2930312,14.6484375,24.90234375,75.68359375,117.1875,41.50390625
1771540080.2969375,34.66796875,29.296875,99.12109375,101.5625,22.94921875
1771540080.3008437,33.203125,31.25,98.14453125,29.296875,41.50390625
1771540080.30475,22.94921875,28.80859375,59.5703125,38.57421875,43.9453125
1771540080.3086562,23.92578125,26.85546875,46.38671875,75.1953125,8.7890625
1771540080.3125625,28.3203125,27.83203125,88.8671875,45.41015625,-36.62109375
1771540080.3164687,25.87890625,28.3203125,113.28125,43.9453125,0.48828125
1771540080.320375,12.20703125,25.87890625,78.61328125,65.4296875,36.62109375
1771540080.3242812,4.39453125,23.92578125,62.98828125,72.265625,23.92578125
1771540080.3281875,4.8828125,28.3203125,118.1640625,91.30859375,44.43359375
1771540080.3320937,18.5546875,29.296875,114.2578125,72.75390625,-0.48828125
1771540080.335125,18.5546875,27.34375,103.02734375,59.5703125,-15.625
1771540080.3390312,20.5078125,28.80859375,122.0703125,66.89453125,63.96484375
1771540080.3429375,22.4609375,30.2734375,125.48828125,73.2421875,61.03515625
1771540080.3468437,12.6953125,31.73828125,128.90625,100.09765625,36.62109375
1771540080.35075,13.671875,31.25,119.140625,116.2109375,-5.859375
1771540080.3546562,15.625,30.76171875,111.328125,144.04296875,-35.15625
1771540080.3585625,14.6484375,31.25,113.28125,35.64453125,-16.6015625
1771540080.3624687,27.34375,32.2265625,125.48828125,-12.6953125,29.296875
1771540080.366375,49.31640625,29.296875,101.5625,63.96484375,13.18359375
1771540080.3702812,45.8984375,28.80859375,111.81640625,67.87109375,26.3671875
1771540080.3741875,18.06640625,33.203125,169.921875,49.8046875,33.69140625
1771540080.3780937,21.97265625,33.203125,168.45703125,78.61328125,-29.78515625
1771540080.379125,42.96875,30.2734375,173.828125,84.47265625,33.203125
1771540080.3830314,44.43359375,30.2734375,199.70703125,62.5,72.265625
1771540080.3869376,42.48046875,33.203125,218.75,81.54296875,86.9140625
1771540080.3908439,37.109375,34.66796875,227.5390625,119.140625,96.19140625
1771540080.39475,31.25,31.25,252.9296875,140.625,68.359375
1771540080.3986564,35.64453125,28.80859375,272.4609375,84.47265625,66.89453125
1771540080.4025626,13.18359375,29.78515625,301.7578125,83.49609375,10.25390625
1771540080.4064689,3.90625,29.78515625,325.1953125,105.95703125,19.04296875
1771540080.410375,31.73828125,31.25,324.21875,117.67578125,67.3828125
1771540080.4142814,21.97265625,34.1796875,361.81640625,98.6328125,45.41015625
1771540080.4181876,25.390625,35.15625,384.765625,96.19140625,64.94140625
1771540080.4220939,37.109375,33.69140625,378.90625,138.18359375,71.2890625
1771540080.425125,32.71484375,34.66796875,392.08984375,91.30859375,78.125
1771540080.4290311,31.73828125,35.64453125,401.85546875,93.26171875,33.69140625
1771540080.4329374,22.94921875,35.15625,400.390625,147.94921875,16.11328125
1771540080.4368436,15.13671875,40.52734375,408.69140625,106.4453125,72.265625
1771540080.44075,17.08984375,42.96875,418.45703125,81.0546875,46.875
1771540080.4446561,27.34375,42.48046875,425.78125,72.75390625,33.203125
1771540080.4485624,27.34375,45.41015625,445.3125,58.10546875,82.03125
1771540080.4524686,27.34375,42.48046875,435.05859375,112.3046875,67.3828125
1771540080.456375,22.94921875,41.50390625,450.68359375,94.7265625,20.5078125
1771540080.4602811,20.99609375,46.875,499.51171875,69.3359375,19.04296875
1771540080.4641874,50.78125,49.31640625,489.74609375,69.82421875,42.96875
1771540080.4680936,21.484375,51.26953125,471.19140625,89.84375,56.15234375
1771540080.469125,-7.8125,53.22265625,474.609375,72.265625,20.99609375
1771540080.4730313,23.4375,54.6875,484.86328125,82.03125,9.27734375
1771540080.4769375,27.34375,47.8515625,464.35546875,147.4609375,13.18359375
1771540080.4808438,19.53125,43.45703125,445.80078125,58.10546875,1.46484375
1771540080.48475,16.11328125,49.8046875,452.63671875,55.6640625,1.46484375
1771540080.4886563,22.94921875,51.7578125,442.3828125,81.0546875,30.2734375
1771540080.4925625,41.50390625,46.875,413.0859375,98.14453125,17.578125
1771540080.4964688,44.43359375,45.8984375,406.25,131.8359375,6.34765625
1771540080.500375,28.3203125,48.828125,435.546875,43.45703125,20.99609375
1771540080.5042813,31.25,50.29296875,440.91796875,55.6640625,-0.48828125
1771540080.5081875,43.9453125,52.24609375,434.08203125,81.0546875,9.27734375
1771540080.5120938,42.96875,54.6875,430.17578125,79.58984375,23.4375
1771540080.515125,36.62109375,57.12890625,433.59375,89.35546875,19.04296875
1771540080.5190313,29.78515625,56.15234375,424.8046875,74.70703125,-4.39453125
1771540080.5229375,33.69140625,53.7109375,414.55078125,76.171875,3.90625
1771540080.5268438,38.57421875,56.640625,427.24609375,102.5390625,8.30078125
1771540080.53075,41.9921875,57.6171875,434.5703125,140.13671875,40.52734375
1771540080.5346563,37.59765625,53.22265625,424.31640625,94.23828125,55.6640625
1771540080.5385625,41.9921875,50.78125,413.57421875,42.96875,62.01171875
1771540080.5424688,51.26953125,54.19921875,423.33984375,62.01171875,52.24609375
1771540080.546375,47.36328125,57.12890625,449.21875,84.47265625,12.6953125
1771540080.5502813,41.9921875,53.7109375,444.3359375,65.91796875,48.33984375
1771540080.5541875,36.62109375,49.31640625,434.5703125,62.01171875,46.875
1771540080.5580938,51.26953125,48.828125,430.6640625,79.58984375,20.99609375
1771540080.559125,51.26953125,47.36328125,426.26953125,87.890625,-23.92578125
1771540080.5630312,23.92578125,44.921875,416.50390625,79.58984375,-2.44140625
1771540080.5669374,17.08984375,44.43359375,409.1796875,69.3359375,33.69140625
1771540080.5708437,38.0859375,43.9453125,409.1796875,94.7265625,21.97265625
1771540080.57475,47.8515625,43.9453125,393.5546875,95.703125,-2.44140625
1771540080.5786562,34.1796875,41.9921875,381.34765625,87.40234375,15.625
1771540080.5825624,30.2734375,38.0859375,361.328125,86.42578125,53.7109375
1771540080.5864687,40.52734375,41.50390625,384.27734375,96.19140625,58.10546875
1771540080.590375,40.0390625,47.36328125,398.92578125,103.02734375,38.0859375
1771540080.5942812,33.69140625,48.33984375,370.1171875,62.98828125,53.22265625
1771540080.5981874,23.4375,46.38671875,359.375,33.69140625,53.7109375
1771540080.6020937,44.43359375,45.8984375,354.98046875,51.26953125,-12.20703125
1771540080.619125,62.01171875,45.8984375,340.33203125,80.56640625,-13.18359375
1771540080.6230311,28.3203125,45.41015625,317.3828125,90.33203125,-17.578125
1771540080.6269374,22.4609375,44.921875,319.3359375,89.35546875,-9.765625
1771540080.6308436,40.52734375,45.41015625,322.75390625,72.265625,29.296875
1771540080.63475,42.96875,44.921875,303.22265625,91.30859375,30.76171875
1771540080.6386561,41.50390625,41.50390625,286.62109375,106.93359375,50.29296875
1771540080.6425624,33.203125,38.57421875,279.78515625,68.84765625,44.43359375
1771540080.6464686,27.83203125,41.015625,285.15625,60.05859375,20.01953125
1771540080.650375,47.36328125,42.96875,287.109375,73.2421875,30.2734375
1771540080.6542811,56.640625,39.55078125,244.140625,103.02734375,54.19921875
1771540080.6581874,32.71484375,41.50390625,241.2109375,83.49609375,47.8515625
1771540080.6620936,21.97265625,47.36328125,272.4609375,27.34375,34.66796875
1771540080.664125,41.9921875,47.36328125,245.60546875,52.24609375,13.671875
1771540080.6680312,46.38671875,43.9453125,228.02734375,67.3828125,10.7421875
1771540080.6719375,36.1328125,41.50390625,237.3046875,60.546875,22.4609375
1771540080.6758437,34.1796875,43.9453125,234.375,38.57421875,58.10546875
1771540080.67975,41.015625,42.48046875,221.6796875,73.73046875,96.6796875
1771540080.6836562,35.64453125,37.59765625,199.21875,128.41796875,15.625
1771540080.6875625,35.64453125,38.57421875,201.171875,74.21875,-53.7109375
1771540080.6914687,39.55078125,42.96875,212.890625,6.8359375,2.9296875
1771540080.695375,38.57421875,41.015625,194.3359375,24.90234375,62.5
1771540080.6992812,44.43359375,36.1328125,161.1328125,42.48046875,43.9453125
1771540080.7031875,37.59765625,40.0390625,178.22265625,54.6875,-15.13671875
1771540080.7070937,34.66796875,42.96875,193.84765625,78.61328125,-24.4140625
1771540080.710125,30.2734375,41.015625,186.5234375,81.0546875,17.578125
1771540080.7140312,39.0625,39.55078125,184.5703125,61.5234375,35.64453125
1771540080.7179375,51.26953125,38.0859375,178.7109375,95.703125,50.29296875
1771540080.7218437,37.109375,37.109375,168.9453125,104.00390625,53.7109375
1771540080.72575,35.64453125,35.64453125,160.64453125,38.0859375,73.73046875
1771540080.7296562,60.546875,35.15625,150.390625,60.05859375,55.6640625
1771540080.7335625,62.98828125,33.203125,145.5078125,78.125,-30.2734375
1771540080.7374687,38.0859375,34.1796875,156.25,67.3828125,30.76171875
1771540080.741375,23.92578125,35.15625,127.44140625,72.75390625,67.3828125
