timestamps,TP9,AF7,AF8,TP10,Right AUX
1771540454.079125,68.359375,35.15625,-49.31640625,66.40625,35.15625
1771540454.0830312,74.21875,35.15625,-49.8046875,60.05859375,5.859375
1771540454.0869374,79.1015625,38.57421875,-50.29296875,58.59375,5.859375
1771540454.0908437,65.4296875,38.0859375,-47.36328125,61.03515625,12.20703125
1771540454.09475,62.5,34.66796875,-43.45703125,56.15234375,49.31640625
1771540454.0986562,76.171875,32.71484375,-48.828125,53.7109375,74.70703125
1771540454.1025624,81.0546875,32.2265625,-44.43359375,64.453125,93.75
1771540454.1064687,74.70703125,33.69140625,-34.1796875,68.359375,65.4296875
1771540454.110375,71.77734375,28.80859375,-46.38671875,67.87109375,-1.953125
1771540454.1142812,76.66015625,27.34375,-41.9921875,67.87109375,33.69140625
1771540454.1181874,77.63671875,33.69140625,-26.85546875,66.40625,72.75390625
1771540454.1220937,75.68359375,34.66796875,-36.1328125,65.4296875,32.2265625
1771540454.124125,70.3125,31.25,-43.45703125,63.96484375,28.3203125
1771540454.1280313,66.40625,32.71484375,-33.203125,59.08203125,102.05078125
1771540454.1319375,69.82421875,34.66796875,-29.78515625,48.33984375,106.4453125
1771540454.1358438,65.91796875,30.2734375,-39.55078125,46.875,74.21875
1771540454.13975,58.10546875,29.296875,-46.875,50.29296875,-6.34765625
1771540454.1436563,67.3828125,31.25,-47.8515625,52.734375,-59.5703125
1771540454.1475625,75.1953125,31.25,-43.9453125,56.15234375,-30.76171875
1771540454.1514688,68.359375,31.73828125,-44.43359375,53.22265625,4.8828125
1771540454.155375,64.94140625,30.76171875,-53.22265625,49.8046875,34.1796875
1771540454.1592813,67.3828125,29.78515625,-35.15625,56.640625,26.3671875
1771540454.1631875,71.2890625,30.2734375,-21.484375,68.84765625,42.48046875
1771540454.1670938,74.21875,32.2265625,-32.2265625,73.2421875,82.51953125
1771540454.170125,69.3359375,28.3203125,-39.0625,68.84765625,55.17578125
1771540454.1740313,58.59375,25.87890625,-31.73828125,63.96484375,62.01171875
1771540454.1779375,63.4765625,27.83203125,-23.92578125,63.4765625,58.59375
1771540454.1818438,68.359375,25.87890625,-33.69140625,57.6171875,29.78515625
1771540454.18575,49.8046875,24.90234375,-38.57421875,51.7578125,-7.8125
1771540454.1896563,43.45703125,29.78515625,-36.62109375,50.78125,-52.24609375
1771540454.1935625,47.8515625,31.73828125,-28.80859375,48.828125,8.7890625
1771540454.1974688,43.9453125,27.83203125,-40.52734375,41.9921875,48.33984375
1771540454.201375,40.52734375,28.3203125,-48.33984375,33.69140625,57.12890625
1771540454.2052813,39.55078125,33.69140625,-29.78515625,26.85546875,51.26953125
1771540454.2091875,38.57421875,35.15625,-24.90234375,30.76171875,38.0859375
1771540454.2130938,41.015625,33.69140625,-25.87890625,36.62109375,13.671875
1771540454.213125,40.0390625,35.64453125,-26.3671875,31.73828125,15.625
1771540454.2170312,31.73828125,35.15625,-22.94921875,27.83203125,54.6875
1771540454.2209375,31.73828125,33.69140625,-24.4140625,30.2734375,94.23828125
1771540454.2248437,38.0859375,33.69140625,-31.25,33.203125,57.6171875
1771540454.22875,40.52734375,31.25,-26.85546875,35.15625,11.71875
1771540454.2326562,35.15625,29.78515625,-31.73828125,35.15625,-14.16015625
1771540454.2365625,34.66796875,28.3203125,-33.69140625,39.55078125,10.7421875
1771540454.2404687,46.875,31.73828125,-41.50390625,46.875,28.3203125
1771540454.244375,47.8515625,39.0625,-32.71484375,48.33984375,9.27734375
1771540454.2482812,45.41015625,39.0625,-15.13671875,42.48046875,5.37109375
1771540454.2521875,45.41015625,35.64453125,-24.4140625,40.0390625,18.5546875
1771540454.2560937,42.48046875,34.66796875,-20.5078125,43.9453125,59.08203125
1771540454.259125,49.31640625,35.15625,-17.08984375,36.62109375,55.6640625
1771540454.2630312,46.38671875,34.66796875,-23.92578125,31.25,25.87890625
1771540454.2669375,37.109375,33.69140625,-28.3203125,34.66796875,23.92578125
1771540454.2708437,37.59765625,36.62109375,-22.4609375,34.1796875,9.27734375
1771540454.27475,38.57421875,37.109375,-16.11328125,30.76171875,-16.11328125
1771540454.2786562,38.0859375,34.1796875,-20.5078125,32.71484375,1.46484375
1771540454.2825625,36.1328125,32.2265625,-30.76171875,36.1328125,73.2421875
1771540454.2864687,36.1328125,30.76171875,-30.2734375,31.25,117.1875
1771540454.290375,41.50390625,37.109375,-10.7421875,30.2734375,76.66015625
1771540454.2942812,40.52734375,40.52734375,-9.765625,32.2265625,31.73828125
1771540454.2981875,36.62109375,37.59765625,-21.484375,28.80859375,37.109375
1771540454.3020937,36.62109375,35.64453125,-21.97265625,24.90234375,51.26953125
1771540454.303125,41.9921875,36.62109375,-11.23046875,27.34375,103.515625
1771540454.3070312,42.48046875,36.62109375,-15.13671875,32.2265625,97.65625
1771540454.3109374,37.59765625,34.1796875,-25.87890625,30.76171875,11.71875
1771540454.3148437,29.296875,33.203125,-19.53125,28.80859375,-19.04296875
1771540454.31875,32.2265625,32.71484375,-11.23046875,33.69140625,11.23046875
1771540454.3226562,38.57421875,33.69140625,-20.99609375,38.57421875,40.0390625
1771540454.3265624,37.109375,31.25,-36.62109375,29.296875,20.5078125
1771540454.3304687,30.76171875,30.76171875,-29.296875,23.92578125,-35.15625
1771540454.334375,31.73828125,35.15625,-12.20703125,28.3203125,-3.41796875
1771540454.3382812,35.64453125,32.71484375,-20.01953125,25.87890625,-10.7421875
1771540454.3421874,32.71484375,34.1796875,-24.4140625,20.5078125,-5.37109375
1771540454.3460937,27.83203125,39.55078125,-14.6484375,21.484375,32.71484375
1771540454.364125,32.71484375,41.50390625,-12.20703125,28.3203125,28.80859375
1771540454.3680313,36.1328125,40.0390625,-16.6015625,29.296875,33.203125
1771540454.3719375,39.55078125,39.55078125,-20.5078125,30.2734375,25.87890625
1771540454.3758438,38.0859375,39.55078125,-12.6953125,25.390625,60.546875
1771540454.37975,27.83203125,37.59765625,-10.25390625,19.53125,78.125
1771540454.3836563,33.203125,34.1796875,-24.4140625,26.3671875,37.109375
1771540454.3875625,34.1796875,35.15625,-20.5078125,29.296875,61.03515625
1771540454.3914688,31.73828125,39.55078125,-4.8828125,26.85546875,31.25
1771540454.395375,28.80859375,39.0625,-5.859375,25.87890625,6.34765625
1771540454.3992813,28.3203125,40.52734375,-11.23046875,22.4609375,39.0625
1771540454.4031875,32.71484375,41.015625,-10.25390625,24.4140625,0.48828125
1771540454.4070938,27.83203125,40.52734375,-3.41796875,22.94921875,17.578125
1771540454.409125,17.08984375,40.52734375,-6.34765625,21.484375,50.29296875
1771540454.4130313,17.578125,36.1328125,-20.99609375,17.08984375,20.5078125
1771540454.4169376,23.4375,38.57421875,-17.578125,17.08984375,24.4140625
1771540454.4208438,22.94921875,40.52734375,-4.8828125,26.85546875,20.01953125
1771540454.42475,22.4609375,34.66796875,-14.6484375,23.92578125,16.6015625
1771540454.4286563,25.390625,34.66796875,-27.83203125,21.484375,21.484375
1771540454.4325626,30.2734375,38.0859375,-20.99609375,28.80859375,9.27734375
1771540454.4364688,35.15625,36.62109375,-9.765625,28.3203125,-7.8125
1771540454.440375,41.9921875,36.1328125,-17.08984375,19.53125,0.9765625
1771540454.4442813,37.59765625,35.15625,-28.80859375,12.20703125,63.96484375
1771540454.4481876,32.2265625,34.66796875,-17.08984375,12.20703125,40.0390625
1771540454.4520938,33.203125,39.55078125,-10.25390625,14.6484375,45.41015625
1771540454.454125,26.85546875,37.109375,-20.5078125,12.6953125,91.796875
1771540454.4580312,10.25390625,33.69140625,-17.08984375,10.25390625,91.796875
1771540454.4619374,1.953125,36.1328125,-7.32421875,12.6953125,78.61328125
1771540454.4658437,6.8359375,34.1796875,-14.16015625,18.06640625,21.484375
1771540454.46975,10.25390625,33.203125,-18.06640625,26.3671875,36.62109375
1771540454.4736562,11.23046875,34.1796875,-18.5546875,30.2734375,102.05078125
1771540454.4775624,19.53125,37.59765625,-12.20703125,29.296875,62.01171875
1771540454.4814687,28.80859375,39.0625,-3.41796875,31.25,1.953125
1771540454.485375,20.5078125,33.203125,-14.6484375,28.3203125,30.76171875
1771540454.4892812,1.46484375,29.296875,-18.5546875,15.625,42.96875
1771540454.4931874,19.04296875,34.1796875,-3.41796875,15.13671875,30.2734375
1771540454.4970937,30.2734375,34.1796875,-8.7890625,22.94921875,7.8125
1771540454.513125,32.2265625,34.1796875,-16.6015625,22.4609375,-6.8359375
1771540454.5170312,32.2265625,35.64453125,-11.23046875,15.625,47.8515625
1771540454.5209374,19.53125,32.2265625,-15.625,15.13671875,36.62109375
1771540454.5248437,15.625,30.2734375,-23.4375,13.671875,-15.625
1771540454.52875,14.6484375,31.25,-21.484375,7.32421875,17.578125
1771540454.5326562,16.6015625,31.73828125,-20.5078125,4.8828125,25.390625
1771540454.5365624,22.94921875,31.25,-21.97265625,7.8125,-4.39453125
1771540454.5404687,20.5078125,28.3203125,-21.484375,13.18359375,-5.859375
1771540454.544375,22.94921875,30.76171875,-20.01953125,15.13671875,14.16015625
1771540454.5482812,35.64453125,37.109375,-8.7890625,16.11328125,52.734375
1771540454.5521874,30.2734375,39.0625,-5.859375,20.01953125,32.71484375
1771540454.5560937,26.3671875,34.66796875,-12.6953125,21.484375,35.15625
1771540454.544125,32.2265625,31.73828125,-14.6484375,20.99609375,44.921875
1771540454.5480313,28.3203125,36.62109375,-5.37109375,27.83203125,-9.765625
1771540454.5519376,26.3671875,35.15625,-2.9296875,27.83203125,48.33984375
1771540454.5558438,22.94921875,33.203125,-5.859375,22.4609375,82.51953125
1771540454.55975,28.3203125,35.64453125,-5.859375,22.94921875,73.73046875
1771540454.5636563,35.15625,36.62109375,-9.27734375,28.3203125,105.46875
1771540454.5675626,27.83203125,35.15625,-17.578125,28.3203125,12.20703125
1771540454.5714688,21.97265625,32.71484375,-14.16015625,20.99609375,12.20703125
1771540454.575375,30.2734375,33.203125,-7.32421875,22.4609375,26.3671875
1771540454.5792813,31.73828125,34.1796875,-6.8359375,18.5546875,15.13671875
1771540454.5831876,20.01953125,33.69140625,-8.30078125,14.6484375,39.55078125
1771540454.5870938,13.671875,28.3203125,-21.97265625,18.06640625,45.41015625
1771540454.589125,19.04296875,29.296875,-19.53125,15.625,73.2421875
1771540454.5930312,20.99609375,35.64453125,-0.48828125,12.6953125,26.85546875
1771540454.5969374,22.94921875,36.1328125,-3.90625,19.53125,-10.25390625
1771540454.6008437,23.92578125,37.109375,-7.32421875,20.5078125,22.4609375
1771540454.60475,21.484375,38.57421875,-7.8125,17.08984375,7.32421875
1771540454.6086562,27.83203125,38.57421875,-14.6484375,20.01953125,-67.3828125
1771540454.6125624,31.25,40.52734375,-11.23046875,19.04296875,-9.765625
1771540454.6164687,24.4140625,36.1328125,-29.296875,7.8125,41.50390625
1771540454.620375,17.08984375,38.0859375,-24.90234375,2.44140625,15.625
1771540454.6242812,14.16015625,42.96875,3.41796875,9.27734375,43.45703125
1771540454.6281874,12.6953125,37.59765625,-9.27734375,8.7890625,20.5078125
1771540454.6320937,9.27734375,39.0625,-15.625,1.46484375,30.2734375
1771540454.634125,4.8828125,39.55078125,-7.8125,-0.9765625,79.1015625
1771540454.6380312,10.7421875,36.1328125,-8.30078125,6.34765625,30.2734375
1771540454.6419375,14.6484375,37.59765625,-12.6953125,9.765625,2.44140625
1771540454.6458437,13.18359375,38.0859375,-11.71875,5.37109375,43.45703125
1771540454.64975,11.23046875,36.1328125,-8.7890625,4.39453125,56.640625
1771540454.6536562,12.20703125,37.59765625,-13.671875,9.27734375,31.73828125
1771540454.6575625,18.5546875,37.59765625,-27.83203125,2.44140625,36.62109375
1771540454.6614687,18.06640625,36.62109375,-26.85546875,-5.37109375,34.66796875
1771540454.665375,9.765625,41.015625,-9.27734375,-2.44140625,65.4296875
1771540454.6692812,6.8359375,41.9921875,-12.6953125,-3.41796875,79.58984375
1771540454.6731875,14.6484375,38.57421875,-16.11328125,-1.953125,21.484375
1771540454.6770937,14.16015625,34.66796875,-9.27734375,-1.953125,-2.9296875
1771540454.679125,6.34765625,36.62109375,-8.7890625,-6.34765625,43.9453125
1771540454.6830313,8.7890625,39.0625,-15.13671875,-0.9765625,17.08984375
1771540454.6869376,6.8359375,37.59765625,-12.20703125,-1.46484375,18.06640625
1771540454.6908438,2.44140625,40.0390625,-4.8828125,-7.32421875,67.3828125
1771540454.69475,2.44140625,42.96875,-8.30078125,-7.32421875,95.21484375
1771540454.6986563,1.46484375,40.52734375,-13.18359375,-2.9296875,101.07421875
1771540454.7025626,0.9765625,36.1328125,-19.53125,-6.8359375,67.87109375
1771540454.7064688,-6.8359375,39.0625,-7.8125,-15.625,27.83203125
1771540454.710375,-19.53125,40.52734375,2.44140625,-23.4375,40.0390625
1771540454.7142813,-36.1328125,35.64453125,-14.6484375,-36.1328125,49.8046875
1771540454.7181876,-41.9921875,34.66796875,-15.625,-38.57421875,13.18359375
1771540454.7220938,-41.50390625,36.62109375,-3.41796875,-44.43359375,43.9453125
1771540454.725125,-50.29296875,37.59765625,-10.7421875,-61.03515625,13.671875
1771540454.7290313,-60.546875,32.71484375,-26.85546875,-64.94140625,-11.71875
1771540454.7329376,-61.03515625,33.69140625,-18.06640625,-60.05859375,37.109375
1771540454.7368438,-64.94140625,38.0859375,-0.9765625,-66.40625,34.66796875
1771540454.74075,-77.1484375,35.15625,2.44140625,-77.63671875,77.63671875
1771540454.7446563,-92.7734375,25.390625,-13.671875,-83.0078125,59.08203125
1771540454.7485626,-105.95703125,23.4375,-12.6953125,-92.28515625,16.6015625
1771540454.7524688,-108.3984375,30.2734375,4.8828125,-104.4921875,60.05859375
1771540454.756375,-108.88671875,32.2265625,-5.859375,-111.328125,76.171875
1771540454.7602813,-117.1875,29.296875,-20.01953125,-119.62890625,17.08984375
1771540454.7641876,-127.44140625,21.97265625,-9.765625,-121.58203125,-7.8125
1771540454.7680938,-125.48828125,24.4140625,5.37109375,-115.234375,22.94921875
1771540454.784125,-122.0703125,30.2734375,-4.39453125,-125.48828125,56.640625
1771540454.7880313,-116.2109375,32.71484375,-11.23046875,-125.48828125,15.13671875
1771540454.7919376,-106.4453125,37.109375,-14.6484375,-123.046875,-2.9296875
1771540454.7958438,-111.328125,32.71484375,-6.34765625,-123.046875,-12.20703125
1771540454.79975,-120.1171875,26.3671875,4.39453125,-109.375,-14.6484375
1771540454.8036563,-110.3515625,26.85546875,-10.25390625,-104.00390625,-2.9296875
1771540454.8075626,-110.83984375,33.203125,-7.32421875,-109.375,1.46484375
1771540454.8114688,-115.72265625,39.0625,3.41796875,-108.3984375,55.6640625
1771540454.815375,-105.46875,37.59765625,-2.9296875,-100.09765625,38.57421875
1771540454.8192813,-104.98046875,31.25,-10.25390625,-104.98046875,18.5546875
1771540454.8231876,-108.88671875,29.78515625,4.39453125,-104.00390625,62.98828125
1771540454.8270938,-108.88671875,30.76171875,9.27734375,-96.6796875,107.91015625
1771540454.829125,-103.515625,28.80859375,-1.953125,-94.7265625,70.80078125
1771540454.8330312,-95.703125,26.85546875,1.953125,-90.33203125,81.54296875
1771540454.8369374,-100.5859375,23.4375,8.7890625,-90.33203125,100.09765625
1771540454.8408437,-103.02734375,19.53125,7.8125,-90.8203125,33.69140625
1771540454.84475,-96.6796875,22.4609375,4.39453125,-89.84375,69.3359375
1771540454.8486562,-88.8671875,25.390625,-10.25390625,-82.51953125,-4.8828125
1771540454.8525624,-82.51953125,27.83203125,-12.6953125,-74.70703125,-22.4609375
1771540454.8564687,-88.8671875,30.76171875,-4.8828125,-81.0546875,21.97265625
1771540454.860375,-84.9609375,28.3203125,-12.6953125,-80.56640625,-23.92578125
1771540454.8642812,-79.58984375,23.4375,-18.06640625,-85.44921875,26.3671875
1771540454.8681874,-76.171875,30.2734375,3.41796875,-75.1953125,24.4140625
1771540454.8720937,-65.91796875,31.73828125,8.7890625,-56.640625,27.83203125
1771540454.873125,-58.59375,28.3203125,1.46484375,-49.31640625,11.23046875
1771540454.8770313,-52.24609375,35.15625,7.8125,-41.9921875,33.203125
1771540454.8809376,-45.41015625,39.0625,8.7890625,-42.96875,58.59375
1771540454.8848438,-41.9921875,38.57421875,-0.48828125,-41.015625,-36.62109375
1771540454.88875,-46.38671875,36.1328125,-1.953125,-36.62109375,-18.06640625
1771540454.8926563,-40.0390625,35.15625,0.0,-31.73828125,7.32421875
1771540454.8965626,-32.71484375,32.71484375,4.39453125,-27.34375,3.90625
1771540454.9004688,-32.2265625,33.69140625,3.90625,-28.3203125,49.8046875
1771540454.904375,-30.76171875,37.109375,-20.99609375,-37.109375,43.45703125
1771540454.9082813,-24.4140625,41.015625,-10.7421875,-35.15625,22.4609375
1771540454.9121876,-17.08984375,46.38671875,13.18359375,-22.94921875,25.87890625
1771540454.9160938,-19.53125,43.9453125,-8.7890625,-27.83203125,27.34375
1771540454.919125,-19.04296875,41.015625,-14.6484375,-28.3203125,56.640625
1771540454.9230313,-16.11328125,41.50390625,1.953125,-15.13671875,72.75390625
1771540454.9269376,-17.578125,38.0859375,3.90625,-5.859375,7.8125
1771540454.9308438,-19.53125,36.62109375,0.9765625,-3.90625,17.578125
1771540454.93475,-15.13671875,42.96875,-6.34765625,-9.765625,24.90234375
1771540454.9386563,-12.6953125,49.31640625,-11.71875,-13.18359375,28.3203125
1771540454.9425626,-13.18359375,43.9453125,-4.8828125,-6.8359375,57.12890625
1771540454.9464688,-5.859375,36.62109375,-11.23046875,-6.8359375,13.18359375
1771540454.950375,-10.25390625,38.0859375,-8.7890625,-16.11328125,25.87890625
1771540454.9542813,-19.04296875,41.50390625,0.48828125,-18.06640625,26.3671875
1771540454.9581876,-8.7890625,41.9921875,-4.39453125,-7.8125,-21.97265625
1771540454.9620938,-0.48828125,41.50390625,-1.46484375,-3.90625,31.73828125
1771540454.965125,2.9296875,43.45703125,2.44140625,-2.9296875,41.9921875
1771540454.9690313,1.46484375,44.921875,2.44140625,-5.859375,24.4140625
1771540454.9729376,-1.46484375,40.52734375,-3.41796875,-6.34765625,46.38671875
1771540454.9768438,8.30078125,41.9921875,-5.37109375,-1.953125,43.9453125
1771540454.98075,12.6953125,45.41015625,-3.41796875,-6.8359375,48.33984375
1771540454.9846563,3.41796875,41.9921875,-4.39453125,-5.859375,76.171875
1771540454.9885626,5.37109375,38.57421875,-5.859375,0.48828125,18.06640625
1771540454.9924688,9.27734375,32.71484375,-15.625,-10.7421875,-34.66796875
1771540454.996375,-1.46484375,35.64453125,-4.39453125,-11.23046875,27.34375
1771540455.0002813,-5.37109375,41.9921875,7.8125,0.0,95.703125
1771540455.0041876,-5.37109375,40.0390625,-10.25390625,-1.46484375,25.390625
1771540455.0080938,-7.8125,39.55078125,-13.671875,-6.8359375,-16.6015625
1771540455.024125,-5.37109375,39.0625,-4.39453125,-4.8828125,21.97265625
1771540455.0280313,-0.48828125,38.0859375,1.953125,4.39453125,27.34375
1771540455.0319376,1.953125,39.0625,-12.6953125,1.46484375,48.828125
1771540455.0358438,5.37109375,39.55078125,-22.94921875,-4.8828125,12.6953125
1771540455.03975,6.34765625,43.45703125,-15.625,-6.8359375,-42.96875
1771540455.0436563,15.13671875,44.43359375,-13.18359375,7.32421875,8.7890625
1771540455.0475626,22.94921875,38.0859375,-15.625,18.5546875,57.6171875
1771540455.0514688,20.99609375,37.109375,-11.71875,11.71875,34.66796875
1771540455.055375,20.01953125,41.015625,4.39453125,15.625,12.20703125
1771540455.0592813,29.78515625,37.59765625,1.46484375,23.4375,12.20703125
1771540455.0631876,31.25,34.66796875,0.48828125,23.92578125,63.96484375
1771540455.0670938,21.97265625,37.59765625,-0.9765625,20.5078125,79.1015625
1771540455.085125,19.53125,39.0625,-3.90625,10.7421875,39.0625
1771540455.0890312,16.11328125,34.66796875,-6.34765625,6.8359375,60.05859375
1771540455.0929375,5.859375,30.76171875,-15.625,5.37109375,65.91796875
1771540455.0968437,5.37109375,32.71484375,-11.71875,2.44140625,24.90234375
1771540455.10075,8.7890625,36.1328125,-5.859375,5.37109375,31.73828125
1771540455.1046562,7.32421875,38.57421875,-15.625,5.859375,54.19921875
1771540455.1085625,3.41796875,36.62109375,-13.18359375,1.46484375,72.75390625
1771540455.1124687,-2.44140625,35.64453125,-4.39453125,-0.48828125,92.7734375
1771540455.116375,1.953125,37.109375,-3.41796875,2.9296875,53.7109375
1771540455.1202812,4.39453125,36.62109375,-7.32421875,6.8359375,43.45703125
1771540455.1241875,8.7890625,30.76171875,-24.4140625,7.32421875,32.71484375
1771540455.1280937,9.27734375,28.80859375,-12.20703125,2.44140625,-10.7421875
1771540455.114125,10.25390625,37.109375,4.39453125,4.39453125,25.87890625
1771540455.1180313,17.08984375,38.57421875,-6.8359375,9.765625,48.828125
1771540455.1219375,24.90234375,36.62109375,-6.8359375,10.7421875,8.30078125
1771540455.1258438,23.4375,39.55078125,-4.8828125,13.18359375,-4.8828125
1771540455.12975,14.16015625,40.0390625,-14.6484375,16.11328125,15.13671875
1771540455.1336563,20.5078125,36.1328125,-20.01953125,17.08984375,12.6953125
1771540455.1375625,30.2734375,37.109375,-10.25390625,25.390625,24.90234375
1771540455.1414688,33.203125,36.62109375,0.0,35.64453125,73.2421875
1771540455.145375,34.1796875,36.62109375,-4.8828125,32.2265625,84.47265625
1771540455.1492813,41.50390625,38.57421875,-8.7890625,29.78515625,64.453125
1771540455.1531875,54.19921875,38.57421875,-9.27734375,41.015625,20.01953125
1771540455.1570938,56.15234375,42.96875,-4.8828125,49.8046875,12.20703125
1771540455.159125,41.015625,41.015625,-1.46484375,40.52734375,35.64453125
1771540455.1630313,38.57421875,35.15625,-16.6015625,28.3203125,41.9921875
1771540455.1669376,44.43359375,44.921875,-17.578125,26.3671875,77.63671875
1771540455.1708438,39.55078125,51.26953125,-4.8828125,29.78515625,13.18359375
1771540455.17475,32.2265625,40.0390625,-7.8125,24.4140625,-28.3203125
1771540455.1786563,29.78515625,38.57421875,-10.25390625,19.53125,33.69140625
1771540455.1825626,31.73828125,41.50390625,-10.25390625,11.23046875,90.33203125
1771540455.1864688,33.203125,40.0390625,-12.20703125,5.859375,36.62109375
1771540455.190375,23.4375,35.64453125,-10.25390625,3.41796875,-15.625
1771540455.1942813,7.32421875,31.73828125,-21.97265625,-7.32421875,65.91796875
1771540455.1981876,-0.48828125,38.0859375,-16.6015625,-9.27734375,101.5625
1771540455.2020938,-3.41796875,41.015625,-0.9765625,2.44140625,43.9453125
1771540455.206125,-3.41796875,34.1796875,-8.7890625,14.16015625,2.9296875
1771540455.2100313,-5.859375,37.59765625,-13.671875,16.11328125,-2.44140625
1771540455.2139375,0.9765625,42.48046875,-7.8125,21.484375,-6.34765625
1771540455.2178438,13.18359375,38.0859375,-3.41796875,27.34375,4.8828125
1771540455.22175,14.6484375,33.203125,-11.71875,28.3203125,-15.625
1771540455.2256563,17.578125,34.66796875,-20.99609375,32.2265625,-41.015625
1771540455.2295625,23.4375,39.0625,-13.671875,30.2734375,7.32421875
1771540455.2334688,32.2265625,40.52734375,-4.39453125,31.25,18.5546875
1771540455.237375,44.921875,38.57421875,-21.484375,36.1328125,37.109375
1771540455.2412813,47.36328125,40.52734375,-34.66796875,34.1796875,89.35546875
1771540455.2451875,46.875,41.9921875,-13.18359375,37.109375,43.9453125
1771540455.2490938,45.41015625,33.69140625,0.9765625,44.921875,-9.765625
1771540455.249125,46.38671875,29.78515625,-1.953125,50.78125,62.01171875
1771540455.2530313,52.734375,35.64453125,-4.8828125,49.31640625,54.19921875
1771540455.2569375,49.8046875,41.50390625,-5.37109375,43.45703125,36.62109375
1771540455.2608438,50.78125,40.0390625,-3.90625,51.7578125,58.10546875
1771540455.26475,56.640625,35.64453125,-6.8359375,59.08203125,52.24609375
1771540455.2686563,57.6171875,35.15625,-8.30078125,49.31640625,73.73046875
1771540455.2725625,48.828125,37.109375,-11.71875,38.57421875,81.0546875
1771540455.2764688,42.96875,35.15625,-15.625,40.0390625,39.0625
1771540455.280375,47.8515625,31.25,-22.94921875,31.73828125,-20.99609375
1771540455.2842813,40.52734375,35.15625,-14.6484375,24.90234375,-27.34375
1771540455.2881875,30.76171875,40.52734375,-6.34765625,26.85546875,33.203125
1771540455.2920938,31.25,40.52734375,-12.20703125,29.296875,96.19140625
1771540455.294125,28.80859375,35.64453125,-13.671875,23.92578125,71.2890625
1771540455.2980313,26.3671875,34.66796875,-9.765625,16.11328125,29.78515625
1771540455.3019376,26.3671875,37.109375,-11.71875,15.625,5.859375
1771540455.3058438,26.3671875,35.15625,-23.92578125,17.578125,-29.78515625
1771540455.30975,32.2265625,32.2265625,-15.625,26.85546875,-34.66796875
1771540455.3136563,41.50390625,37.109375,-3.90625,32.2265625,45.8984375
1771540455.3175626,34.66796875,42.48046875,-6.8359375,27.83203125,84.9609375
1771540455.3214688,31.73828125,40.0390625,-21.484375,20.01953125,59.08203125
1771540455.325375,47.36328125,38.0859375,-26.3671875,23.92578125,31.73828125
1771540455.3292813,42.96875,39.0625,-3.41796875,29.296875,45.8984375
1771540455.3331876,30.2734375,32.2265625,-1.46484375,27.34375,30.2734375
1771540455.3370938,28.80859375,31.73828125,-10.25390625,26.85546875,35.64453125
1771540455.340125,39.55078125,39.55078125,-10.25390625,32.2265625,84.47265625
1771540455.3440313,41.9921875,39.0625,-10.25390625,36.62109375,83.49609375
1771540455.3479376,28.80859375,31.25,-20.99609375,29.296875,16.6015625
1771540455.3518438,23.4375,32.2265625,-23.92578125,22.4609375,-11.71875
1771540455.35575,22.94921875,37.59765625,-18.5546875,20.5078125,11.71875
1771540455.3596563,26.3671875,35.15625,-21.97265625,21.97265625,23.92578125
1771540455.3635626,23.4375,31.25,-23.92578125,17.578125,57.12890625
1771540455.3674688,13.671875,27.83203125,-34.66796875,-0.9765625,48.33984375
1771540455.371375,3.90625,31.73828125,-29.78515625,-11.23046875,31.73828125
1771540455.3752813,0.48828125,37.59765625,-18.06640625,-6.8359375,47.8515625
1771540455.3791876,7.32421875,36.62109375,-26.85546875,-2.9296875,37.59765625
1771540455.3830938,12.6953125,37.59765625,-27.83203125,-1.46484375,32.71484375
1771540455.383125,6.8359375,40.0390625,-20.01953125,-5.37109375,61.5234375
1771540455.3870313,10.25390625,41.9921875,-20.99609375,-2.44140625,36.62109375
1771540455.3909376,23.4375,41.9921875,-32.71484375,5.859375,-0.48828125
1771540455.3948438,34.1796875,43.9453125,-32.71484375,16.11328125,25.390625
1771540455.39875,41.015625,41.015625,-23.4375,28.80859375,36.62109375
1771540455.4026563,45.41015625,30.2734375,-12.6953125,47.8515625,18.5546875
1771540455.4065626,52.734375,33.69140625,-22.4609375,52.24609375,6.34765625
1771540455.4104688,59.5703125,41.50390625,-35.64453125,39.0625,15.625
1771540455.414375,59.5703125,46.875,-17.578125,43.9453125,83.984375
1771540455.4182813,69.3359375,45.41015625,-20.01953125,62.01171875,21.484375
1771540455.4221876,89.84375,44.43359375,-24.4140625,78.125,-30.76171875
1771540455.4260938,101.5625,49.31640625,-25.87890625,87.40234375,11.23046875
1771540455.429125,103.02734375,43.9453125,-23.4375,94.7265625,23.4375
1771540455.4330313,108.3984375,38.57421875,-14.16015625,104.00390625,34.66796875
1771540455.4369376,113.28125,42.48046875,-13.671875,109.375,45.41015625
1771540455.4408438,116.69921875,43.45703125,-8.30078125,115.234375,62.5
1771540455.44475,120.1171875,42.96875,-14.16015625,119.140625,10.25390625
1771540455.4486563,123.53515625,43.9453125,-23.92578125,125.0,-11.23046875
1771540455.4525626,130.37109375,40.0390625,-31.73828125,122.55859375,30.2734375
1771540455.4564688,141.6015625,45.41015625,-24.4140625,123.53515625,41.50390625
1771540455.460375,142.578125,53.22265625,-6.8359375,135.25390625,8.7890625
1771540455.4642813,134.765625,46.38671875,-15.625,131.34765625,50.78125
1771540455.4681876,136.71875,41.50390625,-14.6484375,129.8828125,84.9609375
1771540455.4720938,135.25390625,42.48046875,-4.8828125,134.765625,12.20703125
1771540455.489125,139.6484375,43.9453125,-6.34765625,133.30078125,-27.34375
1771540455.4930313,142.578125,43.9453125,-13.18359375,138.18359375,-38.0859375
1771540455.4969375,135.7421875,44.921875,-6.34765625,144.04296875,7.8125
1771540455.5008438,137.6953125,43.9453125,1.953125,140.13671875,12.20703125
1771540455.50475,143.06640625,42.48046875,5.37109375,142.08984375,31.73828125
1771540455.5086563,142.578125,42.48046875,-7.32421875,142.578125,88.37890625
1771540455.5125625,139.6484375,41.9921875,-11.71875,133.30078125,87.40234375
1771540455.5164688,141.6015625,43.9453125,11.23046875,137.6953125,85.9375
1771540455.520375,145.99609375,42.48046875,7.8125,134.765625,76.66015625
1771540455.5242813,148.4375,40.52734375,-1.953125,135.25390625,26.85546875
1771540455.5281875,143.5546875,40.0390625,3.90625,145.99609375,4.39453125
1771540455.5320938,144.53125,42.96875,8.7890625,143.5546875,34.1796875
1771540455.534125,148.4375,43.45703125,6.34765625,145.5078125,30.2734375
1771540455.5380313,147.4609375,41.9921875,8.7890625,149.90234375,54.19921875
1771540455.5419376,140.13671875,41.9921875,10.7421875,139.6484375,84.9609375
1771540455.5458438,129.8828125,40.52734375,9.765625,126.46484375,36.1328125
1771540455.54975,121.58203125,37.109375,12.6953125,122.55859375,65.91796875
1771540455.5536563,119.140625,33.203125,1.953125,117.67578125,76.66015625
1771540455.5575626,123.53515625,33.203125,0.9765625,114.2578125,1.46484375
1771540455.5614688,119.140625,36.62109375,19.53125,116.69921875,39.55078125
1771540455.565375,120.60546875,37.59765625,17.578125,118.65234375,39.55078125
1771540455.5692813,126.46484375,36.1328125,-0.9765625,113.76953125,30.76171875
1771540455.5731876,119.140625,40.52734375,5.859375,107.421875,30.76171875
1771540455.5770938,107.91015625,41.015625,11.23046875,104.4921875,6.8359375
1771540455.580125,108.3984375,38.57421875,4.8828125,99.12109375,25.87890625
1771540455.5840313,112.79296875,40.0390625,10.25390625,90.8203125,19.53125
1771540455.5879376,104.4921875,40.52734375,21.97265625,87.40234375,15.625
1771540455.5918438,93.75,37.59765625,24.4140625,90.8203125,12.6953125
1771540455.59575,98.6328125,41.015625,19.04296875,90.8203125,11.71875
1771540455.5996563,108.3984375,46.38671875,10.25390625,80.078125,73.73046875
1771540455.6035626,107.91015625,49.31640625,8.7890625,82.03125,63.4765625
1771540455.6074688,91.796875,54.6875,14.16015625,83.984375,25.87890625
1771540455.611375,95.21484375,53.7109375,-1.953125,81.0546875,15.13671875
1771540455.6152813,108.3984375,56.640625,-13.671875,80.56640625,-7.8125
1771540455.6191876,104.98046875,62.01171875,4.39453125,80.078125,12.6953125
1771540455.6230938,104.00390625,61.03515625,2.44140625,82.51953125,43.9453125
1771540455.624125,97.16796875,61.5234375,-4.39453125,80.078125,53.22265625
1771540455.6280313,93.26171875,62.98828125,-4.39453125,74.70703125,62.98828125
1771540455.6319375,93.75,64.453125,-12.6953125,68.359375,29.296875
1771540455.6358438,80.078125,68.359375,-17.578125,63.4765625,25.390625
1771540455.63975,72.75390625,64.94140625,-17.08984375,58.59375,56.640625
1771540455.6436563,81.0546875,61.03515625,-12.6953125,58.10546875,92.7734375
1771540455.6475625,75.1953125,62.5,-4.39453125,54.6875,126.46484375
1771540455.6514688,71.77734375,60.546875,-4.8828125,52.734375,121.58203125
1771540455.655375,66.40625,54.6875,-27.83203125,48.33984375,35.15625
1771540455.6592813,59.08203125,55.17578125,-15.13671875,43.9453125,-16.6015625
1771540455.6631875,67.87109375,57.12890625,6.34765625,51.26953125,-8.30078125
1771540455.6670938,73.2421875,55.6640625,1.953125,52.734375,92.7734375
1771540455.669125,70.80078125,53.22265625,-4.39453125,48.828125,62.98828125
1771540455.6730313,73.73046875,53.22265625,1.46484375,53.22265625,24.4140625
1771540455.6769376,75.1953125,53.7109375,5.37109375,51.26953125,37.109375
1771540455.6808438,73.2421875,48.33984375,-4.39453125,48.33984375,0.0
1771540455.68475,69.82421875,49.31640625,-1.46484375,55.17578125,15.625
1771540455.6886563,65.91796875,53.7109375,-2.44140625,50.78125,-30.2734375
1771540455.6925626,67.3828125,53.7109375,2.44140625,49.8046875,-51.7578125
1771540455.6964688,68.84765625,49.31640625,-3.41796875,46.38671875,-29.296875
1771540455.700375,62.98828125,43.9453125,-16.11328125,41.015625,-32.2265625
1771540455.7042813,55.17578125,51.26953125,1.46484375,41.015625,-0.48828125
1771540455.7081876,57.12890625,53.22265625,10.7421875,41.9921875,12.20703125
1771540455.7120938,61.5234375,48.828125,8.7890625,42.48046875,51.26953125
1771540455.715125,62.98828125,50.29296875,4.39453125,44.43359375,39.55078125
1771540455.7190313,53.22265625,49.8046875,1.953125,44.43359375,-20.99609375
1771540455.7229376,49.8046875,48.33984375,6.8359375,49.31640625,20.99609375
1771540455.7268438,60.546875,49.8046875,10.7421875,54.6875,102.5390625
1771540455.73075,59.08203125,50.78125,11.23046875,54.6875,111.328125
1771540455.7346563,51.7578125,47.36328125,3.41796875,49.8046875,44.43359375
1771540455.7385626,44.921875,44.921875,6.34765625,50.78125,29.296875
1771540455.7424688,47.36328125,40.52734375,-4.8828125,53.7109375,6.34765625
1771540455.746375,53.22265625,43.45703125,-3.41796875,42.48046875,-44.921875
1771540455.7502813,42.96875,49.8046875,16.11328125,42.48046875,-4.39453125
1771540455.7541876,39.55078125,44.921875,7.8125,43.9453125,37.59765625
1771540455.7580938,50.29296875,42.96875,9.27734375,43.9453125,29.78515625
1771540455.759125,52.24609375,44.921875,17.578125,49.8046875,40.52734375
1771540455.7630312,44.43359375,43.45703125,15.625,47.8515625,29.78515625
1771540455.7669375,37.59765625,42.48046875,9.765625,43.45703125,71.2890625
1771540455.7708437,38.57421875,45.8984375,9.27734375,32.71484375,61.5234375
1771540455.77475,40.0390625,44.921875,11.23046875,23.4375,10.7421875
1771540455.7786562,37.109375,43.45703125,6.8359375,24.4140625,36.1328125
1771540455.7825625,36.1328125,43.45703125,-4.39453125,22.4609375,49.31640625
1771540455.7864687,41.015625,41.9921875,-3.90625,23.92578125,35.64453125
1771540455.790375,43.9453125,48.828125,12.6953125,27.83203125,37.59765625
1771540455.7942812,48.33984375,47.36328125,8.30078125,28.80859375,19.53125
1771540455.7981875,42.48046875,40.52734375,4.8828125,25.87890625,26.85546875
1771540455.8020937,35.64453125,41.9921875,11.71875,21.97265625,48.33984375
1771540455.804125,37.109375,45.8984375,18.5546875,27.83203125,30.2734375
1771540455.8080313,38.57421875,44.43359375,17.08984375,31.73828125,46.38671875
1771540455.8119376,39.55078125,41.9921875,11.23046875,32.71484375,24.4140625
1771540455.8158438,32.71484375,42.96875,9.765625,30.76171875,-49.31640625
1771540455.81975,25.390625,43.9453125,11.23046875,24.4140625,-32.71484375
1771540455.8236563,26.3671875,40.52734375,5.37109375,26.85546875,42.48046875
1771540455.8275626,20.01953125,34.1796875,-5.859375,17.08984375,50.78125
1771540455.8314688,8.30078125,37.109375,0.48828125,8.7890625,16.6015625
1771540455.835375,4.39453125,41.015625,17.08984375,17.08984375,-4.39453125
1771540455.8392813,5.37109375,38.0859375,14.6484375,19.53125,8.7890625
1771540455.8431876,13.671875,39.0625,14.16015625,15.13671875,48.33984375
1771540455.8470938,9.27734375,37.59765625,15.625,13.18359375,55.17578125
1771540455.849125,5.859375,35.64453125,14.6484375,14.16015625,43.9453125
1771540455.8530312,18.06640625,37.109375,10.25390625,14.6484375,68.359375
1771540455.8569374,18.06640625,39.55078125,4.8828125,9.765625,82.51953125
1771540455.8608437,19.04296875,43.9453125,13.671875,6.34765625,57.6171875
1771540455.86475,20.99609375,42.96875,10.7421875,15.13671875,-10.25390625
1771540455.8686562,26.3671875,40.0390625,-4.39453125,12.20703125,-55.6640625
1771540455.8725624,32.71484375,41.015625,-0.48828125,5.37109375,0.48828125
1771540455.8764687,22.4609375,45.41015625,19.53125,11.23046875,18.5546875
1771540455.880375,15.625,44.921875,20.99609375,10.25390625,20.5078125
1771540455.8842812,16.6015625,42.96875,18.06640625,7.32421875,21.484375
1771540455.8881874,20.01953125,42.48046875,20.5078125,9.27734375,55.6640625
1771540455.8920937,21.97265625,44.43359375,14.6484375,11.23046875,34.66796875
1771540455.908125,21.97265625,44.921875,10.25390625,10.7421875,13.671875
1771540455.9120312,19.53125,43.45703125,9.27734375,12.6953125,49.31640625
1771540455.9159374,17.578125,45.8984375,13.671875,11.71875,102.05078125
1771540455.9198437,28.3203125,48.33984375,17.08984375,10.7421875,139.6484375
1771540455.92375,31.73828125,45.41015625,9.27734375,17.08984375,99.12109375
1771540455.9276562,23.4375,36.62109375,-5.37109375,9.765625,41.9921875
1771540455.9315624,2.44140625,33.203125,11.23046875,-5.37109375,48.828125
1771540455.9354687,-19.04296875,37.59765625,29.78515625,-6.34765625,35.64453125
1771540455.939375,-24.4140625,35.64453125,10.25390625,-8.30078125,-20.5078125
1771540455.9432812,-34.1796875,36.1328125,4.39453125,-14.6484375,28.80859375
1771540455.9471874,-41.015625,37.59765625,16.6015625,-19.53125,69.3359375
1771540455.9510937,-44.921875,37.59765625,14.16015625,-31.73828125,20.99609375
1771540455.954125,-52.24609375,38.57421875,0.48828125,-43.9453125,-14.6484375
1771540455.9580312,-47.8515625,41.9921875,0.9765625,-38.57421875,25.87890625
1771540455.9619374,-39.55078125,41.9921875,12.6953125,-39.0625,39.0625
1771540455.9658437,-43.9453125,36.62109375,15.13671875,-51.7578125,-22.94921875
1771540455.96975,-54.6875,28.3203125,5.37109375,-62.5,-4.39453125
1771540455.9736562,-67.87109375,28.80859375,6.34765625,-65.91796875,62.98828125
1771540455.9775624,-73.73046875,34.66796875,17.08984375,-64.94140625,53.7109375
1771540455.9814687,-74.21875,33.69140625,25.390625,-68.359375,51.26953125
1771540455.985375,-74.70703125,26.3671875,10.25390625,-75.1953125,41.9921875
1771540455.9892812,-70.3125,24.90234375,5.859375,-81.0546875,22.94921875
1771540455.9931874,-67.87109375,33.69140625,22.94921875,-83.49609375,27.34375
1771540455.9970937,-71.77734375,32.71484375,17.08984375,-84.9609375,-8.7890625
1771540455.999125,-75.1953125,31.25,19.04296875,-88.37890625,35.64453125
1771540456.0030313,-72.265625,34.1796875,20.5078125,-90.33203125,47.8515625
1771540456.0069375,-82.51953125,34.66796875,18.5546875,-93.26171875,32.2265625
1771540456.0108438,-88.37890625,34.66796875,16.11328125,-97.16796875,13.671875
1771540456.01475,-75.1953125,38.57421875,8.7890625,-94.7265625,-10.25390625
1771540456.0186563,-71.2890625,39.0625,7.8125,-86.9140625,21.97265625
1771540456.0225625,-79.1015625,34.1796875,17.08984375,-84.9609375,37.59765625
1771540456.0264688,-81.54296875,27.34375,28.3203125,-84.9609375,51.7578125
1771540456.030375,-80.56640625,31.25,30.76171875,-83.0078125,40.0390625
1771540456.0342813,-82.03125,41.015625,31.73828125,-90.33203125,37.59765625
1771540456.0381875,-86.9140625,41.50390625,31.25,-93.26171875,19.04296875
1771540456.0420938,-83.0078125,37.59765625,31.25,-86.9140625,35.64453125
1771540456.044125,-67.87109375,29.78515625,20.99609375,-76.171875,51.7578125
1771540456.0480313,-73.73046875,33.69140625,33.69140625,-81.54296875,42.48046875
1771540456.0519376,-84.9609375,36.62109375,40.0390625,-88.8671875,14.6484375
1771540456.0558438,-75.68359375,30.76171875,34.1796875,-78.125,-2.44140625
1771540456.05975,-71.2890625,27.34375,37.59765625,-72.75390625,-3.90625
1771540456.0636563,-70.3125,27.83203125,37.59765625,-72.75390625,-7.8125
1771540456.0675626,-72.265625,31.25,40.0390625,-73.2421875,30.76171875
1771540456.0714688,-79.1015625,31.25,31.25,-78.61328125,56.640625
1771540456.075375,-66.40625,32.2265625,29.78515625,-76.171875,63.96484375
1771540456.0792813,-65.4296875,32.2265625,48.33984375,-64.94140625,49.31640625
1771540456.0831876,-75.1953125,30.2734375,52.734375,-62.98828125,43.45703125
1771540456.0870938,-71.77734375,34.1796875,42.48046875,-74.21875,44.921875
1771540456.089125,-66.40625,36.1328125,45.8984375,-78.61328125,59.08203125
1771540456.0930312,-61.03515625,32.71484375,49.31640625,-77.1484375,33.203125
1771540456.0969374,-57.6171875,34.66796875,41.9921875,-80.56640625,-9.27734375
1771540456.1008437,-52.24609375,40.0390625,35.64453125,-82.03125,21.484375
1771540456.10475,-48.33984375,42.48046875,39.0625,-76.171875,4.8828125
1771540456.1086562,-47.8515625,38.57421875,51.7578125,-60.546875,18.06640625
1771540456.1125624,-52.24609375,37.109375,53.7109375,-51.26953125,56.640625
1771540456.1164687,-65.91796875,36.62109375,37.109375,-62.5,18.06640625
1771540456.120375,-70.80078125,38.57421875,47.36328125,-70.80078125,0.9765625
1771540456.1242812,-51.7578125,41.9921875,66.89453125,-54.6875,49.8046875
1771540456.1281874,-40.52734375,35.64453125,57.12890625,-45.8984375,52.734375
1771540456.1320937,-41.015625,36.62109375,53.22265625,-56.15234375,53.22265625
1771540456.134125,-50.29296875,43.45703125,57.12890625,-58.59375,28.3203125
1771540456.1380312,-43.45703125,39.55078125,68.359375,-41.015625,3.90625
1771540456.1419375,-37.109375,29.78515625,75.68359375,-28.3203125,59.08203125
1771540456.1458437,-42.48046875,28.3203125,68.359375,-34.66796875,11.71875
1771540456.14975,-31.73828125,37.109375,68.359375,-54.6875,15.13671875
1771540456.1536562,-20.01953125,37.109375,68.84765625,-41.50390625,73.73046875
1771540456.1575625,-14.16015625,37.59765625,60.546875,-21.97265625,51.26953125
1771540456.1614687,-21.484375,41.50390625,57.12890625,-44.43359375,66.89453125
1771540456.165375,-28.80859375,45.8984375,71.2890625,-35.64453125,45.41015625
1771540456.1692812,-28.3203125,48.828125,71.2890625,-24.4140625,35.64453125
1771540456.1731875,-31.25,44.43359375,61.03515625,-41.015625,18.06640625
1771540456.1770937,-33.69140625,40.52734375,62.5,-38.57421875,-10.7421875
1771540456.179125,-36.62109375,39.0625,67.3828125,-26.85546875,16.11328125
1771540456.1830313,-36.62109375,39.0625,62.01171875,-23.4375,11.23046875
1771540456.1869376,-27.34375,35.15625,51.7578125,-28.3203125,23.4375
1771540456.1908438,-27.34375,36.62109375,59.08203125,-35.64453125,64.94140625
1771540456.19475,-15.625,39.55078125,67.3828125,-28.3203125,39.0625
1771540456.1986563,-0.9765625,36.1328125,60.05859375,-19.53125,16.11328125
1771540456.2025626,-4.8828125,29.296875,57.12890625,-13.18359375,23.92578125
1771540456.2064688,-11.23046875,35.15625,73.2421875,-3.41796875,25.87890625
1771540456.210375,-12.20703125,44.921875,85.9375,-1.953125,30.76171875
1771540456.2142813,-10.7421875,40.52734375,71.2890625,-4.39453125,9.27734375
1771540456.2181876,-8.30078125,37.59765625,71.2890625,0.9765625,50.29296875
1771540456.2220938,2.9296875,39.55078125,83.0078125,4.8828125,84.9609375
1771540456.238125,4.8828125,40.52734375,78.61328125,4.39453125,11.71875
1771540456.2420313,-3.90625,40.0390625,63.4765625,-1.46484375,-17.578125
1771540456.2459376,-3.90625,39.55078125,62.98828125,-5.859375,4.8828125
1771540456.2498438,2.9296875,39.55078125,75.1953125,18.06640625,5.37109375
1771540456.25375,6.34765625,34.1796875,80.078125,22.94921875,24.4140625
1771540456.2576563,-3.41796875,28.3203125,73.73046875,-7.8125,24.90234375
1771540456.2615626,-13.671875,25.87890625,67.87109375,-16.11328125,60.546875
1771540456.2654688,-5.859375,32.71484375,88.8671875,5.37109375,45.8984375
1771540456.269375,0.9765625,36.62109375,96.19140625,11.71875,0.0
1771540456.2732813,4.8828125,37.109375,84.9609375,-9.27734375,20.01953125
1771540456.2771876,9.27734375,36.1328125,88.8671875,-4.8828125,24.4140625
1771540456.2810938,14.16015625,35.15625,98.14453125,7.8125,12.20703125
1771540456.284125,19.53125,34.66796875,98.6328125,8.30078125,31.25
1771540456.2880313,16.11328125,33.203125,92.7734375,9.765625,28.3203125
1771540456.2919376,12.20703125,37.59765625,90.8203125,14.6484375,5.37109375
1771540456.2958438,14.6484375,42.96875,92.7734375,18.06640625,26.3671875
1771540456.29975,15.13671875,41.50390625,93.75,30.2734375,68.359375
1771540456.3036563,24.90234375,34.1796875,94.23828125,37.59765625,48.828125
1771540456.3075626,24.90234375,29.78515625,97.16796875,34.66796875,24.90234375
1771540456.3114688,17.578125,34.66796875,94.23828125,26.85546875,71.2890625
1771540456.315375,25.390625,40.52734375,89.35546875,30.2734375,40.0390625
1771540456.3192813,38.0859375,35.15625,73.2421875,33.203125,-4.8828125
1771540456.3231876,27.34375,26.3671875,87.40234375,31.73828125,28.3203125
1771540456.3270938,15.625,26.3671875,115.72265625,41.015625,68.84765625
1771540456.329125,24.90234375,33.203125,107.421875,51.7578125,62.01171875
1771540456.3330312,29.78515625,35.15625,101.5625,36.1328125,100.5859375
1771540456.3369374,29.296875,36.62109375,99.609375,14.6484375,85.44921875
1771540456.3408437,26.3671875,41.015625,92.28515625,15.13671875,36.1328125
1771540456.34475,28.80859375,39.0625,89.84375,27.34375,42.48046875
1771540456.3486562,24.4140625,35.15625,88.37890625,32.71484375,46.875
1771540456.3525624,18.06640625,35.64453125,88.8671875,19.04296875,70.80078125
1771540456.3564687,9.27734375,39.55078125,88.8671875,13.671875,12.20703125
1771540456.360375,6.8359375,40.52734375,76.171875,7.8125,-33.69140625
1771540456.3642812,8.30078125,37.109375,81.0546875,3.41796875,34.66796875
1771540456.3681874,8.7890625,38.0859375,104.98046875,12.20703125,0.0
1771540456.3720937,15.13671875,43.45703125,105.46875,16.11328125,-0.48828125
1771540456.374125,1.46484375,46.38671875,98.6328125,9.27734375,80.078125
1771540456.3780313,2.9296875,47.36328125,104.00390625,13.18359375,122.55859375
1771540456.3819375,16.6015625,47.8515625,107.421875,21.97265625,71.77734375
1771540456.3858438,20.99609375,51.26953125,101.5625,29.296875,-31.25
1771540456.38975,15.13671875,56.640625,97.65625,31.25,-19.53125
1771540456.3936563,19.04296875,59.08203125,100.5859375,29.296875,60.05859375
1771540456.3975625,37.109375,58.59375,106.93359375,25.87890625,90.8203125
1771540456.4014688,42.48046875,58.10546875,105.46875,29.296875,62.98828125
1771540456.405375,36.1328125,51.7578125,86.9140625,30.76171875,19.04296875
1771540456.4092813,40.52734375,54.19921875,100.5859375,40.0390625,10.7421875
1771540456.4131875,46.38671875,59.5703125,120.60546875,53.7109375,3.41796875
1771540456.4170938,46.38671875,55.6640625,107.91015625,52.24609375,19.53125
1771540456.419125,41.015625,58.10546875,103.515625,45.8984375,62.98828125
1771540456.4230313,41.9921875,64.94140625,110.3515625,44.921875,20.01953125
1771540456.4269376,50.29296875,67.3828125,115.234375,50.29296875,22.4609375
1771540456.4308438,49.31640625,69.3359375,110.83984375,60.05859375,44.43359375
1771540456.43475,53.7109375,74.21875,102.5390625,53.7109375,-15.625
1771540456.4386563,48.828125,71.2890625,97.65625,39.0625,51.26953125
1771540456.4425626,41.50390625,68.359375,101.07421875,40.0390625,31.73828125
1771540456.4464688,43.45703125,70.3125,92.7734375,33.203125,-9.765625
1771540456.450375,41.9921875,69.3359375,84.47265625,23.92578125,32.2265625
1771540456.4542813,28.3203125,69.3359375,101.07421875,22.4609375,11.71875
1771540456.4581876,21.484375,67.87109375,105.46875,31.25,-17.578125
1771540456.4620938,22.4609375,69.3359375,102.5390625,31.25,17.578125
1771540456.464125,19.53125,74.70703125,95.703125,14.6484375,41.9921875
1771540456.4680312,14.16015625,74.21875,88.37890625,17.578125,-14.6484375
1771540456.4719374,10.7421875,72.265625,97.65625,26.3671875,28.80859375
1771540456.4758437,11.23046875,64.94140625,99.609375,20.99609375,58.10546875
1771540456.47975,16.11328125,63.96484375,100.09765625,22.94921875,23.92578125
1771540456.4836562,23.4375,70.3125,93.26171875,25.87890625,25.390625
1771540456.4875624,17.08984375,69.82421875,90.33203125,20.5078125,67.3828125
1771540456.4914687,21.484375,65.4296875,85.9375,20.5078125,67.87109375
1771540456.495375,31.25,70.3125,91.796875,26.3671875,45.41015625
1771540456.4992812,32.71484375,78.125,94.23828125,34.66796875,43.9453125
1771540456.5031874,30.2734375,74.21875,80.078125,31.73828125,55.6640625
1771540456.5070937,26.85546875,68.359375,81.0546875,23.4375,17.08984375
1771540456.508125,33.203125,69.82421875,83.984375,25.390625,1.953125
1771540456.5120313,34.66796875,75.1953125,75.68359375,23.4375,13.671875
1771540456.5159376,31.73828125,76.171875,70.3125,24.4140625,20.5078125
1771540456.5198438,40.0390625,71.77734375,70.3125,32.71484375,27.83203125
1771540456.52375,47.36328125,71.77734375,71.2890625,32.2265625,54.19921875
1771540456.5276563,43.9453125,69.82421875,67.3828125,34.1796875,28.3203125
1771540456.5315626,38.0859375,66.40625,62.5,39.0625,-12.20703125
1771540456.5354688,43.45703125,72.265625,63.96484375,35.64453125,43.45703125
1771540456.539375,44.43359375,75.68359375,77.1484375,33.69140625,66.40625
1771540456.5432813,41.015625,72.265625,80.078125,37.59765625,1.953125
1771540456.5471876,37.109375,70.80078125,74.21875,37.109375,31.73828125
1771540456.5510938,34.1796875,68.84765625,72.75390625,30.2734375,66.40625
1771540456.553125,32.2265625,69.3359375,72.75390625,25.390625,4.39453125
1771540456.5570312,31.25,70.3125,66.89453125,37.109375,13.671875
1771540456.5609374,23.4375,67.87109375,59.5703125,51.26953125,38.57421875
1771540456.5648437,19.04296875,66.89453125,67.3828125,39.0625,20.01953125
1771540456.56875,22.94921875,65.91796875,72.75390625,20.5078125,5.37109375
1771540456.5726562,20.01953125,61.03515625,64.94140625,19.04296875,32.2265625
1771540456.5765624,23.92578125,56.640625,50.78125,22.94921875,57.12890625
1771540456.5804687,25.390625,61.03515625,56.640625,30.2734375,85.44921875
1771540456.584375,28.80859375,67.3828125,68.359375,34.66796875,44.921875
1771540456.5882812,31.73828125,59.5703125,58.10546875,33.69140625,-40.0390625
1771540456.5921874,32.2265625,56.640625,56.15234375,35.64453125,-37.109375
1771540456.5960937,33.203125,64.453125,60.546875,39.0625,-8.7890625
1771540456.614125,31.25,66.89453125,60.05859375,35.15625,49.8046875
1771540456.6180313,37.109375,62.5,51.7578125,33.203125,26.85546875
1771540456.6219375,41.015625,59.08203125,56.15234375,41.50390625,-22.94921875
1771540456.6258438,34.66796875,62.01171875,66.40625,39.0625,-13.671875
1771540456.62975,23.92578125,59.5703125,60.546875,29.78515625,8.30078125
1771540456.6336563,24.90234375,55.6640625,43.9453125,21.484375,60.05859375
1771540456.6375625,25.87890625,55.6640625,35.15625,9.27734375,25.87890625
1771540456.6414688,20.99609375,62.5,50.29296875,9.27734375,11.23046875
1771540456.645375,15.13671875,59.08203125,56.15234375,15.625,39.55078125
1771540456.6492813,10.25390625,49.8046875,55.17578125,18.5546875,59.08203125
1771540456.6531875,20.5078125,53.22265625,53.7109375,12.20703125,61.5234375
1771540456.6570938,32.71484375,62.98828125,54.6875,11.23046875,42.48046875
1771540456.659125,29.296875,64.453125,47.36328125,16.11328125,57.6171875
1771540456.6630313,21.484375,58.10546875,42.96875,18.5546875,55.6640625
1771540456.6669376,23.4375,53.22265625,53.22265625,24.4140625,51.26953125
1771540456.6708438,26.85546875,55.17578125,52.734375,29.78515625,38.0859375
1771540456.67475,17.578125,56.640625,45.8984375,34.66796875,13.671875
1771540456.6786563,12.20703125,52.24609375,41.015625,33.69140625,39.55078125
1771540456.6825626,14.16015625,48.33984375,43.45703125,37.109375,13.671875
1771540456.6864688,18.06640625,49.8046875,47.36328125,45.8984375,-8.7890625
1771540456.690375,20.01953125,47.36328125,41.50390625,43.9453125,-15.13671875
1771540456.6942813,19.04296875,40.52734375,36.62109375,29.296875,19.04296875
1771540456.6981876,32.71484375,48.828125,49.31640625,39.55078125,68.359375
1771540456.7020938,51.26953125,56.640625,56.640625,49.8046875,73.2421875
1771540456.704125,43.45703125,50.29296875,45.41015625,36.1328125,78.125
1771540456.7080312,36.62109375,51.7578125,37.59765625,36.62109375,35.15625
1771540456.7119374,38.0859375,52.734375,52.24609375,45.8984375,-10.25390625
1771540456.7158437,36.1328125,46.875,62.01171875,51.7578125,41.9921875
1771540456.71975,36.1328125,46.875,49.8046875,41.50390625,21.97265625
1771540456.7236562,26.85546875,48.828125,35.64453125,20.5078125,3.90625
1771540456.7275624,26.3671875,50.78125,44.43359375,20.99609375,6.8359375
1771540456.7314687,36.62109375,52.734375,58.59375,30.76171875,26.3671875
1771540456.735375,39.55078125,48.828125,46.875,25.390625,66.89453125
1771540456.7392812,30.76171875,49.8046875,39.55078125,14.6484375,84.47265625
1771540456.7431874,21.97265625,56.640625,55.17578125,17.578125,48.828125
1771540456.7470937,24.90234375,57.6171875,52.24609375,24.90234375,52.734375
1771540456.748125,24.90234375,57.12890625,43.45703125,22.94921875,79.58984375
1771540456.7520313,19.53125,60.05859375,44.43359375,23.4375,47.8515625
1771540456.7559376,12.20703125,62.5,43.9453125,19.04296875,57.6171875
1771540456.7598438,11.71875,59.5703125,39.0625,10.7421875,79.1015625
1771540456.76375,13.18359375,58.10546875,34.1796875,9.765625,50.78125
1771540456.7676563,12.6953125,59.5703125,34.66796875,13.671875,57.6171875
1771540456.7715626,17.578125,58.59375,38.57421875,19.53125,51.7578125
1771540456.7754688,20.99609375,60.05859375,45.8984375,26.3671875,38.0859375
1771540456.779375,26.85546875,62.5,32.2265625,20.5078125,40.52734375
1771540456.7832813,36.1328125,64.453125,37.109375,20.5078125,27.34375
1771540456.7871876,31.73828125,66.89453125,55.17578125,35.64453125,38.57421875
1771540456.7910938,27.34375,62.98828125,38.0859375,30.2734375,29.296875
1771540456.794125,30.2734375,59.08203125,35.15625,28.3203125,64.94140625
1771540456.7980313,33.69140625,59.5703125,47.8515625,39.0625,82.03125
1771540456.8019376,35.64453125,60.546875,44.43359375,39.0625,55.17578125
1771540456.8058438,37.109375,61.03515625,25.390625,35.64453125,12.20703125
1771540456.80975,38.57421875,63.4765625,25.390625,36.62109375,10.25390625
1771540456.8136563,41.9921875,62.5,34.66796875,33.69140625,76.171875
1771540456.8175626,44.43359375,59.08203125,29.296875,31.73828125,13.671875
1771540456.8214688,38.0859375,57.6171875,21.97265625,23.92578125,-24.4140625
1771540456.825375,33.203125,58.10546875,27.34375,15.13671875,-2.9296875
1771540456.8292813,31.73828125,65.4296875,47.36328125,21.484375,3.90625
1771540456.8331876,33.69140625,67.87109375,37.59765625,27.83203125,28.80859375
1771540456.8370938,30.76171875,68.84765625,29.78515625,25.87890625,29.78515625
1771540456.839125,25.87890625,63.96484375,42.96875,21.97265625,86.42578125
1771540456.8430312,28.80859375,62.5,44.921875,19.04296875,83.984375
1771540456.8469374,31.73828125,64.453125,33.203125,17.578125,-50.29296875
1771540456.8508437,25.87890625,61.03515625,33.203125,20.99609375,-58.10546875
1771540456.85475,24.4140625,61.03515625,39.55078125,24.4140625,-21.97265625
1771540456.8586562,42.96875,68.84765625,44.43359375,40.52734375,-27.34375
1771540456.8625624,44.43359375,71.77734375,42.96875,40.0390625,-17.578125
1771540456.8664687,21.97265625,46.875,18.5546875,2.44140625,5.859375
1771540456.870375,10.7421875,32.71484375,20.99609375,-12.6953125,33.69140625
1771540456.8742812,13.18359375,41.015625,44.921875,9.765625,72.265625
1771540456.8781874,12.20703125,42.48046875,36.62109375,13.18359375,103.02734375
1771540456.8820937,14.16015625,43.45703125,28.3203125,1.953125,49.8046875
1771540456.884125,18.06640625,45.8984375,33.69140625,5.859375,33.203125
1771540456.8880312,24.4140625,49.8046875,34.66796875,22.4609375,16.11328125
1771540456.8919375,30.2734375,50.29296875,30.2734375,31.73828125,70.3125
1771540456.8958437,33.203125,45.8984375,28.3203125,32.71484375,81.0546875
1771540456.89975,28.80859375,48.828125,25.390625,31.25,-8.7890625
1771540456.9036562,23.4375,49.8046875,21.97265625,32.2265625,-6.34765625
1771540456.9075625,38.57421875,49.31640625,20.99609375,34.66796875,44.43359375
1771540456.9114687,47.36328125,49.31640625,19.53125,28.3203125,55.17578125
1771540456.915375,34.1796875,45.41015625,23.92578125,28.80859375,25.390625
1771540456.9192812,29.78515625,41.015625,25.87890625,30.2734375,-2.9296875
1771540456.9231875,37.59765625,42.48046875,30.2734375,32.71484375,-5.37109375
1771540456.9270937,43.9453125,45.41015625,36.1328125,32.2265625,80.078125
1771540456.928125,44.43359375,45.41015625,32.71484375,24.4140625,62.5
1771540456.9320312,30.2734375,43.45703125,25.87890625,24.90234375,23.92578125
1771540456.9359374,21.97265625,42.96875,20.99609375,25.390625,53.22265625
1771540456.9398437,28.80859375,44.43359375,29.296875,23.92578125,66.40625
1771540456.94375,35.64453125,42.96875,37.109375,33.69140625,58.10546875
1771540456.9476562,27.34375,42.48046875,23.92578125,36.1328125,20.5078125
1771540456.9515624,17.578125,39.55078125,12.20703125,23.4375,33.69140625
1771540456.9554687,22.94921875,40.52734375,23.92578125,25.87890625,44.921875
1771540456.959375,22.94921875,44.43359375,32.2265625,29.296875,39.0625
1771540456.9632812,16.6015625,41.9921875,18.06640625,28.3203125,23.92578125
1771540456.9671874,20.01953125,41.015625,13.18359375,34.66796875,0.0
1771540456.9710937,29.296875,43.45703125,25.390625,38.0859375,63.4765625
1771540456.989125,29.296875,44.921875,32.71484375,42.48046875,52.24609375
1771540456.9930313,25.390625,40.52734375,17.08984375,35.15625,-23.92578125
1771540456.9969375,25.390625,39.0625,19.53125,29.296875,29.78515625
1771540457.0008438,28.3203125,38.57421875,34.66796875,39.55078125,41.9921875
1771540457.00475,32.71484375,36.1328125,29.78515625,43.45703125,39.0625
1771540457.0086563,31.25,33.203125,14.16015625,39.0625,64.94140625
1771540457.0125625,22.94921875,31.25,10.25390625,30.76171875,24.90234375
1771540457.0164688,24.4140625,33.69140625,25.390625,27.83203125,-18.06640625
1771540457.020375,38.0859375,40.52734375,22.4609375,30.76171875,-76.171875
1771540457.0242813,33.69140625,41.015625,20.01953125,27.34375,-63.96484375
1771540457.0281875,13.671875,31.25,21.97265625,21.484375,-4.39453125
1771540457.0320938,13.671875,30.76171875,27.83203125,26.85546875,31.25
1771540457.033125,19.53125,29.78515625,24.90234375,23.92578125,4.39453125
1771540457.0370312,19.53125,24.90234375,18.06640625,14.16015625,-8.7890625
1771540457.0409374,12.20703125,27.83203125,24.90234375,15.13671875,10.7421875
1771540457.0448437,5.37109375,33.203125,27.83203125,14.16015625,0.48828125
1771540457.04875,12.6953125,34.66796875,23.92578125,8.7890625,29.296875
1771540457.0526562,15.13671875,34.66796875,16.6015625,7.8125,24.4140625
1771540457.0565624,10.25390625,32.71484375,11.23046875,9.27734375,25.390625
1771540457.0604687,7.32421875,35.64453125,18.06640625,12.20703125,54.19921875
1771540457.064375,8.7890625,34.1796875,23.4375,17.08984375,94.7265625
1771540457.0682812,12.6953125,26.85546875,7.8125,19.53125,94.23828125
1771540457.0721874,7.32421875,30.76171875,14.6484375,15.625,53.7109375
1771540457.0760937,4.39453125,32.71484375,22.94921875,14.16015625,58.10546875
1771540457.079125,15.625,31.73828125,11.23046875,26.3671875,14.6484375
1771540457.0830312,34.66796875,33.69140625,16.11328125,34.66796875,-52.734375
1771540457.0869374,35.15625,35.15625,20.5078125,28.3203125,10.7421875
1771540457.0908437,22.4609375,35.15625,14.6484375,23.4375,79.58984375
1771540457.09475,18.06640625,28.80859375,8.30078125,26.3671875,76.171875
1771540457.0986562,30.2734375,30.2734375,1.46484375,27.34375,52.24609375
1771540457.1025624,42.96875,37.59765625,11.23046875,28.3203125,4.8828125
1771540457.1064687,39.0625,37.109375,19.53125,25.390625,50.78125
1771540457.110375,36.62109375,34.66796875,12.6953125,28.80859375,91.796875
1771540457.1142812,31.73828125,39.0625,10.7421875,33.69140625,54.6875
1771540457.1181874,19.53125,42.96875,19.53125,28.3203125,7.8125
1771540457.1220937,18.06640625,37.59765625,17.578125,31.25,37.109375
1771540457.125125,19.53125,33.69140625,13.671875,31.73828125,35.15625
1771540457.1290312,19.04296875,36.1328125,20.5078125,31.73828125,56.15234375
1771540457.1329374,20.01953125,35.64453125,19.53125,24.90234375,40.0390625
1771540457.1368437,20.99609375,31.25,11.71875,18.06640625,16.6015625
1771540457.14075,17.578125,30.76171875,9.765625,21.484375,15.13671875
1771540457.1446562,17.578125,37.109375,8.30078125,20.01953125,2.9296875
1771540457.1485624,19.04296875,38.57421875,7.32421875,15.13671875,60.546875
1771540457.1524687,18.06640625,40.0390625,5.859375,10.25390625,58.10546875
1771540457.156375,16.11328125,39.0625,-8.30078125,8.7890625,38.0859375
1771540457.1602812,16.11328125,37.59765625,-2.44140625,8.30078125,46.38671875
1771540457.1641874,16.11328125,44.43359375,17.08984375,12.20703125,42.48046875
1771540457.1680937,20.01953125,42.96875,11.71875,20.5078125,32.71484375
1771540457.169125,17.578125,41.9921875,4.8828125,22.94921875,44.43359375
1771540457.1730313,17.578125,46.38671875,1.46484375,20.5078125,115.234375
1771540457.1769376,30.76171875,45.41015625,-2.44140625,24.90234375,28.80859375
1771540457.1808438,37.109375,46.875,0.9765625,31.25,-52.734375
1771540457.18475,27.34375,45.8984375,8.30078125,29.78515625,32.2265625
1771540457.1886563,20.99609375,41.50390625,0.48828125,22.94921875,52.24609375
1771540457.1925626,23.92578125,40.0390625,2.9296875,22.4609375,-13.671875
1771540457.1964688,28.80859375,32.71484375,2.44140625,24.90234375,-2.44140625
1771540457.200375,27.83203125,28.80859375,-15.13671875,8.7890625,60.05859375
1771540457.2042813,18.5546875,38.57421875,3.90625,13.671875,63.96484375
1771540457.2081876,25.390625,52.734375,23.92578125,35.64453125,80.078125
1771540457.2120938,28.80859375,46.38671875,10.25390625,25.390625,78.61328125
1771540457.214125,17.578125,35.15625,-4.39453125,9.27734375,10.25390625
1771540457.2180312,4.39453125,33.203125,-5.37109375,7.8125,23.92578125
1771540457.2219374,-0.48828125,31.25,-4.39453125,7.32421875,58.10546875
1771540457.2258437,10.25390625,35.15625,-1.46484375,10.25390625,-15.625
1771540457.22975,22.94921875,50.78125,9.765625,20.01953125,11.23046875
1771540457.2336562,9.27734375,42.96875,-5.37109375,5.859375,45.41015625
1771540457.2375624,-5.37109375,23.92578125,-16.11328125,-6.34765625,61.03515625
1771540457.2414687,1.953125,20.99609375,-21.97265625,-6.34765625,60.05859375
1771540457.245375,17.578125,31.25,-17.08984375,-2.44140625,13.18359375
1771540457.2492812,18.5546875,41.015625,2.44140625,16.6015625,81.0546875
1771540457.2531874,16.6015625,36.1328125,-9.27734375,18.5546875,66.89453125
1771540457.2570937,24.90234375,30.76171875,-8.7890625,20.5078125,-2.44140625
1771540457.259125,31.25,35.15625,7.8125,32.2265625,3.90625
1771540457.2630312,31.25,38.57421875,7.32421875,34.1796875,40.52734375
1771540457.2669375,35.64453125,36.1328125,-1.46484375,36.1328125,17.08984375
1771540457.2708437,39.55078125,34.1796875,2.44140625,40.52734375,5.37109375
1771540457.27475,42.96875,36.62109375,7.8125,43.45703125,39.55078125
1771540457.2786562,42.96875,35.64453125,3.41796875,50.78125,33.69140625
1771540457.2825625,40.0390625,30.2734375,-5.859375,45.8984375,31.73828125
1771540457.2864687,36.62109375,30.76171875,-5.37109375,31.25,9.765625
1771540457.290375,37.109375,39.0625,8.7890625,33.69140625,-19.53125
1771540457.2942812,32.71484375,45.8984375,5.859375,34.66796875,2.9296875
1771540457.2981875,24.90234375,41.9921875,-0.9765625,22.94921875,-21.97265625
1771540457.3020937,27.83203125,38.57421875,5.37109375,15.625,3.90625
1771540457.305125,25.390625,38.0859375,7.8125,12.6953125,9.27734375
1771540457.3090312,18.5546875,34.66796875,2.44140625,7.8125,-10.7421875
1771540457.3129375,10.25390625,33.203125,0.0,1.46484375,-23.92578125
1771540457.3168437,0.48828125,35.64453125,5.859375,-0.48828125,23.92578125
1771540457.32075,0.48828125,37.109375,11.71875,2.44140625,63.4765625
1771540457.3246562,-1.953125,34.66796875,2.44140625,0.48828125,41.50390625
1771540457.3285625,-1.46484375,33.203125,-15.13671875,-15.13671875,5.37109375
1771540457.3324687,3.41796875,38.57421875,-7.8125,-19.53125,1.953125
1771540457.336375,7.32421875,41.50390625,12.20703125,3.90625,20.01953125
1771540457.3402812,8.7890625,35.64453125,13.18359375,14.6484375,28.3203125
1771540457.3441875,5.859375,32.2265625,13.18359375,8.7890625,15.625
1771540457.3480937,5.859375,39.55078125,17.08984375,11.71875,2.44140625
1771540457.378125,7.8125,42.48046875,13.671875,16.6015625,-7.8125
1771540457.3820312,17.08984375,41.50390625,11.23046875,27.34375,10.25390625
1771540457.3859375,24.90234375,47.36328125,8.30078125,22.94921875,64.453125
1771540457.3898437,14.16015625,46.38671875,4.39453125,14.16015625,64.94140625
1771540457.39375,19.04296875,44.43359375,7.32421875,28.3203125,23.4375
1771540457.3976562,39.55078125,41.9921875,0.0,32.71484375,6.8359375
1771540457.4015625,37.109375,41.015625,-10.7421875,19.53125,37.59765625
1771540457.4054687,30.76171875,47.36328125,5.37109375,21.97265625,22.94921875
1771540457.409375,36.1328125,50.29296875,17.578125,31.73828125,28.80859375
1771540457.4132812,46.38671875,52.734375,14.16015625,33.203125,43.9453125
1771540457.4171875,43.9453125,55.6640625,13.18359375,29.78515625,45.8984375
1771540457.4210937,36.62109375,55.6640625,14.16015625,29.296875,68.359375
1771540457.424125,36.62109375,55.17578125,11.71875,25.390625,59.08203125
1771540457.4280312,35.15625,52.24609375,7.8125,11.23046875,43.9453125
1771540457.4319375,34.1796875,49.8046875,5.859375,2.44140625,10.7421875
1771540457.4358437,33.69140625,55.6640625,8.7890625,8.30078125,47.8515625
1771540457.43975,22.4609375,57.6171875,1.46484375,11.23046875,56.640625
1771540457.4436562,13.671875,52.24609375,-5.859375,15.13671875,38.57421875
1771540457.4475625,12.6953125,47.36328125,0.0,22.94921875,2.44140625
1771540457.4514687,1.953125,42.96875,2.9296875,23.92578125,-44.921875
1771540457.455375,-9.27734375,42.48046875,2.9296875,20.5078125,0.48828125
1771540457.4592812,-11.23046875,41.9921875,2.44140625,12.6953125,20.01953125
1771540457.4631875,-8.30078125,45.41015625,8.7890625,1.953125,18.5546875
1771540457.4670937,-3.41796875,52.734375,11.71875,1.953125,48.33984375
1771540457.469125,4.8828125,51.7578125,2.9296875,5.859375,54.19921875
1771540457.4730313,13.18359375,54.19921875,-13.671875,1.953125,74.21875
1771540457.4769375,21.484375,56.15234375,-1.46484375,5.37109375,52.24609375
1771540457.4808438,25.87890625,52.24609375,16.6015625,17.578125,40.52734375
1771540457.48475,21.484375,46.38671875,4.8828125,20.01953125,34.1796875
1771540457.4886563,24.4140625,42.96875,-4.8828125,19.04296875,7.8125
1771540457.4925625,31.25,46.38671875,2.9296875,18.5546875,9.765625
1771540457.4964688,27.83203125,46.875,9.27734375,14.16015625,37.109375
1771540457.500375,29.78515625,43.9453125,9.765625,19.53125,75.68359375
1771540457.5042813,34.1796875,48.33984375,6.8359375,38.57421875,31.73828125
1771540457.5081875,33.203125,50.78125,8.7890625,27.83203125,7.32421875
1771540457.5120938,39.0625,52.24609375,15.625,18.5546875,52.24609375
1771540457.499125,42.48046875,51.7578125,-2.44140625,17.08984375,62.01171875
1771540457.5030313,32.71484375,45.8984375,-9.27734375,-1.953125,-0.9765625
1771540457.5069375,28.80859375,48.828125,14.16015625,11.23046875,25.87890625
1771540457.5108438,31.73828125,52.734375,16.6015625,29.78515625,56.640625
1771540457.51475,33.69140625,52.24609375,9.27734375,21.97265625,71.2890625
1771540457.5186563,34.66796875,50.29296875,5.37109375,18.5546875,66.89453125
1771540457.5225625,27.34375,42.96875,5.37109375,24.90234375,3.41796875
1771540457.5264688,17.08984375,37.109375,10.25390625,23.92578125,36.62109375
1771540457.530375,14.6484375,39.55078125,11.23046875,19.04296875,77.63671875
1771540457.5342813,14.6484375,42.96875,14.6484375,16.6015625,54.6875
1771540457.5381875,15.13671875,44.43359375,14.6484375,18.06640625,38.57421875
1771540457.5420938,17.08984375,46.38671875,12.6953125,18.06640625,51.26953125
1771540457.544125,19.04296875,41.50390625,-1.46484375,3.90625,23.4375
1771540457.5480313,23.92578125,41.015625,8.30078125,-5.859375,10.7421875
1771540457.5519376,21.484375,42.96875,23.4375,4.39453125,39.55078125
1771540457.5558438,20.5078125,42.48046875,16.11328125,11.23046875,15.13671875
1771540457.55975,29.78515625,45.41015625,21.484375,20.01953125,28.3203125
1771540457.5636563,35.64453125,44.43359375,17.08984375,28.3203125,41.50390625
1771540457.5675626,36.62109375,46.38671875,17.578125,32.2265625,47.8515625
1771540457.5714688,33.203125,47.36328125,16.6015625,37.109375,50.29296875
1771540457.575375,39.55078125,44.921875,16.11328125,46.875,48.828125
1771540457.5792813,44.43359375,50.78125,27.83203125,52.24609375,38.0859375
1771540457.5831876,38.0859375,51.7578125,27.83203125,44.43359375,22.94921875
1771540457.5870938,33.203125,41.9921875,23.92578125,41.9921875,45.41015625
1771540457.589125,32.2265625,40.0390625,20.99609375,46.875,44.921875
1771540457.5930312,32.2265625,43.9453125,26.3671875,48.828125,44.43359375
1771540457.5969374,36.1328125,44.921875,25.390625,45.8984375,24.4140625
1771540457.6008437,40.0390625,49.31640625,23.92578125,41.015625,25.87890625
1771540457.60475,49.31640625,57.12890625,31.25,37.59765625,67.87109375
1771540457.6086562,51.7578125,54.19921875,22.4609375,35.15625,60.05859375
1771540457.6125624,44.921875,49.8046875,15.625,28.3203125,83.0078125
1771540457.6164687,38.0859375,46.38671875,1.46484375,21.97265625,59.08203125
1771540457.620375,29.78515625,48.33984375,5.859375,20.01953125,19.53125
1771540457.6242812,27.83203125,56.15234375,27.34375,16.6015625,44.43359375
1771540457.6281874,34.66796875,50.29296875,16.6015625,21.97265625,34.1796875
1771540457.6320937,31.73828125,45.41015625,10.7421875,25.87890625,26.85546875
1771540457.634125,22.4609375,51.7578125,16.11328125,22.4609375,55.17578125
1771540457.6380312,31.25,56.15234375,17.578125,18.5546875,57.12890625
1771540457.6419375,42.96875,53.7109375,10.25390625,26.3671875,40.52734375
1771540457.6458437,40.52734375,53.7109375,3.41796875,28.3203125,-9.27734375
1771540457.64975,39.0625,56.15234375,10.25390625,15.625,-40.52734375
1771540457.6536562,41.9921875,60.05859375,5.859375,16.6015625,10.7421875
1771540457.6575625,50.29296875,59.5703125,-5.37109375,26.3671875,-7.8125
1771540457.6614687,57.6171875,57.6171875,-5.37109375,27.34375,-2.9296875
1771540457.665375,52.734375,62.98828125,12.6953125,27.83203125,24.90234375
1771540457.6692812,51.7578125,67.3828125,18.06640625,41.015625,-22.94921875
1771540457.6731875,56.640625,66.40625,13.671875,46.38671875,-21.97265625
1771540457.6770937,55.6640625,64.94140625,11.71875,43.9453125,38.57421875
1771540457.679125,57.12890625,65.4296875,7.32421875,46.875,20.5078125
1771540457.6830313,54.6875,67.87109375,5.37109375,49.31640625,22.94921875
1771540457.6869376,54.19921875,67.3828125,7.8125,51.7578125,26.3671875
1771540457.6908438,55.6640625,64.453125,17.08984375,48.828125,47.36328125
1771540457.69475,55.6640625,69.3359375,18.5546875,45.8984375,64.94140625
1771540457.6986563,51.7578125,74.21875,8.7890625,39.55078125,21.97265625
1771540457.7025626,47.36328125,65.4296875,-0.9765625,31.73828125,62.98828125
1771540457.7064688,46.875,63.4765625,5.37109375,34.1796875,70.3125
1771540457.710375,41.015625,67.87109375,23.4375,27.83203125,29.78515625
1771540457.7142813,32.2265625,64.94140625,12.6953125,20.99609375,26.3671875
1771540457.7181876,28.3203125,62.01171875,5.37109375,30.2734375,0.9765625
1771540457.7220938,39.0625,62.98828125,16.6015625,39.0625,18.06640625
1771540457.739125,36.62109375,62.5,13.671875,35.15625,61.03515625
1771540457.7430313,27.83203125,56.640625,6.34765625,32.71484375,63.4765625
1771540457.7469375,31.73828125,56.15234375,7.8125,30.76171875,64.94140625
1771540457.7508438,33.69140625,56.640625,14.6484375,33.203125,11.71875
1771540457.75475,38.57421875,55.17578125,17.08984375,39.0625,-9.765625
1771540457.7586563,42.48046875,53.7109375,4.8828125,30.76171875,8.30078125
1771540457.7625625,39.55078125,55.6640625,3.90625,17.08984375,31.73828125
1771540457.7664688,41.015625,59.5703125,20.01953125,24.90234375,44.921875
1771540457.770375,43.45703125,59.5703125,22.4609375,31.73828125,4.8828125
1771540457.7742813,43.45703125,56.640625,15.13671875,33.203125,7.32421875
1771540457.7781875,42.48046875,57.6171875,12.20703125,39.0625,24.4140625
1771540457.7820938,40.52734375,59.08203125,22.4609375,40.0390625,57.12890625
1771540457.784125,47.36328125,58.59375,20.01953125,45.8984375,70.3125
1771540457.7880313,59.08203125,63.4765625,9.27734375,49.31640625,20.99609375
1771540457.7919376,55.17578125,62.01171875,7.8125,41.50390625,-3.41796875
1771540457.7958438,49.8046875,55.17578125,18.06640625,36.62109375,24.90234375
1771540457.79975,52.24609375,54.6875,17.578125,34.66796875,72.75390625
1771540457.8036563,54.6875,52.24609375,4.39453125,37.59765625,44.921875
1771540457.8075626,44.43359375,46.38671875,8.7890625,36.62109375,-22.4609375
1771540457.8114688,31.25,44.43359375,21.484375,33.69140625,-32.71484375
1771540457.815375,30.76171875,43.9453125,24.4140625,27.83203125,65.4296875
1771540457.8192813,28.80859375,36.62109375,3.41796875,11.23046875,67.87109375
1771540457.8231876,25.390625,36.1328125,8.7890625,6.8359375,28.80859375
1771540457.8270938,32.71484375,43.9453125,24.4140625,23.92578125,-3.41796875
1771540457.844125,35.15625,45.41015625,15.625,34.66796875,-10.25390625
1771540457.8480313,30.2734375,47.8515625,14.6484375,21.484375,13.18359375
1771540457.8519375,24.4140625,47.36328125,18.06640625,19.04296875,2.9296875
1771540457.8558438,28.3203125,42.96875,23.92578125,34.1796875,12.20703125
1771540457.85975,37.109375,43.45703125,22.94921875,35.64453125,-23.4375
1771540457.8636563,36.62109375,41.015625,20.5078125,32.71484375,-9.27734375
1771540457.8675625,31.25,38.0859375,32.2265625,33.203125,38.57421875
1771540457.8714688,27.34375,41.50390625,37.59765625,36.62109375,46.875
1771540457.875375,31.25,40.52734375,20.99609375,28.3203125,26.85546875
1771540457.8792813,37.109375,37.109375,17.08984375,25.390625,36.62109375
1771540457.8831875,38.57421875,41.015625,33.69140625,32.2265625,58.10546875
1771540457.8870938,42.48046875,42.96875,29.296875,35.15625,27.83203125
1771540457.874125,42.48046875,42.48046875,24.90234375,38.0859375,46.875
1771540457.8780313,42.96875,41.9921875,30.2734375,46.38671875,40.0390625
1771540457.8819375,47.8515625,44.43359375,29.296875,49.31640625,-12.6953125
1771540457.8858438,46.875,46.38671875,21.484375,42.48046875,-11.23046875
1771540457.88975,42.48046875,44.43359375,18.5546875,42.48046875,15.625
1771540457.8936563,45.8984375,44.43359375,22.94921875,46.38671875,54.6875
1771540457.8975625,43.45703125,47.36328125,27.83203125,40.0390625,63.96484375
1771540457.9014688,31.73828125,49.31640625,25.390625,29.78515625,46.875
1771540457.905375,21.97265625,41.015625,18.06640625,26.85546875,16.6015625
1771540457.9092813,22.4609375,39.0625,28.80859375,26.85546875,29.78515625
1771540457.9131875,27.83203125,41.9921875,33.203125,22.94921875,48.33984375
1771540457.9170938,29.78515625,39.0625,20.5078125,20.01953125,34.66796875
1771540457.920125,18.5546875,34.1796875,11.23046875,17.08984375,-5.37109375
1771540457.9240313,14.16015625,35.64453125,23.92578125,6.8359375,-7.8125
1771540457.9279375,24.4140625,40.0390625,25.87890625,15.13671875,2.44140625
1771540457.9318438,26.3671875,38.57421875,17.08984375,30.2734375,16.11328125
1771540457.93575,25.87890625,38.0859375,16.6015625,21.97265625,45.41015625
1771540457.9396563,23.92578125,41.9921875,21.97265625,25.87890625,-6.8359375
1771540457.9435625,25.390625,45.41015625,27.34375,33.69140625,7.8125
1771540457.9474688,28.3203125,42.96875,19.53125,26.85546875,50.78125
1771540457.951375,29.78515625,36.62109375,19.53125,22.94921875,30.76171875
1771540457.9552813,22.94921875,34.66796875,31.25,21.97265625,-9.765625
1771540457.9591875,19.04296875,35.64453125,33.203125,26.3671875,12.20703125
1771540457.9630938,31.25,37.109375,29.296875,34.66796875,41.50390625
1771540457.964125,35.64453125,39.55078125,22.4609375,29.78515625,-14.6484375
1771540457.9680312,26.85546875,40.0390625,23.92578125,21.484375,-25.87890625
1771540457.9719374,27.34375,39.55078125,20.5078125,20.99609375,53.7109375
1771540457.9758437,32.71484375,39.55078125,17.08984375,37.109375,54.19921875
1771540457.97975,32.71484375,38.57421875,20.99609375,38.57421875,43.45703125
1771540457.9836562,35.15625,37.59765625,18.06640625,31.25,70.80078125
1771540457.9875624,29.78515625,34.1796875,16.11328125,28.80859375,76.171875
1771540457.9914687,29.78515625,32.71484375,6.8359375,24.90234375,51.26953125
1771540457.995375,30.2734375,39.55078125,12.20703125,19.04296875,58.10546875
1771540457.9992812,20.99609375,42.48046875,30.76171875,16.11328125,106.93359375
1771540458.0031874,20.99609375,38.0859375,14.16015625,15.625,56.15234375
1771540458.0070937,28.80859375,38.0859375,12.6953125,20.01953125,16.6015625
1771540458.009125,31.73828125,41.015625,21.97265625,23.4375,47.8515625
1771540458.0130312,27.83203125,40.0390625,16.6015625,20.5078125,45.8984375
1771540458.0169375,24.4140625,38.57421875,15.625,15.625,62.5
1771540458.0208437,26.3671875,41.015625,14.6484375,9.765625,69.3359375
1771540458.02475,28.3203125,42.96875,14.16015625,8.30078125,14.6484375
1771540458.0286562,25.87890625,39.55078125,12.6953125,15.625,15.13671875
1771540458.0325625,24.4140625,39.0625,0.48828125,15.13671875,28.3203125
1771540458.0364687,20.01953125,40.52734375,-6.34765625,8.30078125,14.6484375
1771540458.040375,19.53125,44.921875,16.6015625,9.27734375,59.5703125
1771540458.0442812,25.390625,43.45703125,20.01953125,14.6484375,38.0859375
1771540458.0481875,26.3671875,39.55078125,15.13671875,22.4609375,1.953125
1771540458.0520937,23.92578125,41.50390625,19.04296875,23.4375,67.87109375
1771540458.054125,28.3203125,41.015625,22.94921875,26.3671875,90.33203125
1771540458.0580313,37.109375,41.015625,22.94921875,34.1796875,53.7109375
1771540458.0619376,42.48046875,47.36328125,16.6015625,36.1328125,23.92578125
1771540458.0658438,46.875,50.29296875,18.5546875,28.80859375,45.8984375
1771540458.06975,50.78125,45.41015625,20.5078125,24.90234375,40.52734375
1771540458.0736563,56.640625,42.96875,11.23046875,23.92578125,8.30078125
1771540458.0775626,54.6875,41.9921875,3.41796875,24.90234375,37.59765625
1771540458.0814688,49.31640625,47.8515625,10.7421875,26.85546875,23.92578125
1771540458.085375,48.33984375,52.24609375,24.4140625,29.296875,23.92578125
1771540458.0892813,50.78125,47.8515625,17.08984375,38.0859375,98.14453125
1771540458.0931876,52.24609375,43.9453125,6.34765625,39.55078125,69.82421875
1771540458.0970938,42.48046875,42.96875,12.20703125,35.15625,0.9765625
1771540458.114125,39.55078125,44.43359375,18.06640625,33.69140625,14.6484375
1771540458.1180313,43.45703125,40.52734375,15.625,33.203125,53.22265625
1771540458.1219375,33.69140625,36.1328125,15.625,24.90234375,32.2265625
1771540458.1258438,27.34375,41.015625,20.5078125,22.4609375,37.59765625
1771540458.12975,26.3671875,41.015625,23.92578125,22.94921875,68.359375
1771540458.1336563,20.5078125,37.59765625,15.13671875,20.01953125,58.59375
1771540458.1375625,13.18359375,35.15625,10.25390625,14.16015625,83.984375
1771540458.1414688,7.32421875,38.57421875,22.94921875,7.8125,50.29296875
1771540458.145375,2.9296875,36.62109375,21.97265625,5.37109375,0.9765625
1771540458.1492813,7.8125,36.1328125,19.53125,9.27734375,0.9765625
1771540458.1531875,10.7421875,41.015625,23.92578125,12.20703125,3.90625
1771540458.1570938,9.765625,42.48046875,25.87890625,8.7890625,57.12890625
1771540458.159125,13.18359375,40.52734375,12.6953125,11.23046875,43.45703125
1771540458.1630313,14.16015625,39.0625,6.34765625,8.30078125,7.8125
1771540458.1669376,18.5546875,44.921875,16.6015625,5.37109375,-15.13671875
1771540458.1708438,28.80859375,50.78125,17.08984375,6.34765625,20.5078125
1771540458.17475,26.3671875,42.48046875,10.25390625,3.41796875,71.2890625
1771540458.1786563,27.83203125,33.203125,4.8828125,16.6015625,51.7578125
1771540458.1825626,41.50390625,33.69140625,11.23046875,31.73828125,57.12890625
1771540458.1864688,42.96875,37.59765625,18.06640625,38.0859375,32.2265625
1771540458.190375,39.0625,35.64453125,10.25390625,41.015625,31.25
1771540458.1942813,41.015625,31.25,-1.46484375,36.62109375,52.734375
1771540458.1981876,45.41015625,34.1796875,16.6015625,44.921875,51.7578125
1771540458.2020938,49.31640625,36.62109375,30.76171875,52.24609375,51.7578125
1771540458.204125,50.29296875,36.62109375,17.578125,47.8515625,59.5703125
1771540458.2080312,53.7109375,37.59765625,6.34765625,51.26953125,62.01171875
1771540458.2119374,53.7109375,37.109375,5.859375,43.45703125,4.39453125
1771540458.2158437,48.828125,39.0625,13.18359375,33.69140625,-12.6953125
1771540458.21975,47.8515625,37.59765625,8.7890625,44.43359375,2.9296875
1771540458.2236562,35.64453125,34.66796875,7.32421875,48.33984375,22.94921875
1771540458.2275624,27.34375,38.57421875,20.99609375,45.8984375,-16.11328125
1771540458.2314687,28.80859375,40.52734375,35.64453125,47.36328125,32.2265625
1771540458.235375,27.83203125,38.0859375,21.97265625,41.9921875,105.95703125
1771540458.2392812,22.94921875,35.64453125,10.7421875,27.34375,65.91796875
1771540458.2431874,17.578125,38.57421875,27.83203125,23.4375,61.5234375
1771540458.2470937,20.5078125,39.0625,24.4140625,20.01953125,22.94921875
1771540458.249125,20.01953125,38.0859375,18.5546875,11.71875,25.390625
1771540458.2530313,18.5546875,38.0859375,20.5078125,9.27734375,62.01171875
1771540458.2569375,16.6015625,35.64453125,19.04296875,0.9765625,8.7890625
1771540458.2608438,16.6015625,35.64453125,18.06640625,-0.9765625,-8.30078125
1771540458.26475,24.4140625,34.1796875,15.13671875,4.39453125,29.78515625
1771540458.2686563,30.2734375,36.1328125,16.11328125,11.23046875,21.484375
1771540458.2725625,23.4375,36.1328125,19.04296875,14.16015625,42.48046875
1771540458.2764688,23.4375,39.55078125,23.4375,16.6015625,39.0625
1771540458.280375,31.73828125,40.52734375,11.71875,9.765625,5.859375
1771540458.2842813,28.3203125,34.1796875,14.6484375,3.90625,28.80859375
1771540458.2881875,24.90234375,34.1796875,32.71484375,15.13671875,37.109375
1771540458.2920938,29.296875,34.66796875,23.92578125,20.5078125,41.50390625
1771540458.294125,28.80859375,36.1328125,19.53125,20.5078125,38.0859375
1771540458.2980313,26.3671875,30.76171875,24.90234375,17.578125,41.50390625
1771540458.3019376,25.390625,26.85546875,20.5078125,19.53125,49.31640625
1771540458.3058438,20.01953125,29.296875,15.625,19.04296875,2.44140625
1771540458.30975,24.4140625,31.25,20.99609375,17.578125,13.671875
1771540458.3136563,32.2265625,31.73828125,22.4609375,23.4375,42.48046875
1771540458.3175626,30.2734375,28.80859375,21.97265625,28.3203125,61.5234375
1771540458.3214688,23.92578125,26.3671875,17.578125,26.85546875,69.82421875
1771540458.325375,22.94921875,24.90234375,9.27734375,16.11328125,22.94921875
1771540458.3292813,29.296875,29.296875,25.390625,16.6015625,27.83203125
1771540458.3331876,32.2265625,31.25,30.2734375,25.87890625,29.78515625
1771540458.3370938,21.97265625,32.71484375,21.484375,17.578125,4.39453125
1771540458.339125,16.6015625,37.59765625,19.53125,12.6953125,1.46484375
1771540458.3430312,17.578125,36.62109375,18.06640625,20.01953125,37.109375
1771540458.3469374,20.01953125,33.203125,15.625,19.53125,61.03515625
1771540458.3508437,18.5546875,33.203125,13.18359375,14.16015625,21.97265625
1771540458.35475,14.6484375,38.0859375,16.6015625,9.765625,15.13671875
1771540458.3586562,17.578125,37.59765625,14.6484375,9.27734375,17.578125
1771540458.3625624,20.5078125,35.64453125,16.6015625,10.7421875,16.11328125
1771540458.3664687,23.92578125,36.62109375,5.859375,9.765625,33.69140625
1771540458.370375,23.92578125,40.0390625,8.7890625,12.20703125,43.9453125
1771540458.3742812,25.390625,41.9921875,22.94921875,17.08984375,53.7109375
1771540458.3781874,29.78515625,41.015625,13.18359375,16.6015625,61.03515625
1771540458.3820937,33.69140625,38.57421875,7.8125,16.6015625,32.2265625
1771540458.384125,31.73828125,41.015625,16.6015625,13.671875,36.1328125
1771540458.3880312,30.76171875,42.96875,20.5078125,16.6015625,45.8984375
1771540458.3919375,39.0625,36.62109375,10.7421875,24.90234375,28.80859375
1771540458.3958437,41.015625,34.66796875,10.7421875,21.97265625,2.9296875
1771540458.39975,35.15625,36.62109375,20.99609375,20.01953125,28.3203125
1771540458.4036562,36.62109375,36.62109375,20.5078125,30.76171875,75.68359375
1771540458.4075625,44.43359375,34.1796875,16.6015625,36.62109375,41.9921875
1771540458.4114687,48.828125,31.25,20.5078125,32.71484375,22.94921875
1771540458.415375,41.015625,34.66796875,37.109375,36.1328125,60.546875
1771540458.4192812,37.109375,38.57421875,35.15625,37.59765625,26.3671875
1771540458.4231875,41.50390625,39.0625,30.2734375,33.69140625,26.85546875
1771540458.4270937,41.9921875,39.0625,26.3671875,32.2265625,41.9921875
1771540458.430125,38.57421875,38.57421875,24.4140625,29.78515625,42.96875
1771540458.4340312,33.203125,39.0625,27.34375,27.83203125,72.265625
1771540458.4379375,34.66796875,41.9921875,20.5078125,28.80859375,8.30078125
1771540458.4418437,33.69140625,41.50390625,20.99609375,21.484375,-51.7578125
1771540458.44575,29.296875,37.109375,26.3671875,22.4609375,-1.953125
1771540458.4496562,24.4140625,31.25,17.08984375,22.4609375,24.4140625
1771540458.4535625,23.92578125,31.25,2.9296875,10.7421875,6.8359375
1771540458.4574687,25.87890625,35.64453125,12.20703125,7.32421875,-31.73828125
1771540458.461375,26.85546875,34.1796875,29.296875,10.25390625,-67.87109375
1771540458.4652812,19.04296875,29.296875,28.3203125,11.23046875,-25.87890625
1771540458.4691875,6.8359375,28.80859375,32.2265625,16.11328125,-14.6484375
1771540458.4730937,9.27734375,32.2265625,38.57421875,19.04296875,29.78515625
1771540458.475125,16.11328125,36.62109375,36.1328125,17.578125,84.47265625
1771540458.4790313,13.671875,35.15625,28.80859375,19.04296875,63.4765625
1771540458.4829376,19.53125,33.69140625,27.34375,27.34375,27.83203125
1771540458.4868438,28.80859375,37.59765625,36.62109375,31.25,33.69140625
1771540458.49075,30.2734375,37.109375,36.1328125,36.1328125,6.34765625
1771540458.4946563,31.73828125,32.71484375,21.97265625,44.921875,19.53125
1771540458.4985626,27.83203125,31.25,8.7890625,38.57421875,63.4765625
1771540458.5024688,32.71484375,37.59765625,29.78515625,46.38671875,27.34375
1771540458.506375,43.45703125,42.96875,39.55078125,58.10546875,33.69140625
1771540458.5102813,42.96875,40.0390625,27.83203125,52.734375,64.453125
1771540458.5141876,40.0390625,39.0625,23.92578125,54.19921875,28.3203125
1771540458.5180938,40.52734375,39.0625,25.390625,56.15234375,-14.16015625
1771540458.533125,37.109375,39.0625,32.2265625,54.6875,51.26953125
1771540458.5370312,36.1328125,38.0859375,21.484375,47.8515625,-17.578125
1771540458.5409374,30.2734375,36.62109375,21.97265625,41.015625,-30.76171875
1771540458.5448437,26.85546875,36.62109375,31.73828125,42.96875,76.171875
1771540458.54875,31.25,35.15625,28.3203125,46.875,53.7109375
1771540458.5526562,32.71484375,34.66796875,16.6015625,42.96875,54.19921875
1771540458.5565624,28.80859375,38.57421875,20.99609375,30.2734375,51.7578125
1771540458.5604687,19.53125,40.0390625,30.76171875,23.92578125,5.37109375
1771540458.564375,20.99609375,34.66796875,26.85546875,32.71484375,-11.71875
1771540458.5682812,27.83203125,30.2734375,22.4609375,32.71484375,31.73828125
1771540458.5721874,24.4140625,30.76171875,27.83203125,22.4609375,37.109375
1771540458.5760937,21.97265625,31.25,31.25,21.484375,-6.8359375
1771540458.579125,23.4375,31.25,26.3671875,26.85546875,15.13671875
1771540458.5830312,25.87890625,35.15625,24.90234375,28.3203125,80.56640625
1771540458.5869374,24.90234375,34.66796875,24.4140625,30.76171875,56.15234375
1771540458.5908437,21.97265625,31.73828125,19.53125,26.85546875,-17.08984375
1771540458.59475,24.90234375,35.64453125,18.06640625,25.87890625,10.7421875
1771540458.5986562,35.15625,35.15625,20.01953125,37.59765625,56.15234375
1771540458.6025624,40.52734375,36.62109375,17.08984375,40.0390625,45.41015625
1771540458.6064687,38.57421875,42.96875,17.08984375,39.0625,12.6953125
1771540458.610375,40.52734375,40.52734375,14.16015625,39.55078125,-14.16015625
1771540458.6142812,41.50390625,38.0859375,13.18359375,29.78515625,19.04296875
1771540458.6181874,31.25,42.96875,32.2265625,29.296875,73.73046875
1771540458.6220937,21.484375,41.50390625,32.71484375,31.25,88.37890625
1771540458.624125,19.53125,39.55078125,24.4140625,26.85546875,50.78125
1771540458.6280313,18.5546875,40.0390625,27.83203125,25.390625,57.6171875
1771540458.6319375,18.5546875,41.015625,28.3203125,27.34375,27.83203125
1771540458.6358438,15.625,40.52734375,21.97265625,24.90234375,18.06640625
1771540458.63975,14.16015625,40.52734375,18.5546875,19.53125,48.33984375
1771540458.6436563,16.11328125,39.55078125,20.01953125,19.04296875,29.296875
1771540458.6475625,16.6015625,42.96875,21.484375,13.671875,34.66796875
1771540458.6514688,15.625,45.41015625,19.53125,10.7421875,34.1796875
1771540458.655375,12.20703125,34.66796875,6.8359375,1.953125,64.94140625
1771540458.6592813,12.20703125,33.203125,11.71875,-2.44140625,64.453125
1771540458.6631875,14.16015625,39.55078125,30.76171875,5.859375,66.40625
1771540458.6670938,21.484375,38.57421875,19.53125,9.27734375,57.12890625
1771540458.669125,21.97265625,38.0859375,9.27734375,8.7890625,26.3671875
1771540458.6730313,20.01953125,41.015625,18.06640625,10.7421875,24.90234375
1771540458.6769376,24.4140625,41.50390625,18.06640625,18.06640625,-2.9296875
1771540458.6808438,22.4609375,39.55078125,12.6953125,17.578125,-3.41796875
1771540458.68475,18.5546875,38.57421875,11.71875,15.13671875,4.39453125
1771540458.6886563,19.04296875,40.0390625,10.25390625,19.53125,9.27734375
1771540458.6925626,20.99609375,43.45703125,16.11328125,23.92578125,50.29296875
1771540458.6964688,22.94921875,42.96875,7.32421875,19.04296875,57.6171875
1771540458.700375,26.85546875,43.45703125,2.9296875,19.04296875,54.6875
1771540458.7042813,25.87890625,44.921875,24.90234375,30.2734375,32.2265625
1771540458.7081876,21.97265625,44.43359375,28.80859375,29.78515625,31.25
1771540458.7120938,22.4609375,44.921875,18.06640625,23.92578125,49.31640625
1771540458.714125,25.87890625,41.9921875,14.16015625,25.87890625,-10.25390625
1771540458.7180312,24.90234375,40.52734375,20.99609375,29.296875,-21.97265625
1771540458.7219374,25.390625,42.96875,23.4375,30.76171875,15.625
1771540458.7258437,28.3203125,40.52734375,22.4609375,33.69140625,27.83203125
1771540458.72975,29.78515625,34.66796875,29.78515625,40.52734375,69.82421875
1771540458.7336562,24.4140625,31.73828125,23.92578125,36.1328125,63.4765625
1771540458.7375624,19.53125,38.57421875,14.6484375,26.85546875,36.1328125
1771540458.7414687,21.484375,41.015625,9.27734375,16.11328125,20.01953125
1771540458.745375,22.94921875,41.50390625,14.6484375,7.32421875,34.66796875
1771540458.7492812,25.390625,45.41015625,24.4140625,12.20703125,46.38671875
1771540458.7531874,20.99609375,43.45703125,17.578125,13.671875,18.06640625
1771540458.7570937,20.01953125,42.48046875,18.06640625,14.6484375,32.71484375
1771540458.759125,21.97265625,42.48046875,20.01953125,11.23046875,21.484375
1771540458.7630312,24.4140625,42.96875,15.625,8.30078125,48.828125
1771540458.7669375,20.99609375,40.52734375,7.32421875,12.20703125,24.90234375
1771540458.7708437,21.97265625,40.52734375,12.20703125,20.5078125,-11.71875
1771540458.77475,29.78515625,45.8984375,25.390625,26.85546875,18.06640625
1771540458.7786562,33.203125,45.41015625,22.94921875,34.66796875,41.9921875
1771540458.7825625,32.71484375,41.50390625,11.71875,34.1796875,2.9296875
1771540458.7864687,29.296875,40.52734375,16.6015625,23.92578125,45.41015625
1771540458.790375,32.2265625,44.921875,36.1328125,25.87890625,85.44921875
1771540458.7942812,34.66796875,43.45703125,33.69140625,36.62109375,41.50390625
1771540458.7981875,33.69140625,40.52734375,29.296875,44.43359375,39.0625
1771540458.8020937,32.2265625,39.55078125,28.80859375,42.48046875,9.765625
1771540458.803125,30.2734375,39.55078125,35.15625,36.1328125,25.390625
1771540458.8070312,27.34375,39.0625,38.0859375,33.69140625,76.171875
1771540458.8109374,21.97265625,40.52734375,32.2265625,27.34375,38.0859375
1771540458.8148437,4.39453125,40.0390625,31.73828125,15.625,28.80859375
1771540458.81875,-1.46484375,33.69140625,32.2265625,14.16015625,56.15234375
1771540458.8226562,9.765625,30.76171875,28.80859375,21.484375,4.39453125
1771540458.8265624,20.01953125,32.71484375,18.5546875,21.484375,26.3671875
1771540458.8304687,20.01953125,37.109375,24.90234375,13.18359375,127.9296875
1771540458.834375,17.578125,42.96875,41.50390625,19.04296875,70.80078125
1771540458.8382812,28.3203125,44.921875,32.71484375,26.85546875,-22.94921875
1771540458.8421874,35.64453125,42.96875,28.80859375,28.80859375,-6.8359375
1771540458.8460937,30.2734375,44.921875,31.73828125,22.94921875,10.7421875
1771540458.864125,24.4140625,46.38671875,27.34375,16.6015625,23.92578125
1771540458.8680313,32.2265625,42.96875,24.90234375,22.4609375,77.63671875
1771540458.8719375,38.0859375,42.48046875,24.90234375,26.85546875,80.56640625
1771540458.8758438,27.83203125,43.45703125,25.87890625,17.08984375,11.71875
1771540458.87975,20.99609375,42.96875,24.90234375,16.6015625,-19.53125
1771540458.8836563,31.73828125,42.48046875,17.08984375,24.4140625,47.8515625
1771540458.8875625,40.52734375,41.50390625,10.7421875,20.5078125,42.96875
1771540458.8914688,38.57421875,41.9921875,26.3671875,20.99609375,15.13671875
1771540458.895375,39.0625,43.9453125,28.80859375,26.85546875,9.765625
1771540458.8992813,45.8984375,41.50390625,20.5078125,31.25,25.87890625
1771540458.9031875,43.45703125,38.0859375,25.87890625,35.64453125,23.4375
1771540458.9070938,39.0625,40.0390625,33.203125,33.69140625,13.18359375
1771540458.924125,36.1328125,41.015625,28.80859375,36.1328125,29.78515625
1771540458.9280312,30.2734375,35.64453125,19.53125,32.2265625,22.4609375
1771540458.9319375,31.73828125,31.25,26.3671875,31.73828125,29.78515625
1771540458.9358437,28.80859375,35.15625,38.0859375,40.0390625,23.92578125
1771540458.93975,18.5546875,35.15625,27.83203125,28.80859375,35.64453125
1771540458.9436562,14.16015625,31.73828125,19.53125,20.5078125,-4.8828125
1771540458.9475625,14.16015625,33.69140625,25.390625,27.83203125,-42.96875
1771540458.9514687,10.7421875,38.0859375,33.69140625,22.4609375,2.44140625
1771540458.955375,8.30078125,34.66796875,29.78515625,10.7421875,0.9765625
1771540458.9592812,11.23046875,32.2265625,10.25390625,7.32421875,-27.34375
1771540458.9631875,12.20703125,39.0625,12.6953125,6.8359375,8.30078125
1771540458.9670937,14.16015625,39.0625,31.25,12.20703125,41.50390625
1771540458.954125,22.94921875,34.1796875,30.2734375,19.04296875,62.98828125
1771540458.9580312,22.94921875,33.203125,24.90234375,17.08984375,21.97265625
1771540458.9619374,19.53125,34.66796875,36.1328125,20.5078125,41.015625
1771540458.9658437,23.4375,35.64453125,38.0859375,24.90234375,42.48046875
1771540458.96975,24.4140625,33.69140625,28.80859375,21.97265625,36.1328125
1771540458.9736562,23.4375,31.25,21.97265625,20.99609375,39.0625
1771540458.9775624,30.2734375,33.69140625,24.90234375,27.83203125,4.8828125
1771540458.9814687,34.66796875,37.109375,31.25,29.296875,32.2265625
1771540458.985375,37.109375,32.71484375,22.94921875,29.78515625,27.83203125
1771540458.9892812,37.59765625,31.73828125,23.4375,37.59765625,20.99609375
1771540458.9931874,31.73828125,29.78515625,31.73828125,41.015625,48.828125
1771540458.9970937,39.55078125,25.87890625,27.34375,44.921875,20.01953125
1771540458.999125,45.8984375,24.90234375,15.625,36.1328125,21.484375
1771540459.0030313,40.0390625,22.4609375,12.6953125,19.04296875,43.9453125
1771540459.0069375,36.62109375,26.3671875,31.73828125,29.296875,54.19921875
1771540459.0108438,36.62109375,27.34375,35.64453125,38.0859375,33.69140625
1771540459.01475,30.2734375,25.390625,25.390625,28.3203125,4.8828125
1771540459.0186563,18.5546875,21.97265625,22.94921875,20.99609375,43.45703125
1771540459.0225625,10.25390625,21.484375,20.99609375,19.53125,7.8125
1771540459.0264688,6.34765625,24.4140625,23.92578125,21.484375,-23.4375
1771540459.030375,8.7890625,19.04296875,19.04296875,18.06640625,43.45703125
1771540459.0342813,8.30078125,22.4609375,22.4609375,14.16015625,8.7890625
1771540459.0381875,0.9765625,30.2734375,32.71484375,16.11328125,-9.765625
1771540459.0420938,1.46484375,27.83203125,25.87890625,17.08984375,39.0625
1771540459.044125,11.23046875,31.73828125,25.390625,18.5546875,55.6640625
1771540459.0480313,14.6484375,31.73828125,21.97265625,20.5078125,42.48046875
1771540459.0519376,12.6953125,26.3671875,22.4609375,20.99609375,23.4375
1771540459.0558438,12.6953125,25.87890625,20.01953125,20.01953125,19.04296875
1771540459.05975,19.53125,24.4140625,17.578125,20.01953125,18.06640625
1771540459.0636563,22.94921875,24.90234375,21.97265625,20.01953125,31.25
1771540459.0675626,20.01953125,28.3203125,20.99609375,18.5546875,18.5546875
1771540459.0714688,26.3671875,31.25,11.71875,23.92578125,21.484375
1771540459.075375,38.0859375,30.2734375,10.7421875,32.2265625,-2.44140625
1771540459.0792813,41.015625,33.203125,28.3203125,40.52734375,-23.92578125
1771540459.0831876,38.0859375,36.62109375,26.3671875,39.55078125,58.59375
1771540459.0870938,34.1796875,39.0625,18.06640625,35.15625,51.7578125
1771540459.088125,37.109375,42.48046875,21.484375,38.0859375,53.22265625
1771540459.0920312,44.43359375,41.50390625,22.94921875,41.9921875,72.75390625
1771540459.0959375,46.38671875,38.57421875,19.53125,43.9453125,27.83203125
1771540459.0998437,36.62109375,38.0859375,15.13671875,39.0625,41.015625
1771540459.10375,29.78515625,40.52734375,9.765625,26.85546875,51.7578125
1771540459.1076562,36.1328125,41.50390625,10.7421875,29.296875,29.78515625
1771540459.1115625,42.96875,37.109375,18.5546875,43.9453125,15.625
1771540459.1154687,41.50390625,39.0625,9.27734375,43.45703125,32.2265625
1771540459.119375,31.73828125,44.43359375,4.39453125,27.34375,6.34765625
1771540459.1232812,30.2734375,42.96875,28.80859375,28.80859375,38.57421875
1771540459.1271875,34.66796875,34.66796875,21.97265625,38.0859375,19.53125
1771540459.1310937,30.2734375,34.66796875,15.625,35.15625,20.01953125
1771540459.133125,25.87890625,38.57421875,21.484375,28.80859375,99.12109375
1771540459.1370313,31.25,41.015625,18.06640625,26.3671875,95.703125
1771540459.1409376,32.71484375,36.1328125,13.671875,27.34375,59.5703125
1771540459.1448438,24.4140625,30.2734375,15.625,25.87890625,-16.6015625
1771540459.14875,14.6484375,31.73828125,17.578125,15.13671875,-20.01953125
1771540459.1526563,11.23046875,31.73828125,13.671875,13.18359375,7.32421875
1771540459.1565626,16.6015625,30.76171875,9.765625,17.578125,35.64453125
1771540459.1604688,17.08984375,30.76171875,1.46484375,12.20703125,68.359375
1771540459.164375,10.25390625,35.64453125,14.6484375,18.5546875,24.4140625
1771540459.1682813,13.671875,35.64453125,26.3671875,34.66796875,-11.71875
1771540459.1721876,25.87890625,35.64453125,23.4375,37.109375,26.85546875
1771540459.1760938,31.25,35.15625,21.97265625,37.109375,47.8515625
1771540459.179125,34.1796875,34.66796875,24.90234375,38.57421875,34.1796875
1771540459.1830313,35.64453125,36.62109375,23.92578125,34.1796875,69.82421875
1771540459.1869376,36.1328125,36.1328125,19.53125,32.2265625,48.33984375
1771540459.1908438,38.57421875,36.62109375,18.5546875,25.87890625,19.04296875
1771540459.19475,40.52734375,36.1328125,15.13671875,22.4609375,9.27734375
1771540459.1986563,34.66796875,35.15625,10.7421875,27.83203125,26.3671875
1771540459.2025626,34.1796875,31.25,-1.953125,20.5078125,40.0390625
1771540459.2064688,38.0859375,32.71484375,7.8125,14.6484375,54.19921875
1771540459.210375,34.1796875,39.55078125,20.99609375,20.99609375,73.2421875
1771540459.2142813,26.3671875,36.1328125,10.7421875,19.04296875,74.70703125
1771540459.2181876,25.390625,30.2734375,11.23046875,19.04296875,63.4765625
1771540459.2220938,26.3671875,31.25,21.484375,20.5078125,20.99609375
1771540459.224125,20.99609375,31.25,23.92578125,18.5546875,11.23046875
1771540459.2280312,9.765625,29.296875,17.08984375,14.16015625,64.453125
1771540459.2319374,3.90625,29.296875,18.5546875,19.04296875,66.40625
1771540459.2358437,16.6015625,38.57421875,23.92578125,24.4140625,63.96484375
1771540459.23975,18.5546875,39.0625,15.625,20.01953125,50.29296875
1771540459.2436562,16.6015625,29.78515625,2.44140625,15.13671875,28.80859375
1771540459.2475624,22.4609375,30.76171875,-0.48828125,10.7421875,54.6875
1771540459.2514687,28.3203125,38.0859375,15.625,21.484375,48.828125
1771540459.255375,37.59765625,41.50390625,16.6015625,31.25,23.92578125
1771540459.2592812,41.50390625,41.015625,12.20703125,31.73828125,22.94921875
1771540459.2631874,40.0390625,42.48046875,15.625,29.78515625,29.78515625
1771540459.2670937,42.96875,41.015625,16.11328125,35.15625,39.55078125
1771540459.283125,49.8046875,39.55078125,20.5078125,42.96875,38.0859375
1771540459.2870312,48.33984375,38.0859375,20.01953125,37.109375,69.3359375
1771540459.2909374,40.52734375,40.0390625,19.53125,28.80859375,61.03515625
1771540459.2948437,38.0859375,43.45703125,23.92578125,29.296875,39.0625
1771540459.29875,48.33984375,44.43359375,19.53125,32.2265625,27.83203125
1771540459.3026562,51.26953125,41.9921875,10.25390625,21.484375,19.04296875
1771540459.3065624,44.921875,42.96875,16.6015625,17.08984375,60.546875
1771540459.3104687,37.109375,49.8046875,23.92578125,23.4375,10.7421875
1771540459.314375,33.69140625,42.48046875,27.83203125,25.87890625,18.5546875
1771540459.3182812,32.2265625,32.2265625,23.4375,21.484375,88.8671875
1771540459.3221874,31.25,35.15625,23.92578125,18.5546875,22.4609375
1771540459.3260937,25.390625,36.62109375,30.76171875,20.01953125,-22.94921875
1771540459.331125,22.4609375,32.71484375,30.76171875,18.06640625,54.19921875
1771540459.3350313,26.85546875,32.71484375,23.4375,16.11328125,20.01953125
1771540459.3389375,27.83203125,34.66796875,23.92578125,16.6015625,-23.4375
1771540459.3428438,21.97265625,37.109375,31.25,18.5546875,-1.46484375
1771540459.34675,24.4140625,37.109375,20.01953125,16.11328125,-48.828125
1771540459.3506563,33.203125,37.59765625,12.6953125,10.25390625,-53.22265625
1771540459.3545625,36.1328125,43.45703125,25.390625,14.6484375,5.37109375
1771540459.3584688,35.64453125,41.9921875,31.73828125,20.99609375,2.9296875
1771540459.362375,37.59765625,33.69140625,23.4375,24.4140625,32.2265625
1771540459.3662813,41.9921875,36.1328125,25.390625,32.71484375,46.875
1771540459.3701875,36.62109375,42.48046875,35.15625,36.1328125,102.5390625
1771540459.3740938,34.1796875,40.52734375,29.296875,35.64453125,89.35546875
1771540459.374125,41.50390625,38.0859375,17.08984375,36.62109375,39.0625
1771540459.3780313,46.38671875,41.015625,17.578125,39.55078125,69.82421875
1771540459.3819375,47.36328125,46.875,30.76171875,44.43359375,66.89453125
1771540459.3858438,49.31640625,50.78125,25.390625,44.921875,25.87890625
1771540459.38975,45.8984375,50.29296875,15.625,41.9921875,9.27734375
1771540459.3936563,41.9921875,44.43359375,17.578125,42.48046875,3.41796875
1771540459.3975625,45.41015625,41.015625,24.4140625,45.8984375,-43.45703125
1771540459.4014688,38.57421875,39.55078125,29.296875,42.48046875,-2.9296875
1771540459.405375,31.25,37.109375,15.625,30.76171875,23.4375
1771540459.4092813,28.80859375,41.50390625,20.01953125,26.85546875,56.640625
1771540459.4131875,24.90234375,44.921875,30.76171875,32.71484375,41.015625
1771540459.4170938,27.83203125,42.48046875,19.04296875,36.62109375,-21.97265625
1771540459.419125,26.85546875,44.43359375,12.20703125,27.34375,45.8984375
1771540459.4230313,22.94921875,47.36328125,20.5078125,27.83203125,35.15625
1771540459.4269376,25.390625,46.875,26.85546875,36.1328125,40.52734375
1771540459.4308438,29.296875,45.8984375,19.53125,33.203125,29.296875
1771540459.43475,28.3203125,46.875,18.06640625,34.1796875,-39.0625
1771540459.4386563,24.90234375,49.31640625,15.13671875,35.15625,52.734375
1771540459.4425626,26.85546875,46.38671875,11.23046875,37.109375,65.4296875
1771540459.4464688,32.2265625,38.0859375,13.671875,38.57421875,7.32421875
1771540459.450375,38.0859375,35.64453125,7.8125,34.66796875,47.8515625
1771540459.4542813,34.66796875,44.43359375,17.08984375,34.1796875,36.62109375
1771540459.4581876,32.2265625,48.828125,25.87890625,38.0859375,54.6875
1771540459.4620938,37.109375,45.8984375,17.578125,39.55078125,62.5
1771540459.463125,41.50390625,47.36328125,15.13671875,44.43359375,16.6015625
1771540459.4670312,40.0390625,47.8515625,20.01953125,41.9921875,5.37109375
1771540459.4709375,35.64453125,48.828125,18.06640625,38.57421875,5.859375
1771540459.4748437,30.76171875,45.41015625,18.06640625,38.0859375,41.015625
1771540459.47875,32.71484375,39.55078125,18.5546875,33.69140625,16.6015625
1771540459.4826562,33.203125,38.0859375,16.6015625,30.76171875,52.734375
1771540459.4865625,24.90234375,37.109375,16.6015625,34.1796875,108.88671875
1771540459.4904687,20.5078125,36.62109375,16.11328125,32.71484375,30.76171875
1771540459.494375,13.18359375,36.62109375,19.04296875,26.3671875,13.671875
1771540459.4982812,9.765625,34.66796875,20.99609375,23.92578125,-10.7421875
1771540459.5021875,8.30078125,34.1796875,20.01953125,22.94921875,-47.8515625
1771540459.5060937,7.8125,35.15625,4.8828125,10.7421875,17.578125
1771540459.509125,6.8359375,36.62109375,14.6484375,0.0,67.87109375
1771540459.5130312,9.27734375,38.0859375,29.78515625,5.859375,48.33984375
1771540459.5169375,11.23046875,40.0390625,15.13671875,9.765625,35.64453125
1771540459.5208437,14.16015625,41.015625,12.6953125,13.671875,46.38671875
1771540459.52475,23.4375,41.015625,24.90234375,22.4609375,68.359375
1771540459.5286562,29.296875,43.45703125,22.94921875,23.4375,62.98828125
1771540459.5325625,23.92578125,40.0390625,11.23046875,20.5078125,9.765625
1771540459.5364687,20.01953125,37.109375,12.6953125,20.99609375,-8.30078125
1771540459.540375,29.296875,42.48046875,28.3203125,30.2734375,-16.11328125
1771540459.5442812,39.0625,45.8984375,27.34375,41.9921875,8.30078125
1771540459.5481875,38.0859375,42.96875,18.5546875,38.0859375,57.12890625
1771540459.5520937,40.52734375,44.921875,17.08984375,36.62109375,63.96484375
1771540459.555125,52.734375,50.29296875,24.4140625,46.38671875,41.015625
1771540459.5590312,59.08203125,48.828125,23.92578125,49.31640625,7.32421875
1771540459.5629375,53.22265625,42.48046875,19.53125,46.875,26.85546875
1771540459.5668437,41.015625,41.9921875,23.92578125,41.50390625,73.73046875
1771540459.57075,37.59765625,45.8984375,22.4609375,37.59765625,52.734375
1771540459.5746562,37.59765625,41.50390625,11.71875,29.78515625,-9.765625
1771540459.5785625,36.1328125,35.64453125,3.90625,29.78515625,-18.06640625
1771540459.5824687,28.3203125,40.0390625,10.7421875,30.2734375,17.08984375
1771540459.586375,23.92578125,47.8515625,23.92578125,24.4140625,23.4375
1771540459.5902812,25.390625,49.31640625,20.99609375,24.4140625,44.921875
1771540459.5941875,25.87890625,48.33984375,22.4609375,31.73828125,98.14453125
1771540459.5980937,17.578125,43.9453125,29.296875,26.85546875,81.54296875
1771540459.599125,5.37109375,41.015625,27.34375,17.578125,54.6875
1771540459.6030312,10.25390625,43.45703125,16.11328125,15.625,60.05859375
1771540459.6069374,15.13671875,44.43359375,15.13671875,16.11328125,45.41015625
1771540459.6108437,12.20703125,47.36328125,22.4609375,13.18359375,10.7421875
1771540459.61475,7.32421875,48.33984375,21.484375,8.30078125,18.06640625
1771540459.6186562,1.953125,42.96875,10.25390625,3.41796875,-10.7421875
1771540459.6225624,2.44140625,40.52734375,10.25390625,2.9296875,12.20703125
1771540459.6264687,5.859375,44.43359375,26.85546875,5.37109375,46.38671875
1771540459.630375,7.32421875,51.26953125,19.53125,7.8125,-1.46484375
1771540459.6342812,15.13671875,56.15234375,12.6953125,9.27734375,37.59765625
1771540459.6381874,26.3671875,48.828125,19.04296875,18.5546875,30.2734375
1771540459.6420937,29.296875,42.48046875,26.3671875,26.85546875,28.3203125
1771540459.659125,26.3671875,41.015625,23.92578125,28.80859375,73.73046875
1771540459.6630313,33.203125,41.50390625,22.4609375,35.64453125,40.0390625
1771540459.6669376,41.9921875,48.33984375,26.85546875,39.55078125,55.17578125
1771540459.6708438,41.50390625,48.33984375,22.4609375,41.015625,73.2421875
1771540459.67475,41.015625,49.8046875,23.4375,47.36328125,83.49609375
1771540459.6786563,38.57421875,49.31640625,12.20703125,38.0859375,88.37890625
1771540459.6825626,32.2265625,46.875,11.23046875,34.1796875,24.90234375
1771540459.6864688,32.2265625,51.26953125,31.25,42.96875,42.96875
1771540459.690375,38.0859375,48.828125,23.4375,46.38671875,28.80859375
1771540459.6942813,38.57421875,48.33984375,20.5078125,50.29296875,27.83203125
1771540459.6981876,36.62109375,48.828125,28.80859375,46.875,43.9453125
1771540459.7020938,40.0390625,48.828125,36.1328125,43.9453125,26.3671875
1771540459.704125,36.1328125,47.36328125,26.3671875,41.9921875,66.40625
1771540459.7080312,25.390625,45.41015625,10.7421875,29.78515625,5.859375
1771540459.7119374,22.94921875,51.26953125,21.97265625,26.85546875,-17.08984375
1771540459.7158437,23.92578125,53.22265625,25.390625,26.3671875,64.94140625
1771540459.71975,25.87890625,48.828125,13.18359375,22.94921875,68.359375
1771540459.7236562,22.4609375,45.8984375,5.37109375,25.390625,26.3671875
1771540459.7275624,17.08984375,45.41015625,12.20703125,25.390625,24.90234375
1771540459.7314687,20.5078125,45.8984375,24.4140625,22.94921875,55.6640625
1771540459.735375,30.2734375,49.31640625,17.08984375,23.92578125,25.87890625
1771540459.7392812,31.25,48.828125,5.859375,17.08984375,54.6875
1771540459.7431874,25.87890625,43.9453125,22.94921875,14.6484375,56.15234375
1771540459.7470937,31.25,42.48046875,33.69140625,28.3203125,-15.625
1771540459.749125,36.1328125,45.8984375,29.78515625,32.2265625,-11.23046875
1771540459.7530313,36.62109375,48.33984375,26.85546875,34.1796875,-19.53125
1771540459.7569375,37.109375,46.875,25.87890625,28.3203125,-14.6484375
1771540459.7608438,38.57421875,46.38671875,23.92578125,28.80859375,4.39453125
1771540459.76475,43.45703125,48.33984375,20.01953125,43.45703125,18.5546875
1771540459.7686563,44.921875,47.36328125,14.16015625,43.9453125,36.1328125
1771540459.7725625,41.015625,46.875,13.18359375,41.015625,23.4375
1771540459.7764688,39.55078125,48.33984375,17.578125,42.96875,21.484375
1771540459.780375,43.45703125,43.9453125,9.27734375,41.50390625,60.546875
1771540459.7842813,44.921875,42.96875,11.23046875,35.64453125,48.33984375
1771540459.7881875,41.015625,45.8984375,25.87890625,38.57421875,-30.2734375
1771540459.7920938,40.0390625,43.9453125,24.90234375,42.96875,11.71875
1771540459.794125,43.45703125,46.875,26.3671875,43.9453125,89.35546875
1771540459.7980313,41.50390625,48.828125,26.85546875,34.1796875,41.9921875
1771540459.8019376,34.1796875,47.8515625,25.390625,30.2734375,17.578125
1771540459.8058438,30.2734375,48.828125,18.5546875,33.203125,89.84375
1771540459.80975,29.78515625,48.828125,9.765625,30.2734375,40.0390625
1771540459.8136563,32.71484375,46.38671875,7.32421875,25.390625,-1.46484375
1771540459.8175626,36.1328125,48.828125,16.11328125,29.296875,42.96875
1771540459.8214688,24.4140625,44.43359375,18.06640625,28.80859375,57.12890625
1771540459.825375,11.71875,30.76171875,15.625,16.6015625,-3.90625
1771540459.8292813,12.20703125,32.71484375,33.203125,11.23046875,20.99609375
1771540459.8331876,17.578125,37.109375,24.90234375,10.25390625,41.50390625
1771540459.8370938,18.5546875,36.62109375,7.32421875,13.671875,6.8359375
1771540459.839125,21.97265625,38.57421875,20.5078125,25.87890625,20.01953125
1771540459.8430312,29.78515625,40.0390625,29.78515625,33.69140625,4.8828125
1771540459.8469374,31.25,42.48046875,21.484375,33.203125,-16.11328125
1771540459.8508437,27.83203125,43.45703125,19.53125,37.59765625,-5.859375
1771540459.85475,37.109375,41.9921875,27.34375,46.875,12.20703125
1771540459.8586562,41.9921875,41.50390625,28.3203125,48.828125,50.78125
1771540459.8625624,36.1328125,43.9453125,25.390625,43.45703125,36.1328125
1771540459.8664687,40.52734375,44.921875,14.6484375,36.1328125,35.15625
1771540459.870375,39.55078125,46.38671875,20.01953125,35.64453125,50.29296875
1771540459.8742812,41.015625,51.26953125,35.64453125,41.9921875,26.3671875
1771540459.8781874,41.9921875,47.8515625,26.3671875,38.57421875,27.83203125
1771540459.8820937,33.69140625,42.96875,22.4609375,36.1328125,52.734375
1771540459.898125,22.4609375,42.96875,26.3671875,32.71484375,102.5390625
1771540459.9020312,23.92578125,43.9453125,29.296875,31.73828125,85.44921875
1771540459.9059374,27.83203125,44.43359375,23.92578125,31.25,44.921875
1771540459.9098437,28.80859375,45.41015625,20.5078125,31.73828125,45.8984375
1771540459.91375,25.390625,48.33984375,27.83203125,28.80859375,55.6640625
1771540459.9176562,21.484375,43.9453125,20.01953125,24.90234375,47.8515625
1771540459.9215624,33.203125,43.9453125,12.6953125,29.296875,45.41015625
1771540459.9254687,34.66796875,47.36328125,20.01953125,24.4140625,19.04296875
1771540459.929375,23.4375,45.8984375,27.83203125,18.06640625,41.9921875
1771540459.9332812,20.01953125,46.875,30.76171875,17.578125,94.7265625
1771540459.9371874,23.4375,47.8515625,23.4375,19.53125,78.125
1771540459.9410937,20.5078125,43.45703125,20.01953125,14.6484375,63.4765625
1771540459.929125,16.6015625,41.50390625,30.2734375,15.625,55.17578125
1771540459.9330313,11.23046875,37.59765625,20.01953125,19.53125,30.76171875
1771540459.9369376,9.765625,36.62109375,18.06640625,21.484375,-23.92578125
1771540459.9408438,16.11328125,39.55078125,20.01953125,14.6484375,-13.671875
1771540459.94475,23.92578125,42.96875,20.01953125,20.01953125,45.8984375
1771540459.9486563,26.3671875,41.015625,18.06640625,30.76171875,54.6875
1771540459.9525626,25.390625,40.0390625,17.578125,27.34375,82.51953125
1771540459.9564688,26.3671875,44.43359375,15.625,22.94921875,71.77734375
1771540459.960375,28.80859375,46.875,14.16015625,26.3671875,22.4609375
1771540459.9642813,30.2734375,48.33984375,16.6015625,32.2265625,35.64453125
1771540459.9681876,27.34375,45.41015625,0.0,20.01953125,46.38671875
1771540459.9720938,29.78515625,41.015625,6.34765625,17.08984375,51.7578125
1771540459.989125,36.1328125,43.9453125,27.34375,33.203125,75.68359375
1771540459.9930313,31.73828125,43.45703125,17.08984375,30.76171875,75.68359375
1771540459.9969375,27.83203125,41.50390625,14.16015625,30.2734375,61.03515625
1771540460.0008438,36.1328125,43.45703125,23.92578125,36.62109375,33.69140625
1771540460.00475,41.50390625,47.8515625,19.53125,32.2265625,37.59765625
1771540460.0086563,41.50390625,49.8046875,2.9296875,28.3203125,73.73046875
1771540460.0125625,38.0859375,47.36328125,-1.46484375,24.90234375,80.56640625
1771540460.0164688,37.109375,49.8046875,19.53125,24.90234375,65.91796875
1771540460.020375,35.15625,50.29296875,25.87890625,19.04296875,38.0859375
1771540460.0242813,33.203125,46.875,14.16015625,11.71875,20.01953125
1771540460.0281875,25.390625,41.50390625,18.06640625,14.6484375,2.44140625
1771540460.0320938,19.53125,41.9921875,28.3203125,23.92578125,-35.64453125
1771540460.034125,24.90234375,49.8046875,23.92578125,22.94921875,-39.0625
1771540460.0380313,22.4609375,47.8515625,20.01953125,21.484375,-20.5078125
1771540460.0419376,20.99609375,40.0390625,24.90234375,26.85546875,27.83203125
1771540460.0458438,21.97265625,39.55078125,25.390625,32.71484375,17.578125
1771540460.04975,21.97265625,40.52734375,26.3671875,34.1796875,11.71875
1771540460.0536563,24.90234375,37.59765625,22.94921875,32.2265625,58.59375
1771540460.0575626,26.3671875,35.64453125,24.4140625,34.66796875,54.6875
1771540460.0614688,18.06640625,34.66796875,27.34375,25.87890625,37.109375
1771540460.065375,20.01953125,36.62109375,24.4140625,25.390625,72.265625
1771540460.0692813,30.2734375,37.109375,13.671875,26.3671875,107.421875
1771540460.0731876,26.3671875,35.15625,11.71875,23.92578125,36.1328125
1771540460.0770938,20.5078125,40.0390625,24.90234375,27.83203125,15.13671875
1771540460.079125,27.83203125,40.52734375,23.4375,29.78515625,72.265625
1771540460.0830312,36.62109375,38.57421875,21.484375,39.55078125,33.69140625
1771540460.0869374,38.0859375,41.50390625,25.390625,40.0390625,40.0390625
1771540460.0908437,35.15625,42.96875,24.4140625,35.64453125,61.03515625
1771540460.09475,36.1328125,39.55078125,21.484375,37.59765625,54.19921875
1771540460.0986562,44.921875,41.9921875,17.08984375,41.015625,37.59765625
1771540460.1025624,47.36328125,43.9453125,14.6484375,39.0625,9.27734375
1771540460.1064687,42.48046875,48.33984375,20.01953125,33.69140625,-33.69140625
1771540460.110375,40.0390625,51.26953125,16.11328125,31.25,33.203125
1771540460.1142812,41.9921875,41.015625,9.27734375,24.4140625,84.9609375
1771540460.1181874,41.50390625,38.0859375,20.99609375,25.87890625,10.25390625
1771540460.1220937,41.9921875,41.50390625,26.3671875,34.1796875,20.5078125
1771540460.124125,35.64453125,40.52734375,19.53125,32.71484375,44.921875
1771540460.1280313,31.73828125,38.57421875,21.97265625,24.90234375,21.484375
1771540460.1319375,36.62109375,41.50390625,29.78515625,27.83203125,33.203125
1771540460.1358438,33.69140625,42.96875,25.390625,26.3671875,27.83203125
1771540460.13975,29.296875,41.9921875,23.4375,27.34375,30.2734375
1771540460.1436563,33.203125,41.015625,24.4140625,33.203125,66.40625
1771540460.1475625,40.0390625,38.0859375,19.53125,32.2265625,26.85546875
1771540460.1514688,44.921875,39.0625,21.97265625,35.64453125,12.20703125
1771540460.155375,35.64453125,35.64453125,15.13671875,28.3203125,36.62109375
1771540460.1592813,27.34375,36.62109375,17.08984375,26.3671875,19.53125
1771540460.1631875,32.2265625,41.015625,29.78515625,39.0625,-15.13671875
1771540460.1670938,24.90234375,37.109375,22.94921875,41.9921875,-2.9296875
1771540460.199125,10.7421875,33.203125,20.01953125,45.41015625,50.78125
1771540460.2030313,8.7890625,34.1796875,27.34375,45.8984375,54.19921875
1771540460.2069376,15.625,38.0859375,29.296875,43.9453125,29.296875
1771540460.2108438,28.80859375,40.52734375,16.11328125,37.59765625,48.828125
1771540460.21475,32.2265625,41.9921875,10.25390625,29.78515625,86.9140625
1771540460.2186563,25.390625,36.62109375,20.5078125,31.73828125,54.19921875
1771540460.2225626,27.83203125,36.1328125,28.80859375,39.0625,15.13671875
1771540460.2264688,33.69140625,47.36328125,17.578125,29.296875,-0.48828125
1771540460.230375,34.66796875,53.22265625,8.30078125,13.18359375,11.71875
1771540460.2342813,37.109375,48.828125,24.90234375,24.4140625,47.8515625
1771540460.2381876,44.43359375,46.38671875,29.296875,39.0625,19.53125
1771540460.2420938,43.45703125,45.8984375,22.94921875,34.66796875,-27.83203125
1771540460.214125,43.9453125,42.48046875,23.4375,31.73828125,-26.85546875
1771540460.2180312,42.48046875,45.41015625,24.90234375,36.1328125,30.76171875
1771540460.2219374,41.015625,49.8046875,25.390625,36.62109375,63.96484375
1771540460.2258437,49.31640625,49.31640625,20.01953125,38.57421875,17.08984375
1771540460.22975,49.31640625,46.875,18.06640625,41.9921875,11.71875
1771540460.2336562,40.0390625,41.9921875,21.97265625,42.96875,33.203125
1771540460.2375624,33.69140625,40.0390625,20.99609375,41.50390625,31.73828125
1771540460.2414687,33.69140625,42.48046875,22.4609375,37.109375,43.45703125
1771540460.245375,35.15625,41.9921875,27.34375,35.15625,23.92578125
1771540460.2492812,32.71484375,37.59765625,32.2265625,36.62109375,17.08984375
1771540460.2531874,28.3203125,33.69140625,21.484375,33.203125,-3.41796875
1771540460.2570937,22.4609375,37.59765625,15.625,30.2734375,22.4609375
1771540460.259125,19.53125,39.0625,19.53125,25.390625,65.4296875
1771540460.2630312,21.484375,37.59765625,18.06640625,20.99609375,45.8984375
1771540460.2669375,17.08984375,35.15625,10.7421875,18.06640625,62.5
1771540460.2708437,19.53125,35.15625,1.953125,7.32421875,75.1953125
1771540460.27475,27.34375,44.921875,15.13671875,8.30078125,70.3125
1771540460.2786562,28.80859375,45.41015625,19.04296875,16.11328125,62.5
1771540460.2825625,28.80859375,39.0625,12.20703125,19.53125,21.97265625
1771540460.2864687,27.34375,34.1796875,5.859375,7.8125,41.9921875
1771540460.290375,32.71484375,40.0390625,17.578125,8.30078125,48.828125
1771540460.2942812,38.0859375,44.43359375,23.92578125,19.04296875,-18.5546875
1771540460.2981875,39.55078125,41.50390625,17.578125,18.5546875,27.34375
1771540460.3020937,33.69140625,42.48046875,16.6015625,21.97265625,-0.9765625
1771540460.304125,40.0390625,45.8984375,28.80859375,29.296875,10.25390625
1771540460.3080313,44.921875,46.38671875,29.296875,33.69140625,103.515625
1771540460.3119376,38.0859375,42.96875,19.53125,36.1328125,28.80859375
1771540460.3158438,37.59765625,42.96875,26.85546875,39.0625,-19.04296875
1771540460.31975,42.96875,43.9453125,36.62109375,47.36328125,72.75390625
1771540460.3236563,51.7578125,37.59765625,25.87890625,58.59375,16.6015625
