timestamps,TP9,AF7,AF8,TP10,Right AUX
1771545683.756125,29.296875,45.41015625,-21.97265625,36.1328125,14.6484375
1771545683.7600312,45.41015625,45.8984375,-13.18359375,73.73046875,-9.27734375
1771545683.7639375,41.9921875,47.8515625,-8.30078125,55.6640625,-2.44140625
1771545683.7678437,36.1328125,48.33984375,-4.39453125,6.8359375,83.0078125
1771545683.77175,41.9921875,49.31640625,-15.625,14.16015625,97.65625
1771545683.7756562,61.03515625,50.78125,-30.2734375,62.5,7.32421875
1771545683.7795625,59.08203125,47.8515625,-20.99609375,83.0078125,-24.90234375
1771545683.7834687,39.0625,46.38671875,-16.6015625,28.80859375,39.55078125
1771545683.787375,41.50390625,47.8515625,-12.6953125,-1.953125,71.2890625
1771545683.7912812,46.38671875,49.31640625,-8.7890625,45.8984375,78.125
1771545683.7951875,56.15234375,51.26953125,-19.53125,67.3828125,34.1796875
1771545683.7990937,41.50390625,50.78125,-17.08984375,19.53125,-0.48828125
1771545683.801125,29.78515625,52.734375,-12.6953125,-4.8828125,68.359375
1771545683.8050313,53.22265625,54.19921875,-19.53125,32.2265625,50.29296875
1771545683.8089375,61.5234375,53.7109375,-22.94921875,67.3828125,19.04296875
1771545683.8128438,41.50390625,55.17578125,-13.671875,50.29296875,9.765625
1771545683.81675,29.296875,55.6640625,-4.8828125,3.41796875,13.671875
1771545683.8206563,44.43359375,55.17578125,-20.5078125,27.34375,67.87109375
1771545683.8245625,62.98828125,50.29296875,-35.64453125,71.2890625,6.8359375
1771545683.8284688,46.875,45.8984375,-21.97265625,49.8046875,-25.87890625
1771545683.832375,25.87890625,49.31640625,0.9765625,7.32421875,29.296875
1771545683.8362813,44.43359375,52.734375,-10.25390625,15.625,5.859375
1771545683.8401875,58.59375,52.24609375,-20.01953125,56.640625,20.01953125
1771545683.8440938,50.29296875,50.78125,-12.6953125,66.89453125,47.36328125
1771545683.845125,32.71484375,52.24609375,-4.8828125,16.11328125,-10.25390625
1771545683.8490312,32.71484375,54.19921875,-9.27734375,-1.46484375,20.5078125
1771545683.8529375,52.24609375,51.26953125,-24.4140625,41.015625,-17.08984375
1771545683.8568437,62.01171875,51.7578125,-21.97265625,66.40625,-22.4609375
1771545683.86075,44.43359375,52.734375,-11.23046875,35.15625,-4.8828125
1771545683.8646562,30.76171875,54.19921875,-10.25390625,5.37109375,38.0859375
1771545683.8685625,45.41015625,53.7109375,-31.73828125,38.0859375,87.890625
1771545683.8724687,49.8046875,51.26953125,-27.34375,59.08203125,76.66015625
1771545683.876375,29.296875,51.7578125,-1.46484375,33.203125,32.2265625
1771545683.8802812,22.94921875,49.31640625,-8.7890625,0.48828125,12.20703125
1771545683.8841875,42.96875,49.8046875,-19.04296875,25.87890625,47.36328125
1771545683.8880937,55.17578125,56.15234375,-23.92578125,59.5703125,9.765625
1771545683.905125,38.57421875,57.6171875,-24.4140625,37.59765625,9.27734375
1771545683.9090312,26.3671875,58.59375,-25.390625,8.7890625,21.97265625
1771545683.9129374,33.69140625,58.59375,-25.390625,14.6484375,46.38671875
1771545683.9168437,45.8984375,52.734375,-17.578125,45.41015625,50.29296875
1771545683.92075,43.45703125,50.78125,-11.71875,62.5,91.30859375
1771545683.9246562,37.59765625,52.24609375,-22.94921875,34.66796875,97.65625
1771545683.9285624,40.52734375,52.24609375,-30.76171875,0.9765625,36.1328125
1771545683.9324687,47.36328125,50.29296875,-14.16015625,22.4609375,43.9453125
1771545683.936375,58.59375,50.78125,-5.37109375,65.91796875,109.86328125
1771545683.9402812,52.24609375,54.19921875,-8.7890625,41.9921875,79.1015625
1771545683.9441874,41.9921875,56.15234375,-10.25390625,0.48828125,25.87890625
1771545683.9480937,51.26953125,57.6171875,-11.71875,34.66796875,59.5703125
1771545683.951125,61.03515625,57.12890625,-16.6015625,75.1953125,54.6875
1771545683.9550312,48.828125,56.15234375,-17.08984375,51.7578125,-7.8125
1771545683.9589374,35.64453125,56.640625,-13.671875,7.32421875,13.671875
1771545683.9628437,40.52734375,57.12890625,-16.6015625,29.78515625,9.765625
1771545683.96675,46.38671875,54.19921875,-18.06640625,72.75390625,-11.23046875
1771545683.9706562,42.48046875,51.7578125,-19.53125,64.453125,-19.04296875
1771545683.9745624,32.2265625,50.78125,-18.5546875,19.04296875,-32.2265625
1771545683.9784687,30.76171875,51.7578125,-13.671875,14.16015625,12.6953125
1771545683.982375,61.03515625,55.17578125,-20.5078125,50.78125,61.03515625
1771545683.9862812,64.453125,53.22265625,-22.94921875,66.40625,-0.48828125
1771545683.9901874,35.15625,52.24609375,-7.8125,32.71484375,3.90625
1771545683.9940937,35.15625,54.19921875,-7.8125,16.11328125,68.84765625
1771545683.995125,58.59375,53.22265625,-25.390625,52.734375,38.57421875
1771545683.9990313,66.40625,53.22265625,-33.203125,73.2421875,48.33984375
1771545684.0029376,27.83203125,53.7109375,-9.27734375,30.2734375,62.01171875
1771545684.0068438,19.04296875,52.734375,-2.44140625,1.953125,70.3125
1771545684.01075,46.875,52.734375,-22.94921875,41.50390625,68.84765625
1771545684.0146563,61.5234375,53.7109375,-27.34375,73.2421875,47.8515625
1771545684.0185626,49.31640625,54.6875,-14.16015625,55.17578125,17.578125
1771545684.0224688,23.4375,57.12890625,-4.39453125,12.20703125,6.8359375
1771545684.026375,41.9921875,54.6875,-21.97265625,25.87890625,25.390625
1771545684.0302813,72.75390625,47.36328125,-22.4609375,77.63671875,38.57421875
1771545684.0341876,49.8046875,44.921875,-0.9765625,67.87109375,8.30078125
1771545684.0380938,23.92578125,47.36328125,-0.48828125,14.16015625,23.92578125
1771545684.040125,37.59765625,47.8515625,-10.7421875,18.5546875,38.0859375
1771545684.0440311,43.9453125,45.8984375,-13.18359375,59.08203125,17.578125
1771545684.0479374,43.45703125,44.43359375,-6.34765625,70.3125,21.97265625
1771545684.0518436,45.41015625,45.8984375,-2.44140625,40.52734375,74.70703125
1771545684.05575,39.55078125,49.31640625,-15.13671875,6.34765625,54.6875
1771545684.0596561,46.875,49.31640625,-30.76171875,32.2265625,-11.71875
1771545684.0635624,52.734375,45.41015625,-20.01953125,67.3828125,8.7890625
1771545684.0674686,51.26953125,43.45703125,-9.27734375,32.71484375,67.87109375
1771545684.071375,57.6171875,43.45703125,-22.94921875,1.953125,57.6171875
1771545684.0752811,61.03515625,45.8984375,-20.01953125,36.1328125,20.01953125
1771545684.0791874,67.3828125,48.828125,-10.7421875,72.265625,15.625
1771545684.0830936,52.24609375,46.38671875,-12.6953125,60.05859375,49.8046875
1771545684.086125,29.78515625,47.8515625,-17.08984375,26.3671875,19.53125
1771545684.0900311,40.52734375,51.7578125,-18.06640625,36.62109375,17.08984375
1771545684.0939374,62.01171875,53.22265625,-12.20703125,71.2890625,22.4609375
1771545684.0978436,48.828125,49.31640625,-15.625,69.82421875,7.32421875
1771545684.10175,24.90234375,50.78125,-9.765625,22.4609375,66.40625
1771545684.1056561,17.578125,52.734375,-9.765625,18.06640625,91.30859375
1771545684.1095624,42.48046875,49.8046875,-20.5078125,72.265625,27.83203125
1771545684.1134686,63.96484375,46.875,-22.4609375,90.8203125,10.7421875
1771545684.117375,48.33984375,42.48046875,-13.671875,33.203125,28.3203125
1771545684.1212811,25.87890625,42.48046875,3.90625,-2.9296875,71.77734375
1771545684.1251874,40.52734375,45.41015625,-8.7890625,25.87890625,90.33203125
1771545684.1290936,59.08203125,43.45703125,-20.5078125,57.6171875,30.2734375
1771545684.145125,38.0859375,41.015625,-10.7421875,37.109375,26.85546875
1771545684.1490312,30.2734375,42.48046875,-7.32421875,-3.90625,29.296875
1771545684.1529374,42.48046875,45.41015625,-14.6484375,28.80859375,52.734375
1771545684.1568437,44.921875,46.875,-21.97265625,66.89453125,56.15234375
1771545684.16075,40.0390625,46.875,-19.53125,49.8046875,1.953125
1771545684.1646562,23.92578125,49.31640625,-18.06640625,2.44140625,22.94921875
1771545684.1685624,29.296875,47.36328125,-23.92578125,-0.9765625,55.6640625
1771545684.1724687,61.03515625,50.78125,-36.1328125,54.19921875,29.296875
1771545684.176375,65.4296875,57.12890625,-25.390625,61.03515625,32.71484375
1771545684.1802812,29.296875,52.24609375,-7.8125,15.625,15.13671875
1771545684.1841874,28.80859375,44.921875,-18.5546875,13.671875,13.671875
1771545684.1880937,48.33984375,40.52734375,-23.92578125,46.875,45.41015625
1771545684.176125,58.10546875,40.0390625,-13.671875,65.4296875,48.828125
1771545684.1800313,52.24609375,39.55078125,-4.8828125,35.64453125,31.73828125
1771545684.1839375,38.57421875,46.38671875,-12.20703125,-2.9296875,38.57421875
1771545684.1878438,43.45703125,49.31640625,-20.01953125,12.6953125,69.82421875
1771545684.19175,54.6875,48.33984375,-12.6953125,53.7109375,72.75390625
1771545684.1956563,56.15234375,45.8984375,-10.25390625,45.41015625,28.3203125
1771545684.1995625,36.62109375,41.9921875,-14.6484375,7.8125,4.8828125
1771545684.2034688,34.1796875,41.9921875,-13.18359375,17.08984375,16.6015625
1771545684.207375,49.31640625,42.96875,-12.6953125,54.6875,21.97265625
1771545684.2112813,44.43359375,44.43359375,-4.8828125,47.36328125,-6.34765625
1771545684.2151875,40.52734375,46.38671875,-11.71875,-7.32421875,10.7421875
1771545684.2190938,38.57421875,44.43359375,-30.76171875,-4.39453125,21.484375
1771545684.221125,37.59765625,41.50390625,-13.18359375,45.41015625,42.48046875
1771545684.2250311,47.8515625,42.48046875,-8.30078125,49.8046875,18.5546875
1771545684.2289374,26.85546875,47.36328125,-11.71875,6.34765625,11.71875
1771545684.2328436,22.4609375,48.828125,-10.7421875,-5.37109375,-12.20703125
1771545684.23675,52.24609375,49.31640625,-16.6015625,45.8984375,-6.8359375
1771545684.2406561,64.453125,43.9453125,-23.4375,74.70703125,20.99609375
1771545684.2445624,41.50390625,37.59765625,-26.85546875,31.25,28.80859375
1771545684.2484686,29.78515625,38.57421875,-23.4375,-11.23046875,59.5703125
1771545684.252375,46.38671875,38.57421875,-17.578125,31.25,62.98828125
1771545684.2562811,62.01171875,40.0390625,-19.53125,73.2421875,79.1015625
1771545684.2601874,42.48046875,39.55078125,-22.94921875,37.109375,40.52734375
1771545684.2640936,27.34375,40.52734375,-14.6484375,-14.6484375,28.3203125
1771545684.281125,37.59765625,46.38671875,-22.94921875,9.27734375,45.8984375
1771545684.2850313,42.96875,46.875,-32.71484375,62.01171875,9.27734375
1771545684.2889376,45.8984375,44.43359375,-24.90234375,62.5,28.3203125
1771545684.2928438,35.15625,46.875,-16.6015625,8.30078125,54.6875
1771545684.29675,38.57421875,52.734375,-25.87890625,-6.34765625,32.71484375
1771545684.3006563,62.5,51.26953125,-44.43359375,41.015625,-1.953125
1771545684.3045626,60.05859375,45.41015625,-32.71484375,55.6640625,27.83203125
1771545684.3084688,35.15625,48.828125,-12.20703125,21.97265625,44.43359375
1771545684.312375,36.1328125,52.734375,-20.01953125,10.25390625,32.2265625
1771545684.3162813,53.7109375,48.33984375,-37.109375,25.390625,78.125
1771545684.3201876,53.22265625,46.38671875,-37.109375,44.43359375,54.6875
1771545684.3240938,29.296875,46.875,-18.5546875,26.85546875,27.83203125
1771545684.326125,25.390625,47.8515625,-23.92578125,-8.30078125,-15.625
1771545684.3300312,41.015625,49.31640625,-36.1328125,23.4375,-23.4375
1771545684.3339374,48.828125,45.41015625,-26.3671875,62.98828125,65.91796875
1771545684.3378437,41.9921875,45.41015625,-16.6015625,42.48046875,63.4765625
1771545684.34175,29.78515625,47.36328125,-22.4609375,-6.34765625,25.390625
1771545684.3456562,35.15625,41.9921875,-38.0859375,4.8828125,13.671875
1771545684.3495624,43.9453125,39.0625,-35.15625,51.7578125,24.90234375
1771545684.3534687,47.8515625,39.0625,-20.99609375,51.26953125,54.6875
1771545684.357375,29.296875,40.0390625,-20.99609375,20.5078125,57.6171875
1771545684.3612812,16.6015625,40.0390625,-41.015625,16.11328125,17.08984375
1771545684.3651874,39.0625,37.109375,-35.64453125,40.0390625,-17.578125
1771545684.3690937,46.38671875,38.0859375,-18.5546875,58.59375,9.27734375
1771545684.370125,28.3203125,39.55078125,-28.3203125,31.25,12.20703125
1771545684.3740313,26.3671875,38.57421875,-34.1796875,0.9765625,11.23046875
1771545684.3779376,41.015625,36.62109375,-29.296875,35.15625,24.90234375
1771545684.3818438,56.15234375,37.109375,-26.3671875,82.03125,62.98828125
1771545684.38575,43.45703125,41.50390625,-23.4375,48.33984375,77.63671875
1771545684.3896563,22.4609375,41.50390625,-27.83203125,-8.7890625,88.37890625
1771545684.3935626,31.73828125,41.50390625,-35.15625,31.73828125,73.73046875
1771545684.3974688,54.6875,44.43359375,-29.78515625,78.125,46.875
1771545684.401375,45.41015625,42.96875,-23.92578125,45.8984375,74.21875
1771545684.4052813,14.6484375,43.9453125,-17.08984375,-6.34765625,91.30859375
1771545684.4091876,31.25,46.875,-16.11328125,9.27734375,88.8671875
1771545684.4130938,48.828125,45.8984375,-22.4609375,59.08203125,75.68359375
1771545684.415125,47.36328125,42.48046875,-31.73828125,65.91796875,42.96875
1771545684.4190311,35.15625,38.0859375,-26.85546875,20.01953125,21.484375
1771545684.4229374,32.2265625,38.0859375,-20.99609375,0.0,20.01953125
1771545684.4268436,41.9921875,38.57421875,-31.73828125,38.0859375,17.578125
1771545684.43075,36.1328125,36.1328125,-24.90234375,53.7109375,37.109375
1771545684.4346561,32.71484375,40.52734375,-18.5546875,12.6953125,58.59375
1771545684.4385624,13.18359375,41.015625,-21.484375,-7.32421875,8.7890625
1771545684.4424686,20.99609375,38.57421875,-22.94921875,29.78515625,75.1953125
1771545684.446375,46.875,38.57421875,-35.15625,63.96484375,86.42578125
1771545684.4502811,39.0625,39.0625,-20.99609375,36.62109375,41.015625
1771545684.4541874,20.01953125,43.45703125,-8.7890625,-10.7421875,57.6171875
1771545684.4580936,23.92578125,44.921875,-28.3203125,7.32421875,1.953125
1771545684.461125,36.1328125,42.96875,-28.3203125,50.78125,-6.34765625
1771545684.4650311,33.69140625,46.38671875,-11.23046875,53.7109375,55.17578125
1771545684.4689374,27.83203125,59.08203125,-14.6484375,9.27734375,43.9453125
1771545684.4728436,33.203125,56.15234375,-32.71484375,7.32421875,-2.44140625
1771545684.47675,42.48046875,43.45703125,-35.64453125,49.8046875,18.5546875
1771545684.4806561,50.29296875,36.1328125,-34.66796875,62.5,6.34765625
1771545684.4845624,29.78515625,34.66796875,-21.97265625,20.99609375,13.671875
1771545684.4884686,35.15625,39.55078125,-25.87890625,-5.37109375,43.9453125
1771545684.492375,59.5703125,38.57421875,-46.38671875,33.203125,-11.23046875
1771545684.4962811,50.29296875,36.1328125,-24.4140625,52.734375,-6.8359375
1771545684.5001874,45.8984375,41.015625,-7.8125,24.4140625,19.04296875
1771545684.5040936,30.76171875,43.45703125,-18.06640625,1.953125,9.27734375
1771545684.505125,14.6484375,41.015625,-20.99609375,28.3203125,17.08984375
1771545684.5090313,28.80859375,41.9921875,-18.5546875,56.640625,57.6171875
1771545684.5129375,44.43359375,41.9921875,-14.6484375,43.45703125,84.9609375
1771545684.5168438,30.2734375,40.52734375,-18.5546875,4.39453125,53.7109375
1771545684.52075,33.69140625,43.9453125,-25.87890625,17.578125,-17.08984375
1771545684.5246563,47.8515625,43.45703125,-25.390625,63.4765625,-15.625
1771545684.5285625,40.0390625,41.015625,-16.11328125,62.5,22.4609375
1771545684.5324688,25.87890625,41.9921875,-18.5546875,1.953125,48.33984375
1771545684.536375,23.4375,40.52734375,-24.4140625,-4.8828125,48.33984375
1771545684.5402813,40.0390625,41.50390625,-13.671875,53.22265625,30.76171875
1771545684.5441875,49.31640625,42.96875,-15.625,60.05859375,50.29296875
1771545684.5480938,32.2265625,41.50390625,-16.6015625,19.53125,42.96875
1771545684.550125,17.578125,39.0625,-16.6015625,-4.39453125,-7.32421875
1771545684.5540311,35.64453125,39.55078125,-21.484375,36.1328125,-3.90625
1771545684.5579374,59.08203125,44.921875,-29.296875,73.73046875,17.08984375
1771545684.5618436,39.0625,54.19921875,-32.2265625,32.71484375,49.8046875
1771545684.56575,14.16015625,56.640625,-25.390625,-18.06640625,62.5
1771545684.5696561,26.3671875,52.24609375,-33.203125,-4.8828125,52.24609375
1771545684.5735624,42.48046875,50.78125,-44.43359375,39.0625,57.6171875
1771545684.5774686,34.66796875,48.828125,-32.71484375,38.57421875,22.4609375
1771545684.581375,10.25390625,47.8515625,-11.71875,-14.6484375,-7.8125
1771545684.5852811,27.83203125,49.8046875,-20.01953125,2.44140625,-10.7421875
1771545684.5891874,60.05859375,47.8515625,-30.2734375,56.15234375,4.8828125
1771545684.5930936,46.38671875,44.921875,-17.08984375,52.734375,20.5078125
1771545684.596125,21.97265625,48.33984375,-5.859375,7.8125,-0.48828125
1771545684.6000311,20.5078125,53.22265625,-14.6484375,0.9765625,30.2734375
1771545684.6039374,35.64453125,51.26953125,-27.34375,47.36328125,41.015625
1771545684.6078436,40.52734375,49.31640625,-16.11328125,73.2421875,22.4609375
1771545684.61175,23.92578125,50.78125,-5.37109375,22.94921875,34.66796875
1771545684.6156561,29.78515625,50.78125,-14.16015625,1.46484375,64.453125
1771545684.6195624,47.8515625,47.36328125,-26.85546875,51.7578125,76.66015625
1771545684.6234686,60.05859375,47.8515625,-14.6484375,59.08203125,41.015625
1771545684.627375,49.31640625,51.7578125,3.90625,30.2734375,46.875
1771545684.6312811,33.69140625,53.7109375,-6.8359375,3.41796875,44.43359375
1771545684.6351874,41.9921875,52.24609375,-16.11328125,30.2734375,34.1796875
1771545684.6390936,38.0859375,48.828125,-12.6953125,67.87109375,64.94140625
1771545684.642125,29.78515625,49.31640625,-11.71875,53.7109375,33.69140625
1771545684.6460311,26.85546875,50.29296875,-14.6484375,17.08984375,9.765625
1771545684.6499374,26.3671875,48.828125,-23.92578125,16.6015625,24.4140625
1771545684.6538436,39.0625,48.828125,-21.97265625,49.31640625,-15.625
1771545684.65775,34.66796875,47.8515625,-11.23046875,53.22265625,2.9296875
1771545684.6616561,20.5078125,44.43359375,-20.5078125,10.25390625,44.921875
1771545684.6655624,30.76171875,46.38671875,-31.25,-4.39453125,25.390625
1771545684.6694686,40.52734375,47.8515625,-20.01953125,32.2265625,51.7578125
1771545684.673375,38.0859375,44.43359375,-18.06640625,50.78125,85.44921875
1771545684.6772811,15.625,39.55078125,-23.92578125,14.6484375,46.38671875
1771545684.6811874,12.6953125,40.0390625,-21.484375,-9.27734375,-6.34765625
1771545684.6850936,29.78515625,44.43359375,-20.01953125,25.87890625,49.31640625
1771545684.700125,40.0390625,38.0859375,-22.94921875,51.7578125,52.734375
1771545684.7040312,30.76171875,34.66796875,-14.6484375,22.4609375,0.9765625
1771545684.7079375,13.18359375,41.015625,-15.13671875,-16.6015625,59.5703125
1771545684.7118437,22.94921875,41.9921875,-20.01953125,3.41796875,116.69921875
1771545684.71575,37.109375,41.9921875,-18.06640625,45.8984375,73.73046875
1771545684.7196562,45.8984375,42.48046875,-31.25,41.9921875,46.875
1771545684.7235625,22.4609375,41.015625,-25.390625,-15.625,27.83203125
1771545684.7274687,8.7890625,41.50390625,-9.765625,-20.01953125,57.12890625
1771545684.731375,41.015625,42.96875,-21.97265625,47.8515625,90.8203125
1771545684.7352812,54.19921875,42.96875,-24.4140625,62.01171875,25.390625
1771545684.7391875,24.90234375,41.015625,-11.23046875,3.90625,62.98828125
1771545684.7430937,19.04296875,44.43359375,-20.01953125,-11.71875,54.6875
1771545684.745125,51.26953125,47.36328125,-34.1796875,41.50390625,-36.1328125
1771545684.7490313,62.5,44.921875,-29.78515625,75.68359375,-55.6640625
1771545684.7529376,42.96875,44.43359375,-12.20703125,31.73828125,19.04296875
1771545684.7568438,36.62109375,49.31640625,-10.7421875,14.16015625,88.8671875
1771545684.76075,52.734375,50.78125,-25.390625,46.875,51.26953125
1771545684.7646563,60.546875,47.36328125,-28.80859375,62.98828125,-20.5078125
1771545684.7685626,46.875,45.41015625,-18.06640625,48.828125,-23.92578125
1771545684.7724688,36.62109375,40.0390625,-3.41796875,16.11328125,1.953125
1771545684.776375,51.7578125,41.9921875,-10.7421875,40.0390625,22.94921875
1771545684.7802813,58.59375,51.26953125,-27.34375,78.61328125,93.26171875
1771545684.7841876,35.64453125,52.734375,-8.7890625,54.6875,94.7265625
1771545684.7880938,16.11328125,58.59375,-0.48828125,1.953125,50.78125
1771545684.790125,35.15625,61.03515625,-16.6015625,-6.34765625,32.2265625
1771545684.7940311,48.828125,56.15234375,-22.4609375,21.484375,53.7109375
1771545684.7979374,29.78515625,59.08203125,-12.6953125,26.85546875,61.03515625
1771545684.8018436,18.06640625,58.10546875,-4.39453125,4.8828125,35.64453125
1771545684.80575,22.4609375,55.6640625,-13.671875,-9.765625,34.1796875
1771545684.8096561,36.1328125,54.6875,-24.4140625,34.66796875,57.12890625
1771545684.8135624,44.43359375,53.7109375,-22.4609375,74.70703125,32.71484375
1771545684.8174686,38.57421875,53.7109375,-12.20703125,33.203125,24.4140625
1771545684.821375,39.55078125,53.22265625,-22.4609375,0.0,70.3125
1771545684.8252811,49.31640625,52.734375,-28.3203125,31.25,101.07421875
1771545684.8291874,53.22265625,53.7109375,-15.625,50.78125,66.40625
1771545684.8330936,53.22265625,56.15234375,-18.06640625,32.2265625,44.921875
1771545684.851125,48.33984375,55.17578125,-16.11328125,-2.9296875,70.3125
1771545684.8550313,45.41015625,54.6875,-14.16015625,15.625,64.453125
1771545684.8589375,46.875,56.640625,-22.4609375,66.89453125,16.11328125
1771545684.8628438,48.828125,55.17578125,-22.4609375,67.3828125,40.52734375
1771545684.86675,34.66796875,53.22265625,-17.08984375,16.11328125,42.96875
1771545684.8706563,32.2265625,53.7109375,-22.94921875,4.8828125,13.18359375
1771545684.8745625,52.24609375,51.7578125,-26.3671875,52.24609375,27.34375
1771545684.8784688,60.546875,49.31640625,-29.296875,74.70703125,62.5
1771545684.882375,53.22265625,46.875,-24.4140625,46.38671875,78.61328125
1771545684.8862813,42.96875,47.36328125,-14.16015625,8.30078125,62.98828125
1771545684.8901875,51.26953125,52.734375,-21.484375,35.64453125,39.55078125
1771545684.8940938,62.5,48.828125,-21.484375,68.84765625,43.45703125
1771545684.880125,48.33984375,44.921875,-11.71875,40.0390625,43.9453125
1771545684.8840313,36.1328125,49.8046875,-0.48828125,-2.9296875,40.0390625
1771545684.8879375,49.31640625,50.29296875,-11.71875,31.25,57.12890625
1771545684.8918438,54.19921875,46.38671875,-21.97265625,74.70703125,46.875
1771545684.89575,46.875,45.8984375,-8.7890625,47.8515625,3.90625
1771545684.8996563,33.69140625,47.36328125,-2.44140625,1.46484375,12.20703125
1771545684.9035625,33.69140625,46.875,-15.625,11.71875,0.9765625
1771545684.9074688,58.10546875,46.875,-20.01953125,52.24609375,6.34765625
1771545684.911375,55.6640625,47.8515625,-6.34765625,57.12890625,55.17578125
1771545684.9152813,25.390625,49.8046875,3.90625,19.53125,85.44921875
1771545684.9191875,34.1796875,53.22265625,-12.6953125,16.6015625,63.4765625
1771545684.9230938,62.01171875,49.31640625,-32.2265625,53.7109375,60.05859375
1771545684.926125,49.8046875,42.48046875,-17.08984375,54.6875,94.23828125
1771545684.9300313,18.5546875,45.41015625,0.0,15.625,73.73046875
1771545684.9339375,24.90234375,50.78125,-11.23046875,1.46484375,18.5546875
1771545684.9378438,41.9921875,51.7578125,-20.99609375,41.015625,19.04296875
1771545684.94175,56.15234375,49.8046875,-16.11328125,70.3125,17.08984375
1771545684.9456563,57.6171875,47.8515625,-7.32421875,47.36328125,-19.04296875
1771545684.9495625,39.55078125,49.8046875,-14.6484375,5.859375,3.41796875
1771545684.9534688,51.7578125,49.31640625,-23.92578125,23.4375,4.8828125
1771545684.957375,55.6640625,46.38671875,-11.23046875,77.1484375,-2.44140625
1771545684.9612813,51.26953125,44.921875,-3.41796875,64.453125,38.57421875
1771545684.9651875,42.96875,44.43359375,-6.34765625,3.90625,21.97265625
1771545684.9690938,38.57421875,48.33984375,-15.13671875,7.8125,0.0
1771545684.971125,62.5,52.24609375,-18.06640625,55.6640625,7.8125
1771545684.9750311,74.21875,55.6640625,-9.765625,65.4296875,91.30859375
1771545684.9789374,62.01171875,56.640625,-10.25390625,26.85546875,103.02734375
1771545684.9828436,58.59375,59.5703125,-12.20703125,17.08984375,37.109375
1771545684.98675,73.73046875,61.5234375,-11.71875,63.96484375,65.4296875
1771545684.9906561,70.3125,56.15234375,-15.13671875,83.49609375,79.58984375
1771545684.9945624,42.96875,53.22265625,-18.06640625,53.7109375,79.1015625
1771545684.9984686,33.69140625,53.22265625,-14.6484375,29.296875,-22.94921875
1771545685.002375,39.0625,55.17578125,-4.8828125,55.17578125,-14.6484375
1771545685.0062811,58.59375,56.15234375,-9.765625,79.1015625,44.43359375
1771545685.0101874,51.7578125,54.19921875,-7.32421875,48.33984375,13.671875
1771545685.0140936,28.3203125,52.24609375,-1.46484375,14.16015625,25.87890625
1771545685.030125,34.1796875,49.31640625,-6.34765625,23.4375,48.828125
1771545685.0340312,46.875,48.33984375,-13.671875,52.734375,29.296875
1771545685.0379374,39.55078125,50.29296875,-8.7890625,53.22265625,41.015625
1771545685.0418437,19.53125,52.24609375,-2.44140625,11.23046875,45.8984375
1771545685.04575,24.90234375,51.7578125,-14.16015625,12.20703125,-5.37109375
1771545685.0496562,53.22265625,50.29296875,-27.83203125,58.59375,16.11328125
1771545685.0535624,57.12890625,47.36328125,-24.90234375,63.96484375,56.640625
1771545685.0574687,31.73828125,44.43359375,-2.44140625,13.671875,9.765625
1771545685.061375,21.97265625,47.8515625,0.9765625,-2.44140625,13.671875
1771545685.0652812,37.109375,50.29296875,-8.30078125,61.03515625,34.1796875
1771545685.0691874,48.828125,46.875,-1.953125,79.58984375,24.90234375
1771545685.0730937,26.85546875,43.45703125,1.46484375,21.484375,31.73828125
1771545685.075125,29.296875,47.36328125,-7.8125,-11.71875,41.9921875
1771545685.0790312,54.19921875,48.828125,-15.625,15.13671875,47.8515625
1771545685.0829375,54.6875,44.921875,-11.71875,50.29296875,43.45703125
1771545685.0868437,37.109375,44.921875,-1.953125,35.64453125,25.87890625
1771545685.09075,28.3203125,51.7578125,-3.90625,9.27734375,37.109375
1771545685.0946562,41.50390625,53.22265625,-15.625,19.53125,11.71875
1771545685.0985625,53.7109375,53.22265625,-15.625,41.9921875,48.33984375
1771545685.1024687,51.26953125,52.24609375,-6.8359375,39.0625,34.66796875
1771545685.106375,27.34375,50.78125,-0.9765625,2.44140625,31.73828125
1771545685.1102812,24.4140625,50.29296875,-17.08984375,11.23046875,29.78515625
1771545685.1141875,36.62109375,46.38671875,-14.6484375,54.19921875,63.4765625
1771545685.1180937,41.9921875,51.26953125,-0.9765625,59.08203125,112.3046875
1771545685.120125,34.1796875,55.17578125,-5.37109375,22.94921875,61.5234375
1771545685.1240313,36.1328125,48.33984375,0.48828125,-9.27734375,31.73828125
1771545685.1279376,53.7109375,46.38671875,0.9765625,15.625,48.828125
1771545685.1318438,54.6875,49.31640625,-4.39453125,59.08203125,29.296875
1771545685.13575,47.36328125,48.828125,2.44140625,43.45703125,34.66796875
1771545685.1396563,34.66796875,50.29296875,0.48828125,7.8125,54.6875
1771545685.1435626,33.69140625,47.8515625,-6.34765625,24.90234375,53.22265625
1771545685.1474688,49.8046875,45.8984375,-0.48828125,67.87109375,92.7734375
1771545685.151375,61.5234375,52.24609375,-3.90625,61.03515625,113.28125
1771545685.1552813,52.24609375,51.7578125,-7.8125,17.08984375,52.24609375
1771545685.1591876,48.33984375,52.24609375,2.9296875,20.99609375,39.55078125
1771545685.1630938,59.08203125,54.19921875,-2.44140625,59.08203125,71.2890625
1771545685.166125,63.96484375,53.22265625,-6.8359375,64.94140625,87.890625
1771545685.1700313,44.43359375,54.19921875,0.48828125,11.23046875,116.69921875
1771545685.1739376,45.41015625,54.19921875,0.9765625,2.9296875,119.140625
1771545685.1778438,72.75390625,54.6875,-9.27734375,51.26953125,109.375
1771545685.18175,79.58984375,55.17578125,-11.71875,72.75390625,92.28515625
1771545685.1856563,62.5,54.6875,-5.859375,41.9921875,30.2734375
1771545685.1895626,62.98828125,54.6875,-8.30078125,4.8828125,-25.87890625
1771545685.1934688,62.98828125,56.15234375,-12.6953125,49.8046875,-4.39453125
1771545685.197375,47.36328125,54.19921875,-18.5546875,81.54296875,60.05859375
1771545685.2012813,34.1796875,52.734375,-7.8125,36.62109375,64.94140625
1771545685.2051876,27.34375,59.08203125,0.9765625,-9.27734375,27.34375
1771545685.2090938,50.78125,59.08203125,-17.578125,11.23046875,-7.32421875
1771545685.211125,65.4296875,54.19921875,-19.04296875,60.05859375,-33.69140625
1771545685.2150311,55.17578125,58.10546875,-6.34765625,54.19921875,24.4140625
1771545685.2189374,44.921875,60.05859375,-4.8828125,17.08984375,53.7109375
1771545685.2228436,58.10546875,58.59375,-20.01953125,17.08984375,60.05859375
1771545685.22675,67.3828125,56.15234375,-26.85546875,51.7578125,46.38671875
1771545685.2306561,48.828125,52.734375,-16.11328125,60.05859375,-27.34375
1771545685.2345624,37.59765625,50.29296875,-3.90625,16.11328125,-38.0859375
1771545685.2384686,43.9453125,51.7578125,-7.8125,2.9296875,27.34375
1771545685.242375,56.15234375,51.7578125,-21.97265625,27.34375,40.0390625
1771545685.2462811,60.05859375,51.26953125,-6.8359375,49.31640625,25.390625
1771545685.2501874,48.33984375,53.22265625,7.8125,28.80859375,49.8046875
1771545685.2540936,43.9453125,54.6875,-2.9296875,-0.48828125,22.4609375
1771545685.256125,59.08203125,52.734375,-13.671875,33.69140625,-0.48828125
1771545685.2600312,73.2421875,50.78125,-9.765625,71.77734375,15.625
1771545685.2639375,68.84765625,47.8515625,-7.32421875,55.17578125,0.0
1771545685.2678437,49.31640625,46.875,-5.37109375,12.20703125,-21.97265625
1771545685.27175,37.109375,49.8046875,-3.41796875,32.71484375,27.83203125
1771545685.2756562,49.31640625,45.8984375,-9.765625,76.66015625,-9.27734375
1771545685.2795625,60.05859375,46.38671875,-6.34765625,52.734375,-4.39453125
1771545685.2834687,59.08203125,49.8046875,-8.30078125,17.578125,64.94140625
1771545685.287375,65.91796875,49.31640625,-10.25390625,22.4609375,55.17578125
1771545685.2912812,69.3359375,46.875,-1.46484375,55.17578125,75.68359375
1771545685.2951875,70.3125,41.015625,-4.8828125,68.359375,153.3203125
1771545685.2990937,69.3359375,41.50390625,-10.7421875,32.71484375,57.12890625
1771545685.300125,66.40625,45.41015625,-12.6953125,12.20703125,-7.8125
1771545685.3040311,69.82421875,44.921875,-20.01953125,43.45703125,45.8984375
1771545685.3079374,87.890625,43.45703125,-22.94921875,81.54296875,61.03515625
1771545685.3118436,65.4296875,42.96875,-11.23046875,48.828125,66.40625
1771545685.31575,27.34375,45.41015625,-9.765625,2.44140625,68.359375
1771545685.3196561,48.828125,44.43359375,-22.4609375,32.71484375,55.6640625
1771545685.3235624,66.40625,40.52734375,-30.76171875,70.3125,3.41796875
1771545685.3274686,56.640625,41.015625,-16.6015625,67.87109375,-20.99609375
1771545685.331375,34.66796875,44.43359375,11.71875,16.11328125,50.78125
1771545685.3352811,54.19921875,48.33984375,1.46484375,14.6484375,47.8515625
1771545685.3391874,75.1953125,48.33984375,-14.16015625,56.640625,23.4375
1771545685.3430936,57.12890625,46.38671875,-5.859375,50.78125,49.31640625
1771545685.346125,39.55078125,46.875,0.0,12.20703125,-1.46484375
1771545685.3500311,42.48046875,47.36328125,-9.765625,1.953125,-40.0390625
1771545685.3539374,62.98828125,44.921875,-16.11328125,41.9921875,0.48828125
1771545685.3578436,66.89453125,42.96875,-6.8359375,65.91796875,60.05859375
1771545685.36175,44.921875,44.921875,-2.44140625,37.59765625,53.7109375
1771545685.3656561,45.8984375,45.8984375,-13.18359375,32.2265625,-0.48828125
1771545685.3695624,62.98828125,44.921875,-26.85546875,50.78125,24.4140625
1771545685.3734686,65.91796875,44.921875,-15.625,57.12890625,80.56640625
1771545685.377375,50.78125,49.31640625,6.34765625,32.2265625,19.53125
1771545685.3812811,41.50390625,51.26953125,-7.32421875,7.8125,-47.8515625
1771545685.3851874,56.640625,48.828125,-19.53125,41.015625,1.953125
1771545685.3890936,68.359375,48.828125,-7.32421875,78.125,88.8671875
1771545685.406125,57.12890625,48.33984375,-2.9296875,64.453125,77.1484375
1771545685.4100313,40.52734375,47.36328125,-7.32421875,19.53125,64.94140625
1771545685.4139376,50.78125,46.875,-17.578125,17.08984375,30.2734375
1771545685.4178438,62.01171875,47.8515625,-18.5546875,57.12890625,0.9765625
1771545685.42175,47.8515625,50.29296875,-12.20703125,61.5234375,9.27734375
1771545685.4256563,28.80859375,49.8046875,-20.01953125,7.32421875,-32.71484375
1771545685.4295626,30.2734375,44.43359375,-24.4140625,-15.625,7.32421875
1771545685.4334688,39.55078125,41.9921875,-10.7421875,29.78515625,81.0546875
1771545685.437375,45.8984375,41.9921875,-7.8125,52.24609375,83.0078125
1771545685.4412813,37.109375,42.48046875,-12.20703125,13.18359375,16.6015625
1771545685.4451876,24.4140625,44.921875,-11.71875,-11.23046875,-14.6484375
1771545685.4490938,34.66796875,45.41015625,-13.671875,15.625,45.41015625
1771545685.451125,45.41015625,43.45703125,-14.16015625,55.17578125,53.7109375
1771545685.4550312,31.25,42.96875,-10.25390625,25.390625,24.90234375
1771545685.4589374,19.53125,46.875,-9.27734375,-9.27734375,34.1796875
1771545685.4628437,30.76171875,47.8515625,-12.6953125,32.71484375,66.40625
1771545685.46675,50.29296875,46.875,-17.08984375,60.05859375,44.921875
1771545685.4706562,51.26953125,42.96875,-12.6953125,41.015625,2.44140625
1771545685.4745624,40.0390625,38.57421875,-1.953125,-6.8359375,21.97265625
1771545685.4784687,42.96875,41.015625,-0.9765625,5.37109375,26.3671875
1771545685.482375,48.33984375,48.33984375,-10.25390625,57.12890625,77.1484375
1771545685.4862812,45.8984375,49.8046875,-25.390625,63.96484375,48.33984375
1771545685.4901874,27.34375,48.828125,-9.765625,17.08984375,46.38671875
1771545685.4940937,22.4609375,52.24609375,-0.48828125,-3.41796875,46.875
1771545685.496125,48.33984375,48.33984375,-16.6015625,44.43359375,31.73828125
1771545685.5000312,57.6171875,42.96875,-13.18359375,71.2890625,26.3671875
1771545685.5039375,35.64453125,45.8984375,7.8125,35.15625,50.78125
1771545685.5078437,35.15625,49.8046875,3.90625,2.44140625,88.8671875
1771545685.51175,55.6640625,49.8046875,-14.16015625,40.52734375,54.6875
1771545685.5156562,65.91796875,52.24609375,-15.625,81.54296875,39.55078125
1771545685.5195625,47.8515625,53.7109375,-2.9296875,48.33984375,55.17578125
1771545685.5234687,28.80859375,53.22265625,5.37109375,-0.48828125,87.40234375
1771545685.527375,52.24609375,52.24609375,-18.06640625,27.34375,61.5234375
1771545685.5312812,69.82421875,47.36328125,-24.4140625,70.80078125,11.23046875
1771545685.5351875,57.6171875,46.38671875,1.953125,61.5234375,39.0625
1771545685.5390937,41.50390625,50.29296875,2.9296875,14.16015625,7.8125
1771545685.542125,33.69140625,51.7578125,-3.90625,5.37109375,51.26953125
1771545685.5460312,45.41015625,51.26953125,-8.30078125,45.8984375,114.74609375
1771545685.5499375,48.33984375,46.875,-12.20703125,48.828125,46.38671875
1771545685.5538437,37.109375,46.875,-9.27734375,13.671875,-11.23046875
1771545685.55775,43.45703125,49.8046875,-13.671875,-1.46484375,-9.765625
1771545685.5616562,58.10546875,48.33984375,-16.11328125,31.25,21.484375
1771545685.5655625,57.6171875,47.8515625,-13.671875,68.84765625,2.9296875
1771545685.5694687,48.828125,49.31640625,-7.8125,39.55078125,-37.59765625
1771545685.573375,46.875,48.33984375,-14.6484375,17.578125,-27.83203125
1771545685.5772812,56.15234375,44.921875,-11.23046875,50.29296875,23.4375
1771545685.5811875,64.453125,47.36328125,-0.9765625,81.0546875,59.08203125
1771545685.5850937,57.12890625,51.26953125,-3.90625,59.08203125,77.63671875
1771545685.586125,44.921875,51.26953125,-0.9765625,28.3203125,94.23828125
1771545685.5900311,59.08203125,49.31640625,-5.37109375,39.0625,90.33203125
1771545685.5939374,64.94140625,48.33984375,-9.27734375,56.15234375,73.73046875
1771545685.5978436,45.8984375,46.875,-8.7890625,68.359375,69.82421875
1771545685.60175,31.73828125,47.36328125,-12.20703125,32.71484375,30.2734375
1771545685.6056561,35.64453125,42.96875,-18.5546875,8.30078125,-1.953125
1771545685.6095624,46.38671875,50.29296875,-11.71875,40.52734375,31.73828125
1771545685.6134686,49.31640625,55.6640625,-7.8125,71.77734375,61.03515625
1771545685.617375,41.50390625,44.43359375,-15.625,22.94921875,40.0390625
1771545685.6212811,41.9921875,39.0625,-3.41796875,-3.90625,45.41015625
1771545685.6251874,54.6875,39.55078125,-3.41796875,49.31640625,59.5703125
1771545685.6290936,56.15234375,39.0625,-7.32421875,72.265625,66.40625
1771545685.630125,36.62109375,38.0859375,2.44140625,44.921875,71.2890625
1771545685.6340313,23.92578125,41.015625,5.859375,17.08984375,46.38671875
1771545685.6379375,44.43359375,41.9921875,-7.32421875,27.34375,43.45703125
1771545685.6418438,57.12890625,38.0859375,-10.7421875,59.08203125,59.08203125
1771545685.64575,51.26953125,36.62109375,-0.48828125,48.828125,72.265625
1771545685.6496563,37.109375,38.57421875,-4.39453125,10.25390625,20.99609375
1771545685.6535625,30.76171875,39.0625,-7.8125,26.85546875,25.390625
1771545685.6574688,55.6640625,37.59765625,-18.06640625,65.91796875,17.08984375
1771545685.661375,58.59375,36.62109375,-12.20703125,57.12890625,12.20703125
1771545685.6652813,23.4375,36.62109375,7.32421875,10.7421875,44.921875
1771545685.6691875,23.92578125,40.52734375,-7.8125,0.0,19.04296875
1771545685.6730938,41.50390625,41.015625,-16.11328125,37.59765625,6.8359375
1771545685.690125,44.43359375,37.59765625,-5.859375,47.8515625,8.7890625
1771545685.6940312,27.83203125,40.52734375,2.44140625,7.8125,19.53125
1771545685.6979375,25.390625,44.921875,-1.46484375,-0.9765625,19.04296875
1771545685.7018437,47.8515625,44.43359375,-8.7890625,28.80859375,19.53125
1771545685.70575,62.5,38.0859375,0.48828125,64.94140625,33.203125
1771545685.7096562,62.98828125,35.64453125,9.765625,66.89453125,70.80078125
1771545685.7135625,40.52734375,47.36328125,-1.46484375,22.94921875,71.2890625
1771545685.7174687,34.1796875,52.24609375,-14.6484375,20.99609375,22.94921875
1771545685.721375,49.8046875,47.36328125,-2.44140625,54.19921875,19.53125
1771545685.7252812,51.26953125,54.6875,0.48828125,51.7578125,36.1328125
1771545685.7291875,43.9453125,59.08203125,-5.859375,16.11328125,32.71484375
1771545685.7330937,59.08203125,59.5703125,-9.765625,37.109375,-6.34765625
1771545685.735125,67.3828125,62.5,-4.8828125,77.1484375,-5.859375
1771545685.7390313,68.84765625,61.03515625,0.48828125,72.265625,16.6015625
1771545685.7429376,61.03515625,59.5703125,4.39453125,38.0859375,17.08984375
1771545685.7468438,54.19921875,58.59375,3.90625,23.4375,0.48828125
1771545685.75075,67.3828125,57.6171875,-5.37109375,60.546875,-25.87890625
1771545685.7546563,67.3828125,57.12890625,-10.25390625,84.9609375,13.671875
1771545685.7585626,51.26953125,56.15234375,-0.9765625,47.36328125,40.52734375
1771545685.7624688,51.7578125,55.17578125,6.34765625,12.20703125,-26.85546875
1771545685.766375,74.21875,57.12890625,6.34765625,51.7578125,39.0625
1771545685.7702813,83.0078125,58.59375,0.0,88.37890625,69.3359375
1771545685.7741876,69.3359375,53.7109375,-6.34765625,60.546875,66.89453125
1771545685.7780938,50.78125,55.6640625,-1.46484375,18.5546875,87.890625
1771545685.767125,40.52734375,59.08203125,0.48828125,45.41015625,38.57421875
1771545685.7710311,67.87109375,55.17578125,-7.32421875,75.1953125,24.90234375
1771545685.7749374,74.21875,51.7578125,-7.32421875,58.10546875,61.03515625
1771545685.7788436,36.1328125,54.6875,7.8125,16.6015625,77.1484375
1771545685.78275,47.8515625,59.5703125,1.46484375,14.6484375,37.109375
1771545685.7866561,77.63671875,58.59375,-14.16015625,67.87109375,4.39453125
1771545685.7905624,67.87109375,55.6640625,-3.41796875,86.9140625,21.484375
1771545685.7944686,39.55078125,54.19921875,12.6953125,35.15625,37.109375
1771545685.798375,38.57421875,57.12890625,8.30078125,15.13671875,57.12890625
1771545685.8022811,60.546875,55.17578125,-14.16015625,62.01171875,0.9765625
1771545685.8061874,62.98828125,48.828125,-9.765625,75.68359375,31.25
1771545685.8100936,41.50390625,49.8046875,13.18359375,31.73828125,68.359375
1771545685.826125,44.43359375,53.7109375,6.34765625,-1.953125,58.10546875
1771545685.8300312,63.96484375,55.17578125,-13.671875,30.2734375,6.8359375
1771545685.8339374,74.70703125,54.19921875,-12.6953125,63.4765625,-10.7421875
1771545685.8378437,60.546875,53.22265625,6.34765625,43.9453125,33.203125
1771545685.84175,42.48046875,52.734375,12.20703125,7.32421875,14.6484375
1771545685.8456562,45.41015625,50.29296875,-7.32421875,28.3203125,25.87890625
1771545685.8495624,53.22265625,46.38671875,-7.32421875,66.40625,48.33984375
1771545685.8534687,35.64453125,46.875,22.4609375,60.05859375,57.6171875
1771545685.857375,14.16015625,49.31640625,17.08984375,17.578125,30.76171875
1771545685.8612812,22.94921875,47.8515625,-0.48828125,10.7421875,-6.34765625
1771545685.8651874,37.59765625,47.8515625,-2.9296875,53.22265625,32.71484375
1771545685.8690937,53.22265625,50.29296875,-3.41796875,68.359375,33.203125
1771545685.870125,36.1328125,49.31640625,-1.46484375,31.25,27.34375
1771545685.8740313,28.80859375,48.33984375,-4.39453125,4.39453125,19.53125
1771545685.8779376,52.734375,46.38671875,-5.859375,38.57421875,47.8515625
1771545685.8818438,63.96484375,46.875,-8.30078125,67.87109375,60.546875
1771545685.88575,54.19921875,46.38671875,-10.7421875,46.875,31.73828125
1771545685.8896563,39.55078125,42.96875,-8.30078125,20.99609375,41.9921875
1771545685.8935626,53.22265625,41.015625,-5.859375,41.9921875,21.484375
1771545685.8974688,53.7109375,46.38671875,-4.39453125,71.77734375,40.52734375
1771545685.901375,41.9921875,50.29296875,-11.71875,43.45703125,52.24609375
1771545685.9052813,32.2265625,51.7578125,-23.4375,-6.8359375,34.66796875
1771545685.9091876,31.25,54.19921875,-18.06640625,-1.953125,-20.5078125
1771545685.9130938,56.640625,49.31640625,-14.6484375,49.31640625,-25.390625
1771545685.915125,64.453125,47.36328125,-14.6484375,64.94140625,0.48828125
1771545685.9190311,33.203125,47.8515625,0.0,13.671875,34.1796875
1771545685.9229374,30.2734375,50.29296875,0.0,8.7890625,96.6796875
1771545685.9268436,56.15234375,51.26953125,-12.20703125,64.453125,53.7109375
1771545685.93075,63.96484375,48.828125,-9.765625,69.3359375,30.2734375
1771545685.9346561,34.66796875,47.36328125,-2.9296875,20.99609375,66.89453125
1771545685.9385624,24.4140625,46.875,-8.30078125,10.25390625,32.2265625
1771545685.9424686,54.19921875,46.38671875,-14.6484375,44.921875,66.89453125
1771545685.946375,62.5,42.96875,-21.97265625,69.82421875,41.9921875
1771545685.9502811,29.78515625,40.52734375,-3.41796875,38.57421875,26.3671875
1771545685.9541874,16.6015625,43.9453125,12.6953125,-14.6484375,58.10546875
1771545685.9580936,45.41015625,44.921875,-10.25390625,9.765625,55.17578125
1771545685.960125,62.5,40.52734375,-12.6953125,59.08203125,97.16796875
1771545685.9640312,51.7578125,39.55078125,-1.46484375,48.828125,68.359375
1771545685.9679375,37.109375,40.0390625,-0.48828125,2.44140625,18.5546875
1771545685.9718437,41.9921875,38.0859375,-13.671875,6.8359375,-17.578125
1771545685.97575,50.29296875,37.109375,-16.6015625,41.50390625,24.90234375
1771545685.9796562,60.546875,36.1328125,-11.71875,51.7578125,56.640625
1771545685.9835625,42.48046875,39.55078125,-4.39453125,12.6953125,17.08984375
1771545685.9874687,29.296875,42.48046875,-11.23046875,1.953125,46.38671875
1771545685.991375,49.8046875,38.57421875,-24.4140625,45.8984375,74.70703125
1771545685.9952812,53.7109375,49.31640625,0.0,71.2890625,86.9140625
1771545685.9991875,39.0625,57.6171875,14.6484375,35.64453125,83.49609375
1771545686.0030937,28.3203125,49.31640625,-3.90625,2.44140625,20.5078125
1771545686.005125,41.9921875,43.45703125,-10.25390625,33.69140625,-10.25390625
1771545686.0090313,55.17578125,41.015625,0.0,61.03515625,18.5546875
1771545686.0129375,44.43359375,41.9921875,4.8828125,39.0625,52.734375
1771545686.0168438,31.73828125,44.43359375,2.9296875,-0.48828125,41.015625
1771545686.02075,54.19921875,47.36328125,-3.90625,17.08984375,-5.859375
1771545686.0246563,75.1953125,45.8984375,-5.37109375,69.3359375,13.671875
1771545686.0285625,58.59375,48.828125,1.46484375,61.5234375,50.78125
1771545686.0324688,38.0859375,47.8515625,-2.44140625,12.20703125,29.296875
1771545686.036375,52.24609375,47.8515625,-5.37109375,2.9296875,-10.25390625
1771545686.0402813,57.6171875,49.31640625,4.8828125,38.0859375,67.3828125
1771545686.0441875,46.38671875,48.33984375,-0.48828125,60.546875,111.81640625
1771545686.0480938,37.109375,47.8515625,-4.8828125,21.484375,39.55078125
1771545686.050125,46.875,48.33984375,1.953125,5.859375,25.390625
1771545686.0540311,63.4765625,55.17578125,-1.953125,52.24609375,45.8984375
1771545686.0579374,62.01171875,57.12890625,-11.71875,65.91796875,58.10546875
1771545686.0618436,47.8515625,54.19921875,-6.8359375,35.64453125,58.59375
1771545686.06575,34.66796875,57.12890625,0.0,17.08984375,55.17578125
1771545686.0696561,52.24609375,56.640625,-14.6484375,41.9921875,40.52734375
1771545686.0735624,72.75390625,51.7578125,-23.92578125,59.5703125,25.390625
1771545686.0774686,62.98828125,50.78125,-10.7421875,37.109375,46.38671875
1771545686.081375,41.9921875,53.7109375,9.27734375,12.20703125,75.1953125
1771545686.0852811,45.41015625,59.5703125,-3.41796875,40.0390625,82.03125
1771545686.0891874,63.4765625,55.6640625,-14.6484375,71.77734375,60.546875
1771545686.0930936,52.24609375,52.734375,-3.41796875,67.87109375,16.6015625
1771545686.096125,34.66796875,54.19921875,7.8125,9.765625,59.08203125
1771545686.1000311,41.9921875,53.22265625,-8.7890625,2.9296875,64.453125
1771545686.1039374,56.15234375,50.29296875,-20.5078125,63.96484375,25.390625
1771545686.1078436,54.6875,49.31640625,0.0,73.73046875,80.56640625
1771545686.11175,28.80859375,55.17578125,8.7890625,34.66796875,77.1484375
1771545686.1156561,39.55078125,56.15234375,-1.46484375,25.87890625,53.22265625
1771545686.1195624,63.4765625,55.17578125,-17.578125,49.8046875,76.171875
1771545686.1234686,58.59375,55.6640625,-9.765625,65.91796875,30.76171875
1771545686.127375,40.52734375,55.17578125,14.16015625,36.62109375,37.109375
1771545686.1312811,34.66796875,56.640625,6.34765625,5.859375,39.0625
1771545686.1351874,49.8046875,56.15234375,-4.8828125,31.73828125,41.015625
1771545686.1390936,61.03515625,56.15234375,1.46484375,65.4296875,92.28515625
1771545686.141125,53.22265625,56.15234375,4.8828125,59.5703125,63.4765625
1771545686.1450312,32.71484375,53.7109375,-5.37109375,9.765625,20.5078125
1771545686.1489375,26.3671875,55.6640625,-14.16015625,8.7890625,39.0625
1771545686.1528437,58.10546875,60.546875,-19.53125,60.05859375,51.26953125
1771545686.15675,70.3125,55.17578125,-9.765625,70.3125,25.87890625
1771545686.1606562,28.3203125,44.43359375,0.9765625,30.76171875,18.06640625
1771545686.1645625,15.625,41.50390625,-7.8125,1.46484375,26.85546875
1771545686.1684687,36.1328125,40.0390625,-4.8828125,44.921875,46.875
1771545686.172375,34.66796875,35.15625,8.30078125,95.703125,45.8984375
1771545686.1762812,27.34375,37.109375,7.32421875,47.8515625,20.5078125
1771545686.1801875,29.78515625,33.69140625,4.8828125,-1.953125,-0.48828125
1771545686.1840937,35.15625,29.296875,14.6484375,31.25,17.578125
1771545686.200125,50.78125,32.71484375,9.27734375,79.58984375,7.8125
1771545686.2040312,43.9453125,38.0859375,6.34765625,55.17578125,-9.27734375
1771545686.2079375,30.2734375,38.57421875,9.27734375,11.71875,3.41796875
1771545686.2118437,45.8984375,36.62109375,4.8828125,41.015625,2.44140625
1771545686.21575,58.59375,39.55078125,-5.859375,74.70703125,5.859375
1771545686.2196562,53.7109375,38.57421875,-0.48828125,63.4765625,42.96875
1771545686.2235625,41.50390625,37.59765625,5.37109375,31.25,60.546875
1771545686.2274687,40.52734375,39.55078125,-2.44140625,21.97265625,13.18359375
1771545686.231375,55.17578125,40.0390625,-1.46484375,49.8046875,18.5546875
1771545686.2352812,72.265625,40.0390625,-10.7421875,74.70703125,60.05859375
1771545686.2391875,41.9921875,39.55078125,-1.953125,26.3671875,41.50390625
1771545686.2430937,20.5078125,42.48046875,12.6953125,9.27734375,37.59765625
1771545686.245125,47.36328125,41.50390625,-3.41796875,55.6640625,7.32421875
1771545686.2490313,51.7578125,38.0859375,-1.46484375,82.03125,-8.30078125
1771545686.2529376,29.296875,40.52734375,14.6484375,51.26953125,53.22265625
1771545686.2568438,36.62109375,42.96875,8.7890625,9.765625,13.671875
1771545686.26075,55.17578125,43.45703125,-1.953125,40.52734375,18.06640625
1771545686.2646563,57.6171875,42.96875,-3.41796875,78.61328125,49.31640625
1771545686.2685626,43.45703125,39.55078125,5.859375,46.38671875,34.1796875
1771545686.2724688,32.2265625,38.57421875,13.671875,9.27734375,30.2734375
1771545686.276375,50.78125,39.0625,-4.8828125,26.85546875,17.08984375
1771545686.2802813,59.5703125,34.66796875,-13.671875,66.40625,67.3828125
1771545686.2841876,46.875,31.73828125,11.23046875,70.3125,50.78125
1771545686.2880938,37.109375,37.109375,17.578125,26.85546875,3.41796875
1771545686.291125,47.36328125,42.48046875,13.18359375,14.6484375,56.15234375
1771545686.2950313,57.6171875,40.0390625,12.20703125,43.9453125,59.5703125
1771545686.2989376,53.7109375,39.0625,15.625,63.96484375,56.640625
1771545686.3028438,47.8515625,45.41015625,15.13671875,34.1796875,51.26953125
1771545686.30675,51.7578125,48.828125,5.859375,15.13671875,-24.4140625
1771545686.3106563,64.453125,46.38671875,6.8359375,58.59375,32.71484375
1771545686.3145626,61.5234375,46.875,15.625,81.54296875,50.29296875
1771545686.3184688,37.109375,48.828125,21.97265625,48.828125,39.55078125
1771545686.322375,34.1796875,49.8046875,7.32421875,17.08984375,70.3125
1771545686.3262813,41.9921875,47.36328125,6.34765625,30.2734375,57.12890625
1771545686.3301876,63.96484375,43.45703125,17.578125,60.546875,29.296875
1771545686.3340938,52.24609375,44.43359375,11.71875,56.15234375,17.578125
1771545686.336125,32.2265625,47.8515625,11.23046875,8.7890625,62.5
1771545686.3400311,47.36328125,48.33984375,11.71875,7.8125,81.0546875
1771545686.3439374,55.17578125,47.8515625,7.32421875,52.24609375,72.265625
1771545686.3478436,51.26953125,46.875,6.34765625,53.22265625,53.22265625
1771545686.35175,33.69140625,46.875,8.30078125,7.32421875,16.11328125
1771545686.3556561,29.296875,48.828125,0.0,2.9296875,43.45703125
1771545686.3595624,42.96875,45.8984375,-0.9765625,50.29296875,36.62109375
1771545686.3634686,52.734375,45.8984375,0.0,74.21875,19.53125
1771545686.367375,38.57421875,42.96875,3.90625,23.4375,69.82421875
1771545686.3712811,27.83203125,40.52734375,16.11328125,7.8125,76.171875
1771545686.3751874,49.31640625,44.43359375,4.39453125,44.43359375,20.01953125
1771545686.3790936,57.6171875,43.45703125,0.0,57.6171875,12.6953125
1771545686.381125,39.55078125,42.48046875,9.27734375,35.64453125,62.98828125
1771545686.3850312,36.1328125,43.45703125,6.34765625,2.9296875,29.78515625
1771545686.3889375,46.875,45.8984375,-0.48828125,33.203125,-1.46484375
1771545686.3928437,62.98828125,46.38671875,-1.46484375,65.4296875,17.08984375
1771545686.39675,49.31640625,43.9453125,10.25390625,42.96875,19.53125
1771545686.4006562,32.71484375,48.33984375,15.625,-1.46484375,45.8984375
1771545686.4045625,50.29296875,53.7109375,7.32421875,11.71875,73.2421875
1771545686.4084687,73.2421875,56.15234375,-10.7421875,68.84765625,8.30078125
1771545686.412375,58.59375,50.29296875,4.8828125,62.5,27.34375
1771545686.4162812,16.11328125,46.38671875,29.296875,4.39453125,66.89453125
1771545686.4201875,25.390625,49.31640625,15.625,9.27734375,71.77734375
1771545686.4240937,49.31640625,51.7578125,6.34765625,54.6875,28.3203125
1771545686.425125,47.8515625,51.26953125,16.11328125,67.3828125,49.8046875
1771545686.4290311,33.69140625,47.36328125,21.484375,33.69140625,84.47265625
1771545686.4329374,23.4375,46.38671875,9.27734375,5.859375,-3.41796875
1771545686.4368436,38.57421875,45.41015625,-2.44140625,41.015625,11.71875
1771545686.44075,49.31640625,44.43359375,0.48828125,65.91796875,62.5
1771545686.4446561,39.0625,44.921875,9.27734375,36.62109375,9.765625
1771545686.4485624,31.25,44.921875,3.90625,-2.9296875,20.5078125
1771545686.4524686,44.921875,41.015625,-17.08984375,5.37109375,5.859375
1771545686.456375,50.78125,36.62109375,0.48828125,46.875,-24.90234375
1771545686.4602811,34.66796875,39.0625,22.94921875,48.33984375,54.6875
1771545686.4641874,18.5546875,39.0625,18.5546875,20.01953125,35.15625
1771545686.4680936,28.80859375,37.109375,11.71875,27.83203125,-11.71875
1771545686.470125,42.48046875,37.59765625,11.71875,55.17578125,78.125
1771545686.4740312,43.45703125,39.55078125,18.06640625,62.5,137.6953125
1771545686.4779375,33.69140625,42.96875,20.5078125,27.34375,100.09765625
1771545686.4818437,32.71484375,45.8984375,15.13671875,12.6953125,24.90234375
1771545686.48575,45.41015625,45.8984375,11.71875,52.24609375,-3.90625
1771545686.4896562,52.24609375,43.9453125,12.20703125,77.63671875,-5.859375
1771545686.4935625,47.8515625,42.48046875,8.30078125,41.015625,10.25390625
1771545686.4974687,34.66796875,41.9921875,13.18359375,-7.32421875,54.19921875
1771545686.501375,38.57421875,45.8984375,25.390625,22.4609375,51.7578125
1771545686.5052812,56.15234375,48.828125,20.99609375,69.3359375,69.82421875
1771545686.5091875,50.29296875,45.41015625,16.6015625,44.43359375,50.29296875
1771545686.5130937,39.0625,42.48046875,17.578125,-3.90625,38.0859375
1771545686.518125,43.45703125,41.015625,9.765625,20.01953125,17.08984375
1771545686.5220313,52.24609375,39.55078125,0.0,59.08203125,-77.63671875
1771545686.5259376,42.48046875,40.0390625,9.27734375,46.875,-34.66796875
1771545686.5298438,19.53125,39.55078125,21.97265625,5.37109375,56.15234375
1771545686.53375,28.3203125,39.0625,14.16015625,15.625,33.69140625
1771545686.5376563,57.6171875,36.62109375,0.0,53.7109375,40.52734375
1771545686.5415626,59.08203125,32.71484375,3.41796875,49.8046875,47.8515625
1771545686.5454688,28.80859375,34.66796875,25.87890625,0.9765625,25.87890625
1771545686.549375,25.390625,38.0859375,19.04296875,-14.16015625,34.1796875
1771545686.5532813,52.24609375,42.96875,5.37109375,46.38671875,2.9296875
1771545686.5571876,62.01171875,42.48046875,16.6015625,84.47265625,0.0
1771545686.5610938,46.38671875,42.48046875,21.97265625,50.78125,14.16015625
1771545686.575125,31.73828125,50.78125,9.765625,2.44140625,49.8046875
1771545686.5790312,41.015625,46.38671875,-4.8828125,28.80859375,35.15625
1771545686.5829375,42.48046875,44.921875,-1.46484375,61.03515625,1.953125
1771545686.5868437,15.625,47.36328125,8.7890625,20.01953125,36.62109375
1771545686.59075,15.625,50.29296875,7.8125,-15.13671875,73.2421875
1771545686.5946562,38.0859375,50.29296875,-5.859375,-0.48828125,44.921875
1771545686.5985625,45.41015625,45.8984375,-4.8828125,43.45703125,15.625
1771545686.6024687,38.57421875,45.8984375,8.7890625,46.38671875,47.8515625
1771545686.606375,34.1796875,50.78125,5.859375,9.765625,20.01953125
1771545686.6102812,41.50390625,52.734375,-7.8125,8.7890625,27.34375
1771545686.6141875,47.36328125,50.78125,-8.30078125,27.34375,81.54296875
1771545686.6180937,40.0390625,50.29296875,0.48828125,42.48046875,41.9921875
1771545686.622125,29.78515625,53.22265625,3.41796875,11.23046875,26.3671875
1771545686.6260312,40.0390625,54.19921875,-2.44140625,0.0,39.55078125
1771545686.6299374,51.26953125,51.26953125,-4.8828125,34.66796875,-27.34375
1771545686.6338437,52.24609375,47.36328125,2.9296875,58.10546875,-12.20703125
1771545686.63775,44.43359375,47.36328125,10.7421875,41.015625,51.7578125
1771545686.6416562,36.62109375,48.33984375,5.859375,14.6484375,20.01953125
1771545686.6455624,48.828125,46.875,1.46484375,32.2265625,37.59765625
1771545686.6494687,68.84765625,49.8046875,11.71875,62.5,95.21484375
1771545686.653375,60.05859375,49.8046875,11.23046875,55.17578125,83.49609375
1771545686.6572812,29.78515625,48.828125,11.23046875,18.5546875,75.68359375
1771545686.6611874,38.0859375,49.8046875,16.6015625,28.80859375,51.7578125
1771545686.6650937,62.5,48.33984375,9.27734375,72.75390625,-30.76171875
1771545686.665125,55.6640625,47.36328125,14.16015625,62.5,-47.8515625
1771545686.6690311,32.71484375,47.8515625,22.4609375,24.4140625,2.9296875
1771545686.6729374,36.1328125,51.26953125,18.5546875,33.203125,36.62109375
1771545686.6768436,53.22265625,50.78125,13.671875,57.12890625,105.95703125
1771545686.68075,50.29296875,50.29296875,5.37109375,58.59375,88.8671875
1771545686.6846561,34.1796875,51.7578125,5.859375,25.87890625,24.4140625
1771545686.6885624,22.4609375,51.7578125,12.6953125,0.48828125,66.40625
1771545686.6924686,45.8984375,51.7578125,6.8359375,26.85546875,84.9609375
1771545686.696375,74.70703125,51.26953125,-7.32421875,55.17578125,85.44921875
1771545686.7002811,61.03515625,51.26953125,7.32421875,25.87890625,100.09765625
1771545686.7041874,42.48046875,55.6640625,20.01953125,-3.41796875,48.828125
1771545686.7080936,55.17578125,55.6640625,3.90625,36.1328125,10.7421875
1771545686.710125,71.77734375,52.24609375,3.90625,64.453125,-4.8828125
1771545686.7140312,56.15234375,52.734375,15.13671875,40.52734375,-40.0390625
1771545686.7179375,22.4609375,53.22265625,21.97265625,11.23046875,-13.671875
1771545686.7218437,27.34375,51.7578125,7.8125,33.203125,11.71875
1771545686.72575,49.8046875,51.26953125,0.9765625,71.2890625,28.80859375
1771545686.7296562,46.38671875,50.78125,11.23046875,68.359375,16.11328125
1771545686.7335625,22.4609375,47.8515625,20.5078125,32.2265625,21.97265625
1771545686.7374687,33.69140625,49.31640625,10.25390625,36.62109375,41.50390625
1771545686.741375,52.734375,48.828125,-0.48828125,50.78125,41.015625
1771545686.7452812,41.9921875,47.36328125,17.578125,49.8046875,88.8671875
1771545686.7491875,29.78515625,47.36328125,20.5078125,36.1328125,54.19921875
1771545686.7530937,34.1796875,46.38671875,11.71875,17.08984375,4.8828125
1771545686.755125,55.17578125,46.38671875,7.8125,33.69140625,30.2734375
1771545686.7590313,55.6640625,47.36328125,11.71875,68.84765625,70.3125
1771545686.7629375,41.9921875,50.29296875,16.6015625,52.24609375,58.59375
1771545686.7668438,35.15625,50.78125,16.11328125,3.90625,63.96484375
1771545686.77075,45.41015625,48.33984375,6.34765625,35.64453125,41.50390625
1771545686.7746563,57.12890625,45.8984375,1.46484375,83.984375,10.7421875
1771545686.7785625,51.26953125,45.41015625,8.30078125,62.5,2.44140625
1771545686.7824688,36.62109375,46.875,14.16015625,9.765625,-16.6015625
1771545686.786375,41.50390625,50.29296875,17.578125,22.94921875,23.4375
1771545686.7902813,55.17578125,53.22265625,17.08984375,58.59375,41.50390625
1771545686.7941875,52.734375,50.78125,16.11328125,66.89453125,42.48046875
1771545686.7980938,35.15625,47.8515625,11.71875,21.97265625,111.328125
1771545686.800125,25.87890625,49.8046875,12.6953125,-16.6015625,129.39453125
1771545686.8040311,42.48046875,50.78125,11.71875,30.76171875,80.56640625
1771545686.8079374,58.59375,48.828125,6.8359375,53.22265625,69.82421875
1771545686.8118436,42.48046875,49.31640625,16.11328125,35.15625,70.3125
1771545686.81575,28.80859375,52.734375,19.04296875,16.6015625,27.34375
1771545686.8196561,46.875,51.26953125,6.8359375,37.59765625,9.27734375
1771545686.8235624,67.3828125,49.31640625,-0.48828125,87.890625,56.640625
1771545686.8274686,60.05859375,45.8984375,5.37109375,53.7109375,65.4296875
1771545686.831375,30.76171875,46.38671875,15.13671875,-2.9296875,-13.18359375
1771545686.8352811,40.0390625,50.78125,14.6484375,31.25,-8.30078125
1771545686.8391874,62.01171875,48.33984375,6.34765625,56.640625,89.35546875
1771545686.8430936,49.8046875,45.41015625,8.7890625,38.57421875,110.3515625
1771545686.845125,35.64453125,47.8515625,17.08984375,1.46484375,57.6171875
1771545686.8490312,41.015625,48.828125,4.39453125,20.99609375,3.90625
1771545686.8529375,44.921875,47.8515625,-3.90625,73.2421875,-17.578125
1771545686.8568437,55.6640625,47.36328125,6.8359375,59.5703125,19.04296875
1771545686.86075,47.8515625,50.29296875,13.18359375,14.16015625,63.96484375
1771545686.8646562,40.0390625,50.29296875,0.9765625,14.6484375,7.8125
1771545686.8685625,55.6640625,45.8984375,-15.625,50.29296875,-11.23046875
1771545686.8724687,49.31640625,46.38671875,-1.953125,62.01171875,45.8984375
1771545686.876375,41.015625,48.33984375,20.01953125,38.57421875,37.59765625
1771545686.8802812,36.62109375,49.8046875,14.6484375,17.08984375,30.76171875
1771545686.8841875,48.33984375,48.33984375,-1.953125,42.96875,14.6484375
1771545686.8880937,61.03515625,46.38671875,1.953125,61.5234375,32.2265625
1771545686.906125,41.50390625,45.41015625,21.97265625,35.64453125,42.96875
1771545686.9100313,37.109375,45.8984375,13.671875,16.11328125,11.71875
1771545686.9139376,53.22265625,45.8984375,2.9296875,20.01953125,68.359375
1771545686.9178438,56.640625,45.41015625,10.25390625,46.875,91.30859375
1771545686.92175,51.7578125,45.41015625,16.6015625,66.40625,105.95703125
1771545686.9256563,40.52734375,46.875,1.953125,26.3671875,59.08203125
1771545686.9295626,41.50390625,45.8984375,-12.6953125,6.34765625,-18.06640625
1771545686.9334688,56.15234375,42.96875,-8.30078125,35.15625,-8.30078125
1771545686.937375,67.3828125,45.8984375,-6.34765625,65.91796875,62.5
1771545686.9412813,46.875,46.38671875,-8.7890625,28.80859375,69.82421875
1771545686.9451876,29.296875,46.38671875,-14.16015625,5.37109375,22.94921875
1771545686.9490938,41.015625,49.31640625,-18.5546875,34.66796875,28.80859375
1771545686.951125,57.12890625,48.828125,-20.5078125,56.15234375,57.12890625
1771545686.9550312,53.22265625,47.36328125,-17.08984375,35.15625,35.64453125
1771545686.9589374,29.78515625,50.78125,-9.27734375,-0.9765625,4.39453125
1771545686.9628437,42.48046875,53.7109375,-10.25390625,30.76171875,-0.48828125
1771545686.96675,75.68359375,51.26953125,-12.6953125,72.265625,-0.48828125
1771545686.9706562,71.77734375,52.24609375,-10.7421875,53.22265625,11.71875
1771545686.9745624,43.9453125,53.7109375,-9.27734375,1.46484375,-2.9296875
1771545686.9784687,46.875,51.26953125,-4.8828125,20.5078125,1.46484375
1771545686.982375,64.453125,52.734375,-9.765625,66.89453125,40.52734375
1771545686.9862812,61.5234375,54.19921875,-23.4375,52.734375,20.01953125
1771545686.9901874,40.0390625,56.15234375,-4.39453125,22.94921875,27.34375
1771545686.9940937,35.64453125,55.6640625,6.8359375,15.13671875,56.640625
1771545686.995125,60.05859375,53.7109375,-18.06640625,37.109375,-8.7890625
1771545686.9990313,60.546875,50.29296875,-16.11328125,61.5234375,8.30078125
1771545687.0029376,30.2734375,49.31640625,-3.90625,23.92578125,52.734375
1771545687.0068438,20.5078125,52.24609375,-8.7890625,-1.46484375,37.59765625
1771545687.01075,37.109375,48.828125,-19.53125,32.71484375,28.80859375
1771545687.0146563,48.828125,44.43359375,-22.94921875,70.80078125,13.671875
1771545687.0185626,36.62109375,45.41015625,-4.8828125,44.921875,54.19921875
1771545687.0224688,19.53125,47.8515625,8.30078125,7.8125,73.2421875
1771545687.026375,35.15625,47.8515625,-9.765625,36.1328125,36.62109375
1771545687.0302813,47.8515625,46.38671875,-15.13671875,69.82421875,8.7890625
1771545687.0341876,31.25,46.38671875,9.765625,51.26953125,-14.16015625
1771545687.0380938,20.01953125,47.36328125,11.23046875,-1.46484375,31.73828125
1771545687.040125,27.83203125,49.8046875,-2.44140625,10.7421875,36.1328125
1771545687.0440311,52.734375,48.828125,-6.8359375,72.75390625,-13.671875
1771545687.0479374,50.78125,48.33984375,2.9296875,74.21875,-2.9296875
1771545687.0518436,28.3203125,50.29296875,11.23046875,25.390625,7.8125
1771545687.05575,31.73828125,51.7578125,1.953125,18.06640625,22.4609375
1771545687.0596561,52.24609375,52.24609375,-16.11328125,52.734375,39.0625
1771545687.0635624,73.2421875,51.7578125,-14.16015625,78.125,-9.27734375
1771545687.0674686,51.26953125,47.8515625,10.25390625,62.01171875,-16.11328125
1771545687.071375,31.73828125,46.38671875,5.37109375,18.5546875,17.578125
1771545687.0752811,31.73828125,41.9921875,0.0,17.578125,25.87890625
1771545687.0791874,19.53125,37.109375,24.4140625,46.875,59.5703125
1771545687.0830936,28.3203125,35.15625,27.83203125,49.8046875,69.3359375
1771545687.085125,26.3671875,34.1796875,24.4140625,13.18359375,31.73828125
1771545687.0890312,26.85546875,33.69140625,25.87890625,20.01953125,1.46484375
1771545687.0929375,42.48046875,31.25,20.5078125,63.4765625,19.04296875
1771545687.0968437,40.52734375,29.78515625,16.11328125,60.05859375,70.3125
1771545687.10075,26.85546875,31.25,14.6484375,12.20703125,41.50390625
1771545687.1046562,27.83203125,32.71484375,9.765625,6.8359375,9.765625
1771545687.1085625,45.8984375,28.80859375,10.7421875,45.41015625,50.78125
1771545687.1124687,51.7578125,29.296875,13.671875,74.21875,41.9921875
1771545687.116375,30.76171875,29.296875,13.18359375,34.1796875,-14.16015625
1771545687.1202812,18.06640625,30.76171875,28.3203125,0.9765625,6.8359375
1771545687.1241875,40.52734375,37.109375,22.4609375,52.734375,51.7578125
1771545687.1280937,46.875,37.59765625,12.20703125,79.58984375,52.24609375
1771545687.130125,30.76171875,39.0625,21.484375,34.66796875,38.57421875
1771545687.1340313,25.390625,43.9453125,25.390625,7.32421875,30.2734375
1771545687.1379375,46.38671875,45.8984375,17.08984375,45.41015625,29.296875
1771545687.1418438,58.10546875,42.48046875,14.6484375,74.21875,25.87890625
1771545687.14575,43.45703125,43.45703125,18.5546875,46.38671875,30.76171875
1771545687.1496563,34.66796875,44.43359375,14.16015625,4.39453125,41.015625
1771545687.1535625,39.0625,40.52734375,8.30078125,19.53125,70.3125
1771545687.1574688,60.546875,41.50390625,-4.39453125,68.359375,47.36328125
1771545687.161375,52.24609375,41.015625,4.39453125,71.77734375,-6.34765625
1771545687.1652813,25.390625,42.96875,23.4375,23.92578125,38.0859375
1771545687.1691875,40.0390625,47.36328125,11.71875,20.99609375,87.890625
1771545687.1730938,57.12890625,44.921875,-0.9765625,60.05859375,27.34375
1771545687.176125,52.24609375,42.48046875,8.7890625,67.87109375,40.52734375
1771545687.1800313,35.15625,44.43359375,16.6015625,25.87890625,66.89453125
1771545687.1839375,31.73828125,47.36328125,3.90625,1.953125,56.15234375
1771545687.1878438,57.6171875,45.8984375,-4.8828125,38.0859375,50.29296875
1771545687.19175,59.5703125,43.9453125,5.859375,65.4296875,46.38671875
1771545687.1956563,30.76171875,42.96875,12.6953125,43.9453125,46.38671875
1771545687.1995625,19.53125,43.45703125,1.953125,9.27734375,53.7109375
1771545687.2034688,45.8984375,42.96875,-12.20703125,15.13671875,62.5
1771545687.207375,45.8984375,43.45703125,5.37109375,45.41015625,35.64453125
1771545687.2112813,30.2734375,47.36328125,16.6015625,56.15234375,54.19921875
1771545687.2151875,23.4375,47.36328125,11.23046875,23.4375,55.6640625
1771545687.2190938,32.2265625,46.875,8.7890625,24.4140625,42.48046875
1771545687.221125,53.22265625,46.875,2.9296875,71.2890625,48.828125
1771545687.2250311,45.41015625,46.875,6.8359375,70.80078125,25.87890625
1771545687.2289374,26.85546875,47.8515625,15.625,23.92578125,33.69140625
1771545687.2328436,27.83203125,46.38671875,13.18359375,20.01953125,38.0859375
1771545687.23675,40.0390625,44.921875,7.32421875,59.5703125,31.25
1771545687.2406561,41.50390625,46.38671875,4.8828125,71.77734375,60.546875
1771545687.2445624,41.50390625,46.38671875,0.0,28.80859375,89.84375
1771545687.2484686,28.80859375,46.38671875,0.48828125,-2.44140625,57.6171875
1771545687.252375,26.85546875,49.31640625,5.859375,22.4609375,11.23046875
1771545687.2562811,51.7578125,44.921875,1.953125,53.22265625,46.38671875
1771545687.2601874,45.8984375,43.9453125,3.41796875,39.0625,34.1796875
1771545687.2640936,25.390625,47.8515625,4.39453125,8.30078125,-27.34375
1771545687.280125,41.9921875,46.38671875,-1.953125,32.71484375,-24.90234375
1771545687.2840312,61.5234375,45.41015625,-4.39453125,62.01171875,32.71484375
1771545687.2879374,43.45703125,47.8515625,3.90625,48.828125,62.98828125
1771545687.2918437,23.92578125,49.8046875,17.08984375,7.8125,61.5234375
1771545687.29575,39.0625,50.78125,15.13671875,14.6484375,70.80078125
1771545687.2996562,57.6171875,47.8515625,-3.90625,62.98828125,10.7421875
1771545687.3035624,47.36328125,38.57421875,-1.953125,63.96484375,12.6953125
1771545687.3074687,24.4140625,35.64453125,16.11328125,14.16015625,-20.5078125
1771545687.311375,41.015625,39.55078125,21.97265625,14.16015625,11.23046875
1771545687.3152812,72.75390625,46.875,14.6484375,59.08203125,125.0
1771545687.3191874,55.6640625,50.29296875,9.765625,52.734375,75.1953125
1771545687.3230937,10.25390625,50.78125,14.16015625,-2.9296875,-20.01953125
1771545687.325125,-7.32421875,52.24609375,12.20703125,-32.2265625,-12.6953125
1771545687.3290312,4.39453125,47.8515625,1.46484375,-9.27734375,29.78515625
1771545687.3329375,-1.46484375,53.22265625,-1.953125,11.23046875,-10.25390625
1771545687.3368437,-38.57421875,52.24609375,4.39453125,-23.92578125,-19.04296875
1771545687.34075,-63.4765625,46.875,4.39453125,-75.1953125,14.6484375
1771545687.3446562,-57.12890625,50.29296875,-7.32421875,-72.265625,12.6953125
1771545687.3485625,-46.38671875,49.31640625,-10.25390625,-48.828125,-23.4375
1771545687.3524687,-61.03515625,46.875,2.9296875,-59.5703125,-7.32421875
1771545687.356375,-90.33203125,45.8984375,10.7421875,-104.00390625,9.27734375
1771545687.3602812,-81.54296875,42.48046875,-10.7421875,-103.02734375,27.34375
1771545687.3641875,-55.6640625,36.1328125,-12.20703125,-71.77734375,48.33984375
1771545687.3680937,-52.24609375,35.64453125,8.7890625,-62.01171875,35.64453125
1771545687.370125,-63.4765625,39.0625,5.859375,-69.82421875,21.484375
1771545687.3740313,-58.59375,38.0859375,4.39453125,-75.1953125,49.31640625
1771545687.3779376,-29.78515625,39.55078125,0.9765625,-36.62109375,76.66015625
1771545687.3818438,-17.08984375,42.96875,0.0,-3.90625,22.4609375
1771545687.38575,-19.04296875,41.9921875,7.32421875,-39.0625,15.625
1771545687.3896563,-12.20703125,42.48046875,6.8359375,-49.31640625,37.59765625
1771545687.3935626,2.44140625,42.96875,3.41796875,-16.11328125,74.70703125
1771545687.3974688,16.6015625,40.52734375,2.9296875,22.94921875,53.22265625
1771545687.401375,21.97265625,41.50390625,6.34765625,24.4140625,24.90234375
1771545687.4052813,6.8359375,41.9921875,8.30078125,-14.16015625,59.08203125
1771545687.4091876,3.41796875,41.9921875,14.6484375,1.953125,76.66015625
1771545687.4130938,29.296875,42.96875,16.11328125,49.8046875,86.42578125
1771545687.415125,28.3203125,40.52734375,17.578125,51.7578125,98.6328125
1771545687.4190311,7.8125,45.41015625,19.53125,19.04296875,18.5546875
1771545687.4229374,30.2734375,51.7578125,15.625,14.6484375,33.69140625
1771545687.4268436,60.546875,50.29296875,9.27734375,53.7109375,103.515625
1771545687.43075,75.1953125,49.8046875,4.8828125,84.47265625,39.55078125
1771545687.4346561,57.12890625,49.8046875,15.13671875,43.45703125,2.9296875
1771545687.4385624,10.7421875,44.43359375,22.94921875,-12.6953125,54.6875
1771545687.4424686,15.13671875,43.45703125,12.6953125,12.20703125,67.3828125
1771545687.446375,49.31640625,43.9453125,1.953125,58.10546875,23.4375
1771545687.4502811,33.203125,43.9453125,15.625,20.01953125,30.76171875
1771545687.4541874,-8.30078125,47.36328125,28.80859375,-30.2734375,59.5703125
1771545687.4580936,-2.44140625,44.43359375,15.625,1.46484375,54.19921875
1771545687.461125,33.203125,42.96875,7.8125,47.36328125,19.04296875
1771545687.4650311,32.71484375,45.41015625,16.6015625,40.52734375,18.06640625
1771545687.4689374,14.16015625,46.38671875,19.04296875,3.41796875,-8.30078125
1771545687.4728436,20.99609375,46.875,11.23046875,-0.48828125,-24.4140625
1771545687.47675,43.45703125,46.38671875,12.20703125,47.8515625,4.39453125
1771545687.4806561,50.29296875,44.921875,15.625,56.640625,27.83203125
1771545687.4845624,33.203125,47.8515625,26.85546875,13.18359375,64.453125
1771545687.4884686,40.52734375,52.24609375,16.11328125,9.765625,50.29296875
1771545687.492375,55.6640625,49.31640625,-0.9765625,43.9453125,-0.48828125
1771545687.4962811,45.41015625,46.38671875,19.04296875,55.17578125,-12.6953125
1771545687.5001874,28.3203125,49.31640625,32.71484375,29.78515625,-30.2734375
1771545687.5040936,25.390625,51.7578125,25.390625,12.6953125,7.8125
1771545687.506125,46.875,52.24609375,12.20703125,45.41015625,35.64453125
1771545687.5100312,58.10546875,48.828125,17.08984375,76.171875,48.33984375
1771545687.5139375,40.52734375,47.36328125,26.85546875,53.22265625,22.94921875
1771545687.5178437,39.55078125,47.8515625,25.87890625,17.578125,60.05859375
1771545687.52175,60.05859375,47.8515625,17.08984375,33.69140625,103.515625
1771545687.5256562,65.91796875,46.38671875,10.25390625,70.80078125,43.9453125
1771545687.5295625,52.24609375,45.41015625,20.99609375,67.87109375,13.671875
1771545687.5334687,30.2734375,45.41015625,21.484375,23.4375,47.36328125
1771545687.537375,37.59765625,44.43359375,17.08984375,19.04296875,40.0390625
1771545687.5412812,50.78125,47.8515625,21.97265625,56.15234375,34.1796875
1771545687.5451875,48.33984375,45.8984375,16.11328125,61.03515625,50.78125
1771545687.5490937,30.2734375,44.43359375,21.97265625,16.11328125,62.01171875
1771545687.550125,32.2265625,49.8046875,19.04296875,7.8125,43.45703125
1771545687.5540311,61.5234375,52.734375,12.20703125,50.29296875,46.875
1771545687.5579374,73.2421875,52.734375,9.765625,77.63671875,77.63671875
1771545687.5618436,47.8515625,51.26953125,16.6015625,49.31640625,45.8984375
1771545687.56575,20.01953125,53.22265625,21.484375,14.16015625,62.5
1771545687.5696561,43.9453125,53.7109375,5.859375,43.45703125,74.70703125
1771545687.5735624,78.61328125,50.29296875,-0.48828125,76.171875,32.2265625
1771545687.5774686,55.6640625,46.875,1.953125,47.36328125,53.7109375
1771545687.581375,19.53125,48.33984375,19.04296875,-1.953125,33.69140625
1771545687.5852811,39.0625,52.24609375,20.99609375,22.4609375,9.765625
1771545687.5891874,67.87109375,49.31640625,16.11328125,70.3125,21.97265625
1771545687.5930936,59.08203125,49.31640625,31.25,54.6875,53.7109375
1771545687.595125,41.50390625,53.22265625,36.62109375,21.97265625,19.53125
1771545687.5990312,49.31640625,55.6640625,30.76171875,25.87890625,22.94921875
1771545687.6029375,69.3359375,55.6640625,28.3203125,53.22265625,23.92578125
1771545687.6068437,75.1953125,53.22265625,37.109375,62.01171875,-15.625
1771545687.61075,54.19921875,51.7578125,42.96875,26.85546875,0.9765625
1771545687.6146562,47.8515625,52.734375,31.25,14.16015625,-17.08984375
1771545687.6185625,61.5234375,50.29296875,14.6484375,52.734375,-13.18359375
1771545687.6224687,40.52734375,46.38671875,21.97265625,68.359375,-23.92578125
1771545687.626375,15.625,52.24609375,44.921875,27.83203125,10.7421875
1771545687.6302812,26.3671875,56.640625,38.0859375,3.41796875,65.4296875
1771545687.6341875,38.57421875,54.6875,20.01953125,34.1796875,24.4140625
1771545687.6380937,41.015625,53.7109375,22.94921875,59.5703125,-7.8125
1771545687.655125,44.921875,49.8046875,31.73828125,55.6640625,20.01953125
1771545687.6590312,54.19921875,49.8046875,32.2265625,39.55078125,76.171875
1771545687.6629374,46.38671875,57.12890625,20.01953125,22.4609375,73.73046875
1771545687.6668437,41.50390625,59.5703125,12.20703125,38.57421875,18.06640625
1771545687.67075,46.875,60.05859375,17.08984375,50.78125,-21.484375
1771545687.6746562,46.38671875,61.5234375,14.16015625,19.53125,-4.39453125
1771545687.6785624,52.24609375,56.640625,4.8828125,15.625,13.18359375
1771545687.6824687,52.734375,46.38671875,9.27734375,61.5234375,9.765625
1771545687.686375,61.5234375,46.38671875,16.6015625,84.47265625,46.38671875
1771545687.6902812,65.91796875,56.15234375,12.20703125,50.78125,41.015625
1771545687.6941874,63.4765625,56.640625,7.8125,31.25,28.3203125
1771545687.6980937,80.56640625,52.734375,9.27734375,66.40625,46.38671875
1771545687.701125,89.35546875,53.7109375,14.16015625,105.95703125,70.80078125
1771545687.7050312,74.70703125,53.22265625,21.97265625,83.0078125,73.2421875
1771545687.7089374,70.80078125,55.17578125,16.11328125,47.8515625,42.48046875
1771545687.7128437,82.03125,57.6171875,4.39453125,66.89453125,80.56640625
1771545687.71675,106.93359375,58.10546875,-2.44140625,103.515625,75.68359375
1771545687.7206562,104.4921875,56.15234375,0.0,100.09765625,54.6875
1771545687.7245624,75.1953125,54.19921875,5.859375,48.33984375,73.73046875
1771545687.7284687,80.078125,53.22265625,3.41796875,57.12890625,41.50390625
1771545687.732375,102.05078125,50.78125,2.44140625,104.00390625,56.640625
1771545687.7362812,101.5625,50.29296875,-7.8125,100.5859375,48.828125
1771545687.7401874,74.70703125,51.26953125,0.48828125,56.15234375,38.0859375
1771545687.7440937,73.73046875,55.17578125,12.20703125,47.8515625,40.52734375
1771545687.745125,88.8671875,56.640625,-3.90625,76.66015625,26.85546875
1771545687.7490313,86.9140625,56.640625,-4.39453125,83.0078125,27.34375
1771545687.7529376,65.4296875,57.6171875,10.25390625,50.78125,9.27734375
1771545687.7568438,57.6171875,59.5703125,8.30078125,37.109375,-23.92578125
1771545687.76075,75.68359375,56.15234375,-0.48828125,68.359375,27.34375
1771545687.7646563,83.0078125,51.26953125,-2.9296875,84.47265625,40.0390625
1771545687.7685626,62.5,53.22265625,5.37109375,56.15234375,-9.765625
1771545687.7724688,38.57421875,55.6640625,16.11328125,8.30078125,5.37109375
1771545687.776375,71.77734375,57.6171875,3.90625,30.76171875,40.52734375
1771545687.7802813,79.58984375,56.15234375,-1.46484375,73.2421875,81.54296875
1771545687.7841876,49.31640625,56.15234375,19.04296875,56.640625,59.08203125
1771545687.7880938,39.55078125,60.05859375,19.04296875,22.94921875,40.52734375
1771545687.790125,53.7109375,61.5234375,4.8828125,27.34375,54.6875
1771545687.7940311,72.75390625,59.5703125,3.90625,68.84765625,11.71875
1771545687.7979374,74.21875,60.546875,14.6484375,73.2421875,-4.39453125
1771545687.8018436,57.12890625,62.98828125,18.5546875,25.87890625,14.16015625
1771545687.80575,46.875,62.01171875,9.765625,19.53125,15.13671875
1771545687.8096561,59.5703125,60.05859375,4.8828125,56.640625,28.3203125
1771545687.8135624,62.98828125,60.05859375,14.16015625,81.54296875,12.6953125
1771545687.8174686,50.78125,59.5703125,28.3203125,46.875,36.62109375
1771545687.821375,55.17578125,59.08203125,14.16015625,18.5546875,40.0390625
1771545687.8252811,66.40625,59.08203125,13.671875,56.15234375,47.8515625
1771545687.8291874,67.3828125,58.59375,27.34375,78.125,53.22265625
1771545687.8330936,56.640625,57.12890625,21.97265625,54.6875,9.765625
1771545687.837125,43.45703125,60.546875,22.94921875,23.4375,1.46484375
1771545687.8410313,47.8515625,60.546875,27.34375,34.66796875,111.81640625
1771545687.8449376,71.77734375,59.08203125,13.671875,77.1484375,35.64453125
1771545687.8488438,68.359375,57.12890625,12.20703125,72.75390625,-15.625
1771545687.85275,41.50390625,58.59375,24.4140625,14.6484375,94.7265625
1771545687.8566563,42.96875,60.546875,18.5546875,19.04296875,40.0390625
1771545687.8605626,58.10546875,57.6171875,17.578125,65.4296875,34.1796875
1771545687.8644688,66.89453125,57.12890625,15.625,70.3125,82.51953125
1771545687.868375,55.6640625,56.640625,15.625,27.83203125,58.59375
1771545687.8722813,40.52734375,58.10546875,25.87890625,-1.953125,46.38671875
1771545687.8761876,53.7109375,59.08203125,20.5078125,38.57421875,50.29296875
1771545687.8800938,68.84765625,56.640625,17.578125,74.21875,47.8515625
1771545687.880125,58.59375,57.6171875,21.97265625,34.1796875,12.20703125
1771545687.8840313,42.48046875,58.10546875,22.94921875,-3.41796875,-0.9765625
1771545687.8879375,40.52734375,54.19921875,13.18359375,29.78515625,14.6484375
1771545687.8918438,55.17578125,54.19921875,13.18359375,73.2421875,53.7109375
1771545687.89575,50.78125,55.6640625,21.484375,46.875,69.3359375
1771545687.8996563,29.78515625,52.24609375,16.6015625,1.953125,37.59765625
1771545687.9035625,45.41015625,50.29296875,8.30078125,32.2265625,4.39453125
1771545687.9074688,70.3125,50.78125,-1.953125,68.84765625,18.5546875
1771545687.911375,65.4296875,49.8046875,12.20703125,54.19921875,69.82421875
1771545687.9152813,34.66796875,55.17578125,34.66796875,10.25390625,66.89453125
1771545687.9191875,35.64453125,58.10546875,24.4140625,12.6953125,17.08984375
1771545687.9230938,56.15234375,56.15234375,21.484375,59.5703125,61.5234375
1771545687.926125,59.5703125,54.19921875,28.3203125,76.66015625,75.1953125
1771545687.9300313,39.55078125,53.22265625,30.76171875,37.109375,72.265625
1771545687.9339375,41.50390625,52.734375,16.6015625,19.04296875,33.203125
1771545687.9378438,54.19921875,51.7578125,7.8125,51.7578125,-26.85546875
1771545687.94175,47.8515625,50.29296875,10.7421875,63.4765625,14.6484375
1771545687.9456563,41.9921875,49.31640625,11.23046875,35.64453125,-19.04296875
1771545687.9495625,36.62109375,51.26953125,12.20703125,15.625,24.4140625
1771545687.9534688,54.6875,52.24609375,-0.48828125,39.55078125,91.30859375
1771545687.957375,60.05859375,52.734375,7.8125,69.3359375,6.34765625
1771545687.9612813,43.45703125,54.6875,28.3203125,54.6875,15.13671875
1771545687.9651875,33.203125,54.6875,24.4140625,13.671875,79.1015625
1771545687.9690938,51.26953125,53.7109375,12.20703125,31.73828125,68.359375
1771545687.970125,71.77734375,54.19921875,9.27734375,73.73046875,44.921875
1771545687.9740312,65.91796875,54.6875,6.34765625,70.3125,29.78515625
1771545687.9779375,54.19921875,56.640625,5.859375,22.94921875,-3.90625
1771545687.9818437,47.8515625,59.08203125,3.41796875,18.06640625,-17.08984375
1771545687.98575,61.5234375,58.10546875,-3.90625,59.08203125,16.6015625
1771545687.9896562,67.87109375,56.640625,-4.8828125,74.21875,26.85546875
1771545687.9935625,48.828125,56.640625,-8.30078125,39.55078125,24.90234375
1771545687.9974687,35.64453125,59.08203125,-3.90625,17.578125,11.71875
1771545688.001375,52.24609375,60.546875,11.71875,51.7578125,28.80859375
1771545688.0052812,62.01171875,57.12890625,3.41796875,70.3125,40.52734375
1771545688.0091875,47.8515625,57.12890625,4.39453125,29.296875,33.203125
1771545688.0130937,45.41015625,71.77734375,20.01953125,-5.37109375,29.296875
1771545688.015125,45.8984375,73.2421875,14.6484375,19.04296875,60.546875
1771545688.0190313,53.22265625,60.546875,2.9296875,62.98828125,106.93359375
1771545688.0229375,46.38671875,52.24609375,7.32421875,55.17578125,77.1484375
1771545688.0268438,25.87890625,50.29296875,17.08984375,9.27734375,42.96875
1771545688.03075,51.7578125,54.19921875,10.7421875,23.4375,-13.18359375
1771545688.0346563,68.84765625,55.17578125,2.44140625,72.75390625,66.89453125
1771545688.0385625,62.98828125,51.26953125,0.0,58.10546875,94.7265625
1771545688.0424688,40.52734375,49.31640625,19.53125,6.34765625,-0.48828125
1771545688.046375,26.85546875,53.7109375,21.97265625,10.25390625,32.2265625
1771545688.0502813,49.8046875,56.640625,8.7890625,51.7578125,54.6875
1771545688.0541875,59.08203125,52.24609375,12.6953125,67.3828125,59.08203125
1771545688.0580938,42.96875,51.26953125,15.625,33.203125,12.6953125
1771545688.075125,38.0859375,53.7109375,13.18359375,14.16015625,-2.44140625
1771545688.0790312,48.33984375,51.26953125,7.32421875,43.9453125,52.734375
1771545688.0829375,54.19921875,49.8046875,8.7890625,65.4296875,16.11328125
1771545688.0868437,49.31640625,52.734375,20.5078125,45.8984375,-8.7890625
1771545688.09075,29.78515625,52.24609375,20.01953125,9.765625,37.59765625
1771545688.0946562,28.80859375,50.78125,5.859375,20.99609375,45.8984375
1771545688.0985625,49.31640625,51.26953125,9.27734375,56.640625,53.22265625
1771545688.1024687,48.828125,52.24609375,20.99609375,56.15234375,59.5703125
1771545688.106375,35.64453125,52.734375,16.6015625,19.04296875,30.2734375
1771545688.1102812,42.48046875,52.24609375,1.953125,13.671875,-2.9296875
1771545688.1141875,62.5,52.24609375,9.27734375,53.7109375,21.97265625
1771545688.1180937,66.89453125,52.24609375,24.4140625,72.265625,56.640625
1771545688.136125,58.59375,50.29296875,21.484375,44.921875,0.48828125
1771545688.1400313,51.26953125,57.6171875,13.671875,15.13671875,-14.16015625
1771545688.1439376,46.38671875,58.59375,5.859375,33.203125,22.94921875
1771545688.1478438,49.31640625,55.17578125,3.90625,58.59375,14.16015625
1771545688.15175,46.38671875,61.5234375,3.90625,27.34375,18.5546875
1771545688.1556563,40.52734375,59.5703125,0.0,3.41796875,60.05859375
1771545688.1595626,54.19921875,57.6171875,0.0,35.15625,61.5234375
1771545688.1634688,57.6171875,60.05859375,8.7890625,67.87109375,16.11328125
1771545688.167375,44.921875,61.03515625,8.30078125,54.19921875,13.18359375
1771545688.1712813,34.66796875,60.05859375,2.9296875,0.0,16.6015625
1771545688.1751876,37.59765625,59.5703125,14.16015625,11.71875,-3.90625
1771545688.1790938,59.08203125,60.05859375,13.671875,59.5703125,46.38671875
1771545688.165125,55.6640625,58.59375,10.25390625,58.59375,55.17578125
1771545688.1690311,34.1796875,60.05859375,13.18359375,10.7421875,-15.625
1771545688.1729374,31.73828125,59.08203125,14.6484375,-7.32421875,32.2265625
1771545688.1768436,52.734375,57.6171875,10.7421875,45.8984375,62.5
1771545688.18075,62.01171875,56.640625,5.37109375,69.3359375,-3.41796875
1771545688.1846561,35.64453125,55.17578125,12.6953125,24.90234375,5.859375
1771545688.1885624,24.4140625,58.10546875,16.6015625,0.9765625,60.05859375
1771545688.1924686,56.640625,60.546875,8.30078125,43.9453125,34.1796875
1771545688.196375,72.75390625,60.05859375,12.6953125,77.1484375,43.45703125
1771545688.2002811,47.36328125,59.08203125,22.4609375,37.59765625,65.91796875
1771545688.2041874,36.1328125,58.10546875,20.01953125,10.7421875,30.2734375
1771545688.2080936,52.734375,57.12890625,10.7421875,51.7578125,41.50390625
1771545688.210125,67.87109375,52.24609375,-1.953125,81.54296875,27.34375
1771545688.2140312,53.7109375,50.78125,12.6953125,49.31640625,-52.24609375
1771545688.2179375,37.109375,54.19921875,36.1328125,1.46484375,-28.3203125
1771545688.2218437,45.41015625,51.7578125,24.90234375,17.08984375,24.90234375
1771545688.22575,55.6640625,49.31640625,16.11328125,62.01171875,2.44140625
1771545688.2296562,54.6875,50.78125,17.578125,69.82421875,45.41015625
1771545688.2335625,35.15625,51.7578125,24.90234375,22.4609375,67.3828125
1771545688.2374687,33.69140625,52.734375,17.578125,7.32421875,97.65625
1771545688.241375,50.29296875,50.29296875,10.25390625,54.6875,105.95703125
1771545688.2452812,57.6171875,48.828125,31.25,64.94140625,77.63671875
1771545688.2491875,39.55078125,50.29296875,40.52734375,27.34375,93.75
1771545688.2530937,24.4140625,49.31640625,25.87890625,5.37109375,49.8046875
1771545688.255125,50.78125,44.921875,20.99609375,35.64453125,35.64453125
1771545688.2590313,73.73046875,44.43359375,30.76171875,73.2421875,40.0390625
1771545688.2629375,43.45703125,46.38671875,39.0625,49.8046875,27.34375
1771545688.2668438,22.94921875,45.41015625,32.2265625,17.08984375,25.390625
1771545688.27075,42.96875,43.9453125,26.85546875,38.0859375,14.16015625
1771545688.2746563,61.5234375,46.875,34.1796875,67.87109375,25.87890625
1771545688.2785625,56.15234375,45.8984375,31.73828125,62.01171875,23.4375
1771545688.2824688,37.59765625,44.43359375,31.25,12.6953125,22.4609375
1771545688.286375,38.57421875,47.8515625,33.69140625,6.8359375,60.05859375
1771545688.2902813,55.6640625,49.31640625,28.3203125,57.12890625,43.45703125
1771545688.2941875,53.7109375,49.31640625,29.78515625,67.3828125,23.92578125
1771545688.2980938,30.2734375,50.78125,32.2265625,26.85546875,31.25
1771545688.301125,20.5078125,53.22265625,37.59765625,16.11328125,28.80859375
1771545688.3050313,38.57421875,54.19921875,35.15625,46.38671875,-7.32421875
1771545688.3089375,57.12890625,51.7578125,31.25,54.6875,30.2734375
1771545688.3128438,45.41015625,51.26953125,35.64453125,31.25,66.89453125
1771545688.31675,36.1328125,53.7109375,36.62109375,16.6015625,37.109375
1771545688.3206563,60.546875,53.7109375,28.3203125,50.29296875,66.40625
1771545688.3245625,67.3828125,50.29296875,15.13671875,81.0546875,66.40625
1771545688.3284688,43.9453125,47.36328125,14.16015625,59.08203125,40.0390625
1771545688.332375,25.390625,51.26953125,28.80859375,11.23046875,99.12109375
1771545688.3362813,34.1796875,56.15234375,20.5078125,25.87890625,92.7734375
1771545688.3401875,64.453125,54.6875,8.7890625,69.82421875,42.48046875
1771545688.3440938,60.05859375,49.8046875,14.16015625,61.03515625,44.921875
1771545688.366125,22.4609375,45.41015625,20.5078125,23.4375,2.44140625
1771545688.3700314,20.5078125,44.43359375,19.04296875,23.4375,23.92578125
1771545688.3739376,46.38671875,42.48046875,5.859375,61.03515625,30.2734375
1771545688.3778439,58.59375,41.015625,5.859375,60.05859375,-48.33984375
1771545688.38175,32.71484375,44.43359375,20.99609375,12.6953125,-0.9765625
1771545688.3856564,27.34375,46.875,16.6015625,15.13671875,74.21875
1771545688.3895626,54.19921875,45.8984375,-1.953125,56.15234375,52.734375
1771545688.3934689,60.546875,43.45703125,8.7890625,65.4296875,45.41015625
1771545688.397375,34.66796875,44.43359375,30.76171875,23.4375,70.80078125
1771545688.4012814,29.78515625,49.8046875,19.04296875,-1.953125,33.69140625
1771545688.4051876,54.6875,50.78125,4.8828125,39.55078125,13.671875
1771545688.4090939,67.3828125,48.828125,14.16015625,74.21875,56.15234375
1771545688.391125,58.59375,50.29296875,25.390625,46.38671875,28.3203125
1771545688.3950312,37.59765625,56.15234375,20.99609375,8.30078125,56.15234375
1771545688.3989375,46.38671875,58.10546875,13.671875,31.25,77.63671875
1771545688.4028437,66.40625,58.10546875,19.04296875,69.82421875,56.640625
1771545688.40675,58.59375,58.10546875,23.92578125,64.94140625,76.66015625
1771545688.4106562,39.0625,55.6640625,18.5546875,25.390625,45.8984375
1771545688.4145625,44.43359375,53.7109375,15.13671875,19.53125,39.0625
1771545688.4184687,63.4765625,56.15234375,14.6484375,53.7109375,71.77734375
1771545688.422375,53.22265625,57.12890625,16.11328125,62.01171875,48.33984375
1771545688.4262812,41.50390625,55.17578125,15.13671875,29.78515625,20.01953125
1771545688.4301875,53.22265625,51.26953125,6.34765625,13.18359375,43.45703125
1771545688.4340937,60.05859375,52.734375,20.5078125,41.015625,139.6484375
1771545688.450125,56.640625,52.734375,27.83203125,70.3125,86.42578125
1771545688.4540312,40.0390625,53.22265625,26.85546875,50.78125,-30.2734375
1771545688.4579375,27.83203125,54.6875,30.76171875,19.53125,18.5546875
1771545688.4618437,40.0390625,52.734375,23.92578125,41.50390625,28.80859375
1771545688.46575,54.6875,51.7578125,20.01953125,69.82421875,12.6953125
1771545688.4696562,45.41015625,51.26953125,12.6953125,53.22265625,-25.87890625
1771545688.4735625,33.203125,49.8046875,21.484375,8.30078125,2.9296875
1771545688.4774687,45.8984375,52.24609375,30.2734375,15.13671875,92.7734375
1771545688.481375,61.03515625,56.640625,16.11328125,60.546875,42.96875
1771545688.4852812,53.7109375,55.17578125,19.53125,66.89453125,45.41015625
1771545688.4891875,37.109375,56.640625,29.296875,23.4375,47.36328125
1771545688.4930937,41.50390625,61.03515625,26.85546875,17.08984375,40.0390625
1771545688.495125,61.5234375,62.01171875,14.16015625,57.12890625,28.80859375
1771545688.4990313,65.91796875,62.01171875,13.18359375,69.82421875,5.859375
1771545688.5029376,49.31640625,63.4765625,23.92578125,26.85546875,-4.8828125
1771545688.5068438,48.33984375,65.4296875,22.94921875,8.7890625,-2.9296875
1771545688.51075,55.17578125,64.94140625,11.71875,45.8984375,45.8984375
1771545688.5146563,61.03515625,63.96484375,8.30078125,58.59375,57.6171875
1771545688.5185626,51.7578125,61.5234375,21.97265625,24.4140625,81.54296875
1771545688.5224688,38.0859375,63.4765625,25.390625,5.859375,79.58984375
1771545688.526375,61.5234375,63.96484375,10.7421875,41.50390625,55.6640625
1771545688.5302813,77.1484375,55.17578125,1.953125,71.77734375,-17.578125
1771545688.5341876,54.19921875,57.12890625,24.4140625,53.7109375,11.23046875
1771545688.5380938,45.41015625,63.96484375,29.78515625,5.859375,54.6875
1771545688.540125,60.05859375,59.5703125,17.578125,13.671875,0.48828125
1771545688.5440311,76.171875,62.5,17.08984375,55.6640625,5.37109375
1771545688.5479374,72.75390625,65.4296875,23.4375,64.453125,39.0625
1771545688.5518436,51.26953125,62.5,26.85546875,40.52734375,30.76171875
1771545688.55575,50.29296875,62.5,19.53125,36.62109375,28.80859375
1771545688.5596561,67.3828125,58.10546875,17.578125,61.03515625,27.34375
1771545688.5635624,67.3828125,53.7109375,23.92578125,81.54296875,60.546875
1771545688.5674686,36.1328125,54.19921875,32.71484375,58.10546875,75.1953125
1771545688.571375,26.3671875,54.6875,21.97265625,18.5546875,21.97265625
1771545688.5752811,47.8515625,52.24609375,14.6484375,38.57421875,-0.9765625
1771545688.5791874,54.6875,55.17578125,30.2734375,67.87109375,16.11328125
1771545688.5830936,43.45703125,58.59375,30.2734375,45.8984375,46.38671875
1771545688.585125,39.0625,55.17578125,26.3671875,11.23046875,46.38671875
1771545688.5890312,52.24609375,49.8046875,25.390625,31.25,36.62109375
1771545688.5929375,61.03515625,48.828125,26.85546875,80.56640625,35.64453125
1771545688.5968437,57.12890625,51.7578125,27.83203125,64.94140625,14.16015625
1771545688.60075,38.57421875,56.15234375,19.04296875,9.765625,27.83203125
1771545688.6046562,44.43359375,57.12890625,6.34765625,12.6953125,48.828125
1771545688.6085625,67.87109375,53.22265625,5.859375,51.7578125,40.52734375
1771545688.6124687,73.73046875,52.734375,5.859375,57.6171875,31.25
1771545688.616375,46.875,50.78125,10.25390625,21.484375,29.296875
1771545688.6202812,38.0859375,52.24609375,22.4609375,2.9296875,20.01953125
1771545688.6241875,52.734375,52.24609375,13.671875,41.50390625,13.671875
1771545688.6280937,52.24609375,50.29296875,7.32421875,65.4296875,28.80859375
1771545688.631125,37.109375,50.78125,18.5546875,35.15625,47.8515625
1771545688.6350312,33.203125,50.29296875,19.53125,9.27734375,34.1796875
1771545688.6389375,53.7109375,49.8046875,8.30078125,41.50390625,36.1328125
1771545688.6428437,70.3125,49.8046875,5.37109375,61.5234375,60.546875
1771545688.64675,50.29296875,48.33984375,17.08984375,38.57421875,55.17578125
1771545688.6506562,31.73828125,45.41015625,18.5546875,16.11328125,19.53125
1771545688.6545625,55.17578125,46.38671875,12.6953125,37.59765625,38.57421875
1771545688.6584687,74.70703125,47.36328125,3.90625,80.56640625,35.64453125
1771545688.662375,56.640625,44.43359375,11.71875,60.05859375,-15.625
1771545688.6662812,23.92578125,46.38671875,31.25,0.9765625,3.90625
1771545688.6701875,39.0625,46.875,16.6015625,15.13671875,30.2734375
1771545688.6740937,65.91796875,43.9453125,8.7890625,62.01171875,45.8984375
1771545688.697125,64.453125,43.45703125,17.08984375,66.89453125,67.87109375
1771545688.7010312,55.6640625,45.8984375,18.06640625,32.2265625,43.45703125
1771545688.7049375,59.5703125,47.36328125,9.765625,24.90234375,74.21875
1771545688.7088437,64.453125,45.8984375,0.9765625,65.91796875,74.21875
1771545688.71275,60.05859375,47.36328125,12.20703125,75.68359375,20.5078125
1771545688.7166562,53.7109375,49.8046875,16.6015625,38.0859375,6.8359375
1771545688.7205625,52.24609375,47.8515625,4.39453125,22.4609375,-16.6015625
1771545688.7244687,63.96484375,47.8515625,-4.8828125,33.69140625,10.25390625
1771545688.728375,63.96484375,49.31640625,8.30078125,50.78125,34.1796875
1771545688.7322812,52.734375,51.26953125,20.5078125,51.26953125,47.8515625
1771545688.7361875,41.015625,49.8046875,16.11328125,1.953125,18.06640625
1771545688.7400937,44.43359375,49.8046875,8.7890625,8.7890625,46.875
1771545688.721125,56.640625,52.734375,1.953125,54.19921875,49.8046875
1771545688.7250311,48.828125,52.734375,4.8828125,60.546875,36.62109375
1771545688.7289374,33.69140625,49.8046875,9.765625,15.13671875,29.296875
1771545688.7328436,30.76171875,51.26953125,7.8125,-4.8828125,45.8984375
1771545688.73675,47.8515625,52.24609375,3.90625,37.109375,27.83203125
1771545688.7406561,69.3359375,42.96875,10.7421875,65.91796875,32.71484375
1771545688.7445624,67.3828125,36.1328125,23.4375,43.45703125,29.78515625
1771545688.7484686,49.31640625,50.29296875,20.01953125,15.625,30.2734375
1771545688.752375,40.52734375,59.5703125,5.37109375,21.97265625,71.77734375
1771545688.7562811,52.734375,61.03515625,1.953125,39.55078125,63.96484375
1771545688.7601874,50.29296875,62.98828125,0.48828125,24.4140625,59.5703125
1771545688.7640936,34.1796875,61.03515625,6.8359375,-6.34765625,15.13671875
1771545688.766125,44.43359375,64.94140625,10.25390625,24.4140625,-3.90625
1771545688.7700312,61.5234375,64.453125,1.953125,64.94140625,25.87890625
1771545688.7739375,59.5703125,61.03515625,8.7890625,42.48046875,11.71875
1771545688.7778437,41.9921875,58.10546875,19.53125,-13.18359375,32.71484375
1771545688.78175,35.64453125,59.5703125,14.16015625,-1.46484375,40.0390625
1771545688.7856562,57.12890625,60.546875,0.48828125,59.5703125,11.71875
1771545688.7895625,70.3125,54.19921875,5.859375,73.73046875,1.953125
1771545688.7934687,49.8046875,54.6875,26.3671875,17.08984375,0.9765625
1771545688.797375,41.015625,60.546875,21.97265625,5.37109375,8.30078125
1771545688.8012812,63.96484375,58.10546875,10.25390625,56.640625,67.3828125
1771545688.8051875,70.80078125,55.17578125,15.13671875,72.75390625,102.5390625
1771545688.8090937,51.26953125,58.10546875,23.4375,24.4140625,64.453125
1771545688.825125,40.0390625,59.5703125,20.5078125,-1.953125,29.78515625
1771545688.8290312,51.26953125,57.6171875,11.71875,41.015625,38.57421875
1771545688.8329375,63.4765625,55.6640625,9.765625,83.984375,4.39453125
1771545688.8368437,55.17578125,55.17578125,18.5546875,50.78125,43.45703125
1771545688.84075,40.0390625,54.19921875,16.6015625,-3.41796875,57.6171875
1771545688.8446562,45.41015625,53.7109375,3.41796875,20.01953125,11.71875
1771545688.8485625,53.22265625,53.7109375,5.37109375,53.22265625,10.7421875
1771545688.8524687,48.828125,53.22265625,13.18359375,46.38671875,9.765625
1771545688.856375,37.59765625,57.6171875,14.6484375,14.6484375,45.41015625
1771545688.8602812,52.24609375,60.05859375,-2.9296875,30.2734375,24.90234375
1771545688.8641875,64.94140625,56.15234375,-1.953125,69.82421875,42.48046875
1771545688.8680937,55.17578125,58.10546875,17.578125,63.4765625,84.47265625
1771545688.871125,40.52734375,59.5703125,12.20703125,26.3671875,59.08203125
1771545688.8750312,40.0390625,62.01171875,5.37109375,28.3203125,44.43359375
1771545688.8789375,60.05859375,60.05859375,7.8125,56.640625,44.43359375
1771545688.8828437,65.91796875,54.19921875,10.25390625,69.82421875,60.05859375
1771545688.88675,43.9453125,54.6875,5.859375,41.50390625,11.23046875
1771545688.8906562,31.73828125,55.17578125,-0.48828125,6.34765625,4.39453125
1771545688.8945625,51.26953125,54.6875,-1.953125,29.78515625,32.2265625
1771545688.8984687,60.546875,52.734375,0.0,63.96484375,5.37109375
1771545688.902375,41.9921875,52.24609375,-2.44140625,38.57421875,-6.8359375
1771545688.9062812,25.390625,55.17578125,-0.9765625,3.41796875,46.875
1771545688.9101875,31.73828125,57.6171875,0.0,22.4609375,43.9453125
1771545688.9140937,45.41015625,54.6875,-6.34765625,49.31640625,26.3671875
1771545688.916125,38.0859375,49.31640625,-8.30078125,32.71484375,26.3671875
1771545688.9200313,21.97265625,48.33984375,-4.8828125,-16.11328125,19.04296875
1771545688.9239376,30.76171875,51.7578125,-1.953125,-8.30078125,64.94140625
1771545688.9278438,53.22265625,51.7578125,-7.32421875,45.41015625,45.8984375
1771545688.93175,51.7578125,47.36328125,-7.8125,61.03515625,32.2265625
1771545688.9356563,35.15625,45.8984375,-4.39453125,25.87890625,32.2265625
1771545688.9395626,34.1796875,52.24609375,-6.8359375,18.06640625,53.22265625
1771545688.9434688,57.12890625,57.6171875,-13.671875,48.828125,71.77734375
1771545688.947375,70.80078125,48.33984375,-15.13671875,65.91796875,31.73828125
1771545688.9512813,45.41015625,41.9921875,4.8828125,29.78515625,39.55078125
1771545688.9551876,20.01953125,46.38671875,15.625,3.90625,70.80078125
1771545688.9590938,46.875,47.36328125,-0.9765625,51.26953125,39.55078125
1771545688.966125,64.453125,47.8515625,-3.90625,75.1953125,23.92578125
1771545688.9700313,38.57421875,46.38671875,4.8828125,37.59765625,66.89453125
1771545688.9739375,23.92578125,46.38671875,2.9296875,6.34765625,1.953125
1771545688.9778438,36.62109375,47.8515625,-4.39453125,22.4609375,-18.06640625
1771545688.98175,54.19921875,44.921875,-4.8828125,61.03515625,67.3828125
1771545688.9856563,54.19921875,41.9921875,0.0,63.96484375,18.5546875
1771545688.9895625,31.25,42.96875,12.6953125,11.71875,24.90234375
1771545688.9934688,29.296875,44.43359375,5.37109375,15.13671875,36.1328125
1771545688.997375,40.52734375,40.0390625,-10.7421875,60.546875,61.5234375
1771545689.0012813,38.57421875,37.109375,5.37109375,63.96484375,84.9609375
1771545689.0051875,23.92578125,42.96875,15.625,23.4375,44.43359375
1771545689.0090938,24.90234375,45.41015625,4.8828125,3.90625,52.734375
1771545689.007125,49.8046875,45.8984375,-2.44140625,45.8984375,54.6875
1771545689.0110312,56.15234375,47.36328125,4.39453125,76.171875,33.69140625
1771545689.0149374,47.36328125,47.36328125,12.6953125,41.9921875,38.0859375
1771545689.0188437,36.62109375,48.33984375,11.23046875,3.41796875,65.4296875
1771545689.02275,42.96875,47.8515625,-1.953125,25.390625,57.12890625
1771545689.0266562,56.15234375,46.875,-6.8359375,65.91796875,72.75390625
1771545689.0305624,49.8046875,48.33984375,3.41796875,45.41015625,26.85546875
1771545689.0344687,44.43359375,49.31640625,-0.48828125,2.44140625,37.59765625
1771545689.038375,44.921875,49.31640625,-9.27734375,13.671875,82.51953125
1771545689.0422812,45.8984375,51.7578125,5.37109375,47.36328125,75.68359375
1771545689.0461874,47.36328125,50.29296875,10.25390625,50.29296875,64.453125
1771545689.0500937,34.1796875,50.29296875,11.23046875,0.9765625,31.73828125
1771545689.051125,31.25,52.734375,12.6953125,-8.30078125,23.92578125
1771545689.0550313,44.921875,50.29296875,13.671875,36.1328125,14.6484375
1771545689.0589375,55.17578125,50.29296875,13.671875,74.70703125,25.390625
1771545689.0628438,39.0625,52.734375,18.06640625,40.0390625,57.6171875
1771545689.06675,20.99609375,50.78125,17.08984375,-0.48828125,44.43359375
1771545689.0706563,37.59765625,48.33984375,1.46484375,30.2734375,6.34765625
1771545689.0745625,55.17578125,49.8046875,0.0,70.3125,42.96875
1771545689.0784688,49.8046875,48.33984375,5.37109375,42.96875,57.6171875
1771545689.082375,34.1796875,47.8515625,21.97265625,-9.27734375,30.76171875
1771545689.0862813,45.8984375,53.7109375,20.5078125,24.4140625,21.484375
1771545689.0901875,66.40625,52.734375,10.25390625,64.94140625,62.5
1771545689.0940938,60.546875,51.26953125,15.625,46.38671875,30.2734375
1771545689.096125,44.43359375,55.6640625,27.34375,16.11328125,-20.01953125
1771545689.1000311,47.36328125,58.10546875,27.34375,28.80859375,41.015625
1771545689.1039374,63.4765625,55.17578125,17.578125,64.453125,88.37890625
1771545689.1078436,58.59375,48.828125,20.99609375,64.453125,64.94140625
1771545689.11175,42.48046875,52.24609375,26.3671875,20.99609375,39.55078125
1771545689.1156561,43.45703125,57.12890625,19.04296875,10.7421875,43.9453125
1771545689.1195624,59.08203125,51.26953125,0.9765625,59.5703125,44.921875
1771545689.1234686,58.59375,48.828125,9.765625,93.75,37.59765625
1771545689.127375,44.921875,50.78125,31.25,31.25,52.24609375
1771545689.1312811,41.015625,52.734375,18.5546875,-22.4609375,26.3671875
1771545689.1351874,49.31640625,55.6640625,9.765625,21.97265625,-1.46484375
1771545689.1390936,49.8046875,54.6875,22.94921875,67.87109375,55.6640625
1771545689.141125,29.296875,53.22265625,36.1328125,51.7578125,56.640625
1771545689.1450312,26.85546875,54.19921875,25.390625,13.18359375,34.66796875
1771545689.1489375,42.48046875,52.24609375,10.25390625,25.87890625,35.15625
1771545689.1528437,57.12890625,49.31640625,21.484375,68.359375,25.87890625
1771545689.15675,67.3828125,51.26953125,33.69140625,74.21875,66.89453125
1771545689.1606562,55.17578125,53.7109375,23.92578125,26.3671875,75.68359375
1771545689.1645625,52.24609375,51.26953125,11.23046875,19.04296875,60.546875
1771545689.1684687,57.6171875,51.26953125,18.5546875,61.03515625,51.7578125
1771545689.172375,47.8515625,55.17578125,27.83203125,69.82421875,58.10546875
1771545689.1762812,34.66796875,56.15234375,30.2734375,40.52734375,44.43359375
1771545689.1801875,40.52734375,59.08203125,21.484375,15.13671875,17.08984375
1771545689.1840937,59.08203125,56.15234375,12.20703125,28.80859375,13.671875
1771545689.201125,67.87109375,54.6875,17.08984375,57.6171875,29.78515625
1771545689.2050312,42.48046875,55.6640625,19.53125,38.57421875,47.8515625
1771545689.2089374,15.625,54.6875,22.94921875,5.37109375,21.97265625
1771545689.2128437,33.203125,54.6875,21.484375,36.1328125,30.76171875
1771545689.21675,54.19921875,53.22265625,16.11328125,70.80078125,6.8359375
1771545689.2206562,41.50390625,51.26953125,19.53125,49.31640625,-5.859375
1771545689.2245624,25.87890625,49.8046875,22.4609375,12.6953125,-21.484375
1771545689.2284687,34.66796875,52.24609375,20.5078125,14.16015625,1.953125
1771545689.232375,53.22265625,55.17578125,10.7421875,59.5703125,47.36328125
1771545689.2362812,57.6171875,52.24609375,8.7890625,56.15234375,22.4609375
1771545689.2401874,42.48046875,50.29296875,20.01953125,2.9296875,32.71484375
1771545689.2440937,27.34375,54.19921875,17.08984375,4.8828125,-17.08984375
1771545689.261125,34.66796875,55.6640625,9.27734375,51.7578125,-3.90625
1771545689.2650313,47.36328125,50.29296875,2.9296875,71.77734375,59.5703125
1771545689.2689376,32.71484375,46.875,20.99609375,20.5078125,86.42578125
1771545689.2728438,30.2734375,52.24609375,30.2734375,-1.46484375,83.49609375
1771545689.27675,61.03515625,51.26953125,15.625,48.33984375,39.0625
1771545689.2806563,68.84765625,47.36328125,17.08984375,73.73046875,50.78125
1771545689.2845626,47.36328125,48.828125,25.390625,38.0859375,9.27734375
1771545689.2884688,29.296875,47.36328125,31.25,0.0,-45.8984375
1771545689.292375,43.45703125,47.36328125,17.08984375,20.01953125,40.0390625
1771545689.2962813,53.7109375,44.43359375,1.953125,46.38671875,40.52734375
1771545689.3001876,26.85546875,40.52734375,22.94921875,25.390625,57.6171875
1771545689.3040938,14.6484375,44.921875,31.73828125,-5.37109375,65.91796875
1771545689.293125,25.390625,46.875,22.4609375,19.53125,-8.30078125
1771545689.2970312,46.38671875,45.8984375,21.97265625,50.29296875,56.15234375
1771545689.3009374,62.5,44.43359375,30.76171875,45.41015625,81.54296875
1771545689.3048437,40.52734375,49.31640625,34.1796875,7.8125,34.66796875
1771545689.30875,37.109375,54.6875,28.3203125,12.20703125,-8.7890625
1771545689.3126562,45.8984375,50.78125,24.4140625,45.41015625,14.6484375
1771545689.3165624,34.1796875,44.43359375,28.80859375,54.6875,-19.53125
1771545689.3204687,35.15625,49.8046875,34.1796875,41.9921875,-10.25390625
1771545689.324375,21.484375,58.10546875,41.9921875,7.32421875,30.76171875
1771545689.3282812,-4.39453125,54.6875,42.96875,-9.27734375,-25.390625
1771545689.3321874,-19.53125,53.7109375,33.69140625,-14.16015625,20.99609375
1771545689.3360937,-45.8984375,49.8046875,34.1796875,-48.828125,88.37890625
1771545689.335125,-75.1953125,49.8046875,24.90234375,-110.83984375,63.96484375
1771545689.3390312,-89.84375,51.7578125,35.15625,-120.60546875,-4.8828125
1771545689.3429375,-113.28125,53.22265625,48.33984375,-105.95703125,17.578125
1771545689.3468437,-142.08984375,57.12890625,48.33984375,-131.8359375,63.4765625
1771545689.35075,-171.38671875,67.87109375,49.31640625,-184.08203125,62.98828125
1771545689.3546562,-184.08203125,69.82421875,49.31640625,-208.984375,54.6875
1771545689.3585625,-171.38671875,63.96484375,51.7578125,-172.8515625,37.59765625
1771545689.3624687,-164.0625,68.84765625,57.6171875,-167.96875,29.78515625
1771545689.366375,-187.01171875,71.2890625,62.01171875,-216.30859375,33.203125
1771545689.3702812,-199.70703125,75.68359375,68.84765625,-233.88671875,-1.46484375
1771545689.3741875,-173.33984375,76.66015625,75.68359375,-187.01171875,32.71484375
1771545689.3780937,-172.36328125,71.2890625,75.68359375,-143.5546875,36.1328125
1771545689.380125,-174.31640625,73.73046875,76.171875,-161.1328125,-0.48828125
1771545689.3840313,-153.80859375,77.63671875,78.61328125,-173.33984375,83.0078125
1771545689.3879375,-143.06640625,80.56640625,62.5,-147.4609375,129.8828125
1771545689.3918438,-112.3046875,76.171875,49.8046875,-111.81640625,95.703125
1771545689.39575,-98.6328125,67.3828125,58.10546875,-99.609375,33.203125
1771545689.3996563,-113.28125,62.01171875,56.640625,-118.65234375,-27.34375
1771545689.4035625,-98.6328125,59.5703125,49.31640625,-93.75,31.25
1771545689.4074688,-64.94140625,54.19921875,33.203125,-43.9453125,65.4296875
1771545689.411375,-48.33984375,51.7578125,38.0859375,-46.38671875,32.2265625
1771545689.4152813,-65.4296875,53.22265625,56.15234375,-90.8203125,60.546875
1771545689.4191875,-56.15234375,52.24609375,41.015625,-77.1484375,46.38671875
1771545689.4230938,-6.34765625,45.41015625,29.78515625,-2.9296875,20.01953125
1771545689.426125,4.39453125,39.0625,42.96875,18.5546875,81.54296875
1771545689.4300313,-9.27734375,37.109375,43.45703125,-21.484375,22.94921875
1771545689.4339375,3.90625,35.64453125,29.78515625,-19.53125,-22.94921875
1771545689.4378438,27.83203125,34.66796875,23.4375,32.71484375,50.78125
1771545689.44175,35.15625,34.66796875,20.99609375,57.6171875,2.44140625
1771545689.4456563,36.62109375,32.71484375,27.34375,40.52734375,-12.20703125
1771545689.4495625,33.69140625,30.2734375,25.87890625,8.30078125,26.3671875
1771545689.4534688,50.78125,29.296875,8.30078125,36.1328125,43.45703125
1771545689.457375,73.2421875,27.83203125,13.18359375,91.30859375,35.64453125
1771545689.4612813,56.640625,22.94921875,23.92578125,73.2421875,24.4140625
1771545689.4651875,52.24609375,21.97265625,15.13671875,38.57421875,-10.25390625
1771545689.4690938,70.3125,23.4375,2.9296875,52.24609375,-11.71875
1771545689.470125,74.70703125,23.4375,2.9296875,80.56640625,55.6640625
1771545689.4740312,84.47265625,22.4609375,7.32421875,94.23828125,62.98828125
1771545689.4779375,78.61328125,23.4375,6.34765625,64.94140625,68.359375
1771545689.4818437,65.4296875,25.87890625,2.44140625,56.15234375,23.92578125
1771545689.48575,93.26171875,28.3203125,5.859375,103.515625,-7.8125
1771545689.4896562,124.51171875,28.80859375,5.37109375,128.90625,-15.13671875
1771545689.4935625,100.5859375,25.390625,1.953125,88.37890625,-17.08984375
1771545689.4974687,73.73046875,23.4375,3.41796875,56.15234375,17.578125
1771545689.501375,80.56640625,27.34375,6.34765625,88.37890625,32.71484375
1771545689.5052812,114.74609375,29.296875,1.953125,114.2578125,68.84765625
1771545689.5091875,116.2109375,29.78515625,5.37109375,82.51953125,65.4296875
1771545689.5130937,93.75,34.1796875,9.765625,53.7109375,64.453125
1771545689.531125,107.91015625,35.64453125,0.48828125,77.63671875,77.63671875
1771545689.5350313,118.1640625,34.66796875,-8.7890625,126.953125,61.03515625
1771545689.5389376,98.6328125,31.73828125,-0.48828125,127.44140625,33.203125
1771545689.5428438,75.68359375,34.1796875,12.6953125,73.2421875,-6.34765625
1771545689.54675,93.75,38.57421875,8.7890625,77.63671875,16.6015625
1771545689.5506563,119.62890625,38.0859375,-6.8359375,118.65234375,93.26171875
1771545689.5545626,103.02734375,36.62109375,-8.30078125,117.67578125,81.0546875
1771545689.5584688,82.03125,39.0625,14.6484375,70.80078125,41.50390625
1771545689.562375,93.26171875,44.921875,12.6953125,61.03515625,52.734375
1771545689.5662813,114.2578125,44.921875,0.48828125,104.4921875,57.12890625
1771545689.5701876,114.2578125,44.921875,3.90625,119.62890625,31.73828125
1771545689.5740938,89.35546875,43.9453125,11.71875,83.0078125,-29.78515625
1771545689.575125,82.03125,41.9921875,10.25390625,60.546875,-24.4140625
1771545689.5790312,100.5859375,40.0390625,3.41796875,99.609375,21.484375
1771545689.5829375,110.3515625,40.52734375,1.953125,126.46484375,-4.39453125
1771545689.5868437,97.16796875,39.0625,8.7890625,97.65625,-28.3203125
1771545689.59075,91.30859375,39.55078125,13.671875,65.4296875,34.66796875
1771545689.5946562,112.79296875,41.9921875,-0.48828125,83.0078125,40.52734375
1771545689.5985625,104.98046875,38.0859375,0.48828125,110.3515625,-4.8828125
1771545689.6024687,94.7265625,36.62109375,17.08984375,98.6328125,30.2734375
1771545689.606375,88.37890625,37.59765625,13.671875,63.96484375,19.04296875
1771545689.6102812,91.30859375,35.15625,-11.71875,64.94140625,-28.80859375
1771545689.6141875,96.6796875,31.25,-9.765625,100.5859375,21.97265625
1771545689.6180937,89.35546875,32.71484375,13.671875,98.14453125,76.66015625
1771545689.620125,71.2890625,39.55078125,11.71875,56.15234375,66.89453125
1771545689.6240313,62.5,39.0625,5.859375,44.43359375,32.71484375
1771545689.6279376,86.9140625,31.25,10.25390625,83.49609375,62.5
1771545689.6318438,101.5625,35.15625,13.671875,110.83984375,80.078125
1771545689.63575,76.66015625,46.875,6.34765625,64.453125,75.1953125
1771545689.6396563,54.6875,54.19921875,-6.8359375,20.99609375,70.80078125
1771545689.6435626,74.21875,55.17578125,-14.16015625,49.31640625,5.37109375
1771545689.6474688,84.47265625,53.7109375,-3.41796875,84.47265625,10.25390625
1771545689.651375,68.359375,58.59375,-9.27734375,52.734375,13.18359375
1771545689.6552813,52.24609375,60.05859375,-14.16015625,2.44140625,24.90234375
1771545689.6591876,62.98828125,55.17578125,-8.7890625,20.01953125,51.26953125
1771545689.6630938,76.171875,49.8046875,-12.6953125,64.453125,32.71484375
1771545689.665125,71.77734375,45.41015625,-11.23046875,70.80078125,52.734375
1771545689.6690311,50.78125,47.36328125,-4.8828125,18.06640625,21.484375
1771545689.6729374,59.08203125,54.19921875,0.48828125,19.04296875,3.90625
1771545689.6768436,80.078125,53.22265625,-7.32421875,69.82421875,31.73828125
1771545689.68075,70.3125,49.31640625,-3.41796875,73.73046875,20.5078125
1771545689.6846561,54.6875,49.8046875,3.90625,36.1328125,39.0625
1771545689.6885624,52.734375,50.29296875,3.41796875,14.16015625,73.73046875
1771545689.6924686,61.5234375,50.29296875,0.0,44.43359375,64.94140625
1771545689.696375,80.078125,52.24609375,-12.6953125,76.171875,75.1953125
1771545689.7002811,62.01171875,48.33984375,-2.44140625,48.33984375,72.75390625
1771545689.7041874,37.59765625,46.875,19.53125,17.08984375,62.01171875
1771545689.7080936,61.03515625,50.29296875,5.37109375,57.12890625,60.546875
1771545689.710125,69.3359375,46.38671875,0.48828125,88.37890625,65.4296875
1771545689.7140312,55.6640625,43.9453125,17.08984375,61.5234375,41.50390625
1771545689.7179375,38.0859375,48.33984375,19.53125,22.4609375,48.828125
1771545689.7218437,48.828125,48.828125,2.44140625,31.73828125,67.87109375
1771545689.72575,77.63671875,47.8515625,-2.9296875,71.2890625,39.0625
1771545689.7296562,65.91796875,47.36328125,4.39453125,72.75390625,41.50390625
1771545689.7335625,50.78125,48.33984375,12.6953125,27.83203125,0.0
1771545689.7374687,62.01171875,52.24609375,5.37109375,28.80859375,-15.625
1771545689.741375,69.3359375,48.828125,-8.7890625,66.89453125,22.94921875
1771545689.7452812,66.89453125,47.36328125,8.30078125,73.73046875,82.03125
1771545689.7491875,62.98828125,49.31640625,14.16015625,40.52734375,87.890625
1771545689.7530937,62.98828125,48.828125,2.44140625,15.625,67.87109375
1771545689.755125,63.96484375,46.875,-0.9765625,47.36328125,63.4765625
1771545689.7590313,60.546875,47.36328125,5.859375,69.82421875,44.43359375
1771545689.7629375,59.08203125,47.8515625,10.7421875,41.50390625,55.6640625
1771545689.7668438,44.43359375,48.828125,7.8125,11.71875,46.38671875
1771545689.77075,47.8515625,47.36328125,0.0,30.2734375,-0.9765625
1771545689.7746563,61.5234375,45.8984375,-4.39453125,65.4296875,11.23046875
1771545689.7785625,54.19921875,46.875,-1.46484375,49.31640625,37.59765625
1771545689.7824688,38.0859375,49.31640625,-3.41796875,6.34765625,53.7109375
1771545689.786375,36.62109375,49.31640625,-6.34765625,16.11328125,66.89453125
1771545689.7902813,56.15234375,50.78125,0.0,57.12890625,42.48046875
1771545689.7941875,60.546875,51.26953125,1.46484375,57.6171875,3.90625
1771545689.7980938,31.73828125,51.26953125,9.765625,4.39453125,26.85546875
1771545689.802125,34.66796875,54.19921875,13.671875,4.39453125,81.54296875
1771545689.8060312,60.546875,50.78125,2.9296875,55.6640625,20.01953125
1771545689.8099375,75.68359375,43.9453125,4.39453125,77.1484375,47.36328125
1771545689.8138437,53.7109375,46.38671875,15.13671875,51.7578125,96.19140625
1771545689.81775,22.4609375,55.6640625,13.671875,16.11328125,37.59765625
1771545689.8216562,46.38671875,54.19921875,3.90625,43.45703125,26.3671875
1771545689.8255625,68.359375,47.36328125,5.37109375,86.42578125,33.69140625
1771545689.8294687,59.08203125,48.828125,9.765625,56.640625,-0.9765625
1771545689.833375,50.29296875,58.59375,15.13671875,20.5078125,20.99609375
1771545689.8372812,77.1484375,64.453125,8.7890625,50.29296875,83.0078125
1771545689.8411875,94.7265625,56.15234375,3.41796875,88.37890625,27.34375
1771545689.8450937,70.3125,51.26953125,13.671875,81.54296875,28.3203125
1771545689.845125,60.05859375,57.12890625,16.6015625,29.296875,62.98828125
1771545689.8490312,70.80078125,62.98828125,6.34765625,46.38671875,41.015625
1771545689.8529375,75.1953125,57.6171875,2.44140625,90.8203125,30.2734375
1771545689.8568437,77.63671875,47.8515625,5.37109375,93.75,35.15625
1771545689.86075,68.84765625,48.828125,13.671875,51.26953125,88.8671875
1771545689.8646562,56.640625,49.8046875,3.90625,32.71484375,49.8046875
1771545689.8685625,74.70703125,48.33984375,-12.20703125,72.75390625,70.3125
1771545689.8724687,89.84375,47.36328125,-4.39453125,88.8671875,58.59375
1771545689.876375,64.453125,48.828125,17.08984375,53.7109375,-48.33984375
1771545689.8802812,54.6875,54.19921875,19.53125,26.3671875,-3.90625
1771545689.8841875,73.73046875,53.7109375,9.27734375,50.29296875,34.66796875
1771545689.8880937,90.8203125,53.22265625,8.7890625,85.9375,6.34765625
1771545689.890125,79.58984375,55.6640625,15.13671875,67.3828125,35.64453125
1771545689.8940313,67.87109375,55.6640625,10.7421875,27.83203125,55.17578125
1771545689.8979375,66.89453125,53.7109375,2.44140625,41.50390625,67.87109375
1771545689.9018438,67.3828125,52.24609375,1.953125,80.56640625,27.83203125
1771545689.90575,69.3359375,53.7109375,8.30078125,81.0546875,-31.73828125
1771545689.9096563,54.6875,49.8046875,8.7890625,34.1796875,21.97265625
1771545689.9135625,60.546875,47.36328125,-11.71875,20.99609375,4.39453125
1771545689.9174688,71.2890625,50.29296875,-5.37109375,61.5234375,-17.578125
1771545689.921375,64.453125,49.8046875,14.16015625,79.58984375,36.62109375
1771545689.9252813,52.734375,50.29296875,14.6484375,37.59765625,64.453125
1771545689.9291875,43.9453125,51.7578125,10.7421875,20.01953125,83.0078125
1771545689.9330938,62.01171875,52.24609375,5.859375,51.26953125,73.2421875
1771545689.950125,71.2890625,53.22265625,5.859375,72.265625,73.2421875
1771545689.9540312,59.5703125,54.19921875,12.6953125,49.31640625,122.0703125
1771545689.9579375,52.734375,55.6640625,16.11328125,20.5078125,104.98046875
1771545689.9618437,63.4765625,57.12890625,7.8125,41.9921875,-0.9765625
1771545689.96575,71.77734375,55.6640625,7.8125,79.1015625,-2.9296875
1771545689.9696562,64.94140625,54.19921875,11.71875,58.59375,16.11328125
1771545689.9735625,45.41015625,55.17578125,19.53125,13.18359375,37.109375
1771545689.9774687,51.26953125,60.05859375,19.04296875,25.390625,70.3125
1771545689.981375,68.84765625,57.12890625,6.34765625,63.96484375,7.8125
1771545689.9852812,55.6640625,50.78125,4.8828125,66.40625,43.9453125
1771545689.9891875,35.15625,51.7578125,15.625,14.16015625,85.9375
1771545689.9930937,39.0625,55.17578125,19.53125,6.34765625,33.203125
1771545689.996125,61.5234375,56.15234375,7.8125,57.6171875,-0.48828125
1771545690.0000312,75.1953125,53.22265625,12.6953125,71.2890625,13.671875
1771545690.0039375,45.41015625,51.26953125,26.3671875,35.64453125,14.6484375
1771545690.0078437,27.83203125,59.08203125,20.99609375,18.06640625,15.13671875
1771545690.01175,52.734375,61.03515625,6.34765625,59.08203125,38.57421875
1771545690.0156562,54.6875,53.22265625,4.39453125,87.40234375,67.87109375
1771545690.0195625,41.9921875,50.78125,15.625,51.7578125,55.17578125
1771545690.0234687,33.203125,55.6640625,22.4609375,25.87890625,42.96875
