timestamps,TP9,AF7,AF8,TP10,Right AUX
1771543735.782125,101.5625,204.58984375,991.2109375,12.6953125,-6.8359375
1771543735.7860312,91.30859375,214.84375,-992.1875,0.9765625,-12.20703125
1771543735.7899375,62.98828125,226.5625,808.10546875,-21.484375,11.71875
1771543735.7938437,77.1484375,217.28515625,418.45703125,-5.37109375,50.78125
1771543735.79775,77.63671875,222.16796875,-41.50390625,-3.90625,45.41015625
1771543735.8016562,79.58984375,241.69921875,-631.34765625,-17.578125,18.06640625
1771543735.8055625,87.40234375,237.3046875,-952.1484375,-11.71875,26.85546875
1771543735.8094687,75.1953125,219.23828125,-962.40234375,-14.16015625,20.01953125
1771543735.813375,81.0546875,237.79296875,-965.33203125,-0.9765625,46.38671875
1771543735.8172812,92.7734375,246.09375,-971.6796875,0.0,71.77734375
1771543735.8211875,88.8671875,237.3046875,-970.21484375,-7.8125,18.5546875
1771543735.8250937,65.91796875,245.1171875,-970.21484375,-16.11328125,8.30078125
1771543735.827125,66.89453125,262.6953125,-970.21484375,-22.94921875,63.96484375
1771543735.8310313,90.8203125,283.203125,-970.21484375,1.953125,60.546875
1771543735.8349376,97.16796875,301.26953125,-970.21484375,16.11328125,-31.73828125
1771543735.8388438,79.58984375,309.5703125,-970.21484375,-4.39453125,-25.390625
1771543735.84275,55.6640625,304.19921875,-970.21484375,-23.92578125,8.7890625
1771543735.8466563,62.98828125,308.59375,-970.21484375,-12.20703125,-12.6953125
1771543735.8505626,66.89453125,322.75390625,-970.21484375,-12.20703125,20.99609375
1771543735.8544688,37.109375,350.5859375,-970.21484375,-39.0625,18.06640625
1771543735.858375,25.87890625,362.79296875,-970.21484375,-46.38671875,25.390625
1771543735.8622813,35.15625,368.1640625,-970.21484375,-40.52734375,50.29296875
1771543735.8661876,23.4375,384.27734375,-970.21484375,-45.8984375,86.42578125
1771543735.8700938,-0.48828125,380.859375,-970.21484375,-63.96484375,61.5234375
1771543735.902125,0.9765625,386.23046875,-970.21484375,-72.75390625,18.5546875
1771543735.9060311,9.765625,418.9453125,-970.21484375,-55.17578125,63.96484375
1771543735.9099374,-3.90625,420.8984375,-970.21484375,-57.6171875,44.921875
1771543735.9138436,-37.109375,428.22265625,-970.21484375,-101.07421875,-13.18359375
1771543735.91775,-43.9453125,477.5390625,-970.21484375,-103.02734375,27.83203125
1771543735.9216561,-27.34375,495.60546875,-970.21484375,-84.47265625,77.1484375
1771543735.9255624,-20.5078125,516.11328125,-970.21484375,-97.65625,79.1015625
1771543735.9294686,-36.1328125,549.31640625,-970.21484375,-119.140625,41.9921875
1771543735.933375,-39.55078125,551.26953125,-970.21484375,-99.12109375,40.0390625
1771543735.9372811,-67.3828125,526.85546875,-970.21484375,-118.65234375,8.7890625
1771543735.9411874,-81.0546875,565.4296875,-970.21484375,-126.953125,12.6953125
1771543735.9450936,-58.59375,629.8828125,-968.75,-113.28125,37.59765625
1771543735.946125,-97.65625,637.6953125,-971.19140625,-151.3671875,29.78515625
1771543735.9500313,-76.171875,661.62109375,-971.19140625,-125.9765625,36.62109375
1771543735.9539375,-49.31640625,689.94140625,-935.546875,-103.02734375,23.4375
1771543735.9578438,-85.9375,732.421875,-950.1953125,-130.37109375,-9.765625
1771543735.96175,-88.8671875,765.625,-975.5859375,-147.94921875,-26.3671875
1771543735.9656563,-83.984375,767.578125,-968.26171875,-135.7421875,10.25390625
1771543735.9695625,-79.58984375,800.29296875,-970.703125,-123.046875,39.55078125
1771543735.9734688,-94.23828125,802.734375,-970.21484375,-139.6484375,-11.23046875
1771543735.977375,-99.12109375,772.4609375,-970.21484375,-140.13671875,-21.97265625
1771543735.9812813,-92.7734375,771.484375,-970.21484375,-126.46484375,7.32421875
1771543735.9851875,-100.09765625,771.484375,-970.21484375,-144.53125,41.015625
1771543735.9890938,-84.47265625,774.4140625,-970.21484375,-129.8828125,59.5703125
1771543735.977125,-66.89453125,767.578125,-970.21484375,-97.16796875,29.296875
1771543735.9810312,-70.80078125,753.90625,-970.21484375,-121.09375,13.18359375
1771543735.9849374,-84.9609375,765.625,-970.21484375,-138.18359375,21.97265625
1771543735.9888437,-82.03125,765.13671875,-970.21484375,-108.3984375,49.31640625
1771543735.99275,-68.359375,770.01953125,-970.21484375,-90.33203125,46.875
1771543735.9966562,-64.94140625,790.52734375,-970.21484375,-89.84375,53.22265625
1771543736.0005624,-80.078125,788.0859375,-970.21484375,-99.12109375,62.01171875
1771543736.0044687,-70.80078125,785.15625,-970.21484375,-99.609375,42.96875
1771543736.008375,-61.03515625,791.9921875,-970.21484375,-79.58984375,71.77734375
1771543736.0122812,-80.078125,841.30859375,-970.21484375,-89.35546875,101.07421875
1771543736.0161874,-72.265625,916.9921875,-970.21484375,-92.7734375,67.87109375
1771543736.0200937,-77.1484375,924.8046875,-970.21484375,-107.91015625,68.359375
1771543736.022125,-30.76171875,933.59375,-970.21484375,-79.58984375,48.33984375
1771543736.0260313,-25.87890625,945.3125,-970.21484375,-59.5703125,-7.8125
1771543736.0299375,-112.3046875,965.33203125,-970.21484375,-123.046875,26.3671875
1771543736.0338438,-108.3984375,-999.51171875,-970.21484375,-130.859375,13.671875
1771543736.03775,-85.9375,999.51171875,-970.21484375,-96.19140625,3.90625
1771543736.0416563,-101.07421875,998.53515625,-970.21484375,-110.3515625,50.29296875
1771543736.0455625,-106.93359375,999.51171875,-970.21484375,-127.44140625,6.8359375
1771543736.0494688,-119.62890625,999.51171875,-970.21484375,-146.484375,-23.92578125
1771543736.053375,-119.62890625,999.51171875,-970.21484375,-159.66796875,7.8125
1771543736.0572813,-114.74609375,999.51171875,-970.21484375,-156.73828125,73.73046875
1771543736.0611875,-139.6484375,999.51171875,-970.21484375,-167.96875,66.89453125
1771543736.0650938,-175.29296875,999.51171875,-970.21484375,-197.75390625,33.203125
1771543736.067125,-155.2734375,999.51171875,-970.21484375,-197.265625,73.73046875
1771543736.0710313,-148.92578125,999.51171875,-970.21484375,-193.84765625,25.87890625
1771543736.0749376,-176.26953125,999.51171875,-970.21484375,-209.9609375,23.92578125
1771543736.0788438,-177.734375,999.51171875,-970.21484375,-216.30859375,51.26953125
1771543736.08275,-182.6171875,999.51171875,-970.21484375,-229.4921875,60.546875
1771543736.0866563,-187.01171875,999.51171875,-970.21484375,-220.21484375,41.50390625
1771543736.0905626,-180.6640625,999.51171875,-970.21484375,-212.890625,15.13671875
1771543736.0944688,-226.07421875,999.51171875,-970.21484375,-278.3203125,91.796875
1771543736.098375,-230.46875,999.51171875,-970.21484375,-291.015625,61.5234375
1771543736.1022813,-208.984375,999.51171875,-970.21484375,-247.55859375,16.11328125
1771543736.1061876,-210.9375,999.51171875,-970.21484375,-250.48828125,42.48046875
1771543736.1100938,-207.51953125,999.51171875,-970.21484375,-255.859375,9.27734375
1771543736.111125,-242.67578125,999.51171875,-970.21484375,-290.52734375,-12.20703125
1771543736.1150312,-241.69921875,999.51171875,-970.21484375,-305.6640625,-25.87890625
1771543736.1189375,-232.91015625,999.51171875,-970.21484375,-307.6171875,22.94921875
1771543736.1228437,-271.97265625,999.51171875,-970.21484375,-321.2890625,19.53125
1771543736.12675,-286.62109375,999.51171875,-970.21484375,-318.84765625,9.765625
1771543736.1306562,-232.421875,999.51171875,-970.21484375,-285.64453125,53.7109375
1771543736.1345625,-200.68359375,999.51171875,-970.21484375,-272.4609375,1.953125
1771543736.1384687,-228.515625,999.51171875,-970.21484375,-303.7109375,13.18359375
1771543736.142375,-266.6015625,999.51171875,-970.21484375,-325.1953125,6.8359375
1771543736.1462812,-283.203125,999.51171875,-970.703125,-343.26171875,-35.15625
1771543736.1501875,-271.484375,999.51171875,-966.30859375,-344.7265625,18.06640625
1771543736.1540937,-252.44140625,999.51171875,-973.14453125,-329.58984375,39.0625
1771543736.156125,-293.9453125,999.51171875,-958.49609375,-365.72265625,52.24609375
1771543736.1600313,-320.80078125,999.51171875,-787.109375,-383.30078125,65.4296875
1771543736.1639376,-275.390625,999.51171875,-802.734375,-350.5859375,67.87109375
1771543736.1678438,-256.8359375,999.51171875,-800.78125,-327.1484375,89.35546875
1771543736.17175,-290.0390625,999.51171875,-575.68359375,-346.6796875,61.03515625
1771543736.1756563,-301.26953125,999.51171875,-422.36328125,-372.55859375,33.203125
1771543736.1795626,-294.43359375,999.51171875,-435.546875,-365.72265625,17.08984375
1771543736.1834688,-293.45703125,999.51171875,-345.21484375,-372.0703125,13.671875
1771543736.187375,-324.70703125,999.51171875,61.03515625,-401.85546875,31.25
1771543736.1912813,-342.7734375,999.51171875,262.6953125,-407.2265625,81.54296875
1771543736.1951876,-336.9140625,999.51171875,279.296875,-398.4375,29.296875
1771543736.1990938,-376.953125,999.51171875,356.4453125,-443.359375,14.6484375
1771543736.202125,-405.76171875,999.51171875,385.7421875,-485.83984375,84.47265625
1771543736.2060313,-458.49609375,999.51171875,290.0390625,-531.25,64.453125
1771543736.2099376,-475.5859375,999.51171875,385.25390625,-557.12890625,52.24609375
1771543736.2138438,-475.5859375,999.51171875,592.28515625,-556.640625,64.94140625
1771543736.21775,-516.6015625,999.51171875,571.2890625,-590.8203125,38.0859375
1771543736.2216563,-556.640625,999.51171875,347.65625,-625.48828125,29.296875
1771543736.2255626,-565.91796875,999.0234375,112.3046875,-629.8828125,11.23046875
1771543736.2294688,-541.50390625,997.55859375,392.08984375,-629.39453125,59.5703125
1771543736.233375,-540.52734375,999.51171875,680.6640625,-619.62890625,106.4453125
1771543736.2372813,-587.40234375,955.078125,514.6484375,-655.76171875,42.96875
1771543736.2411876,-625.0,847.65625,594.23828125,-704.58984375,62.01171875
1771543736.2450938,-593.75,692.87109375,798.828125,-687.98828125,50.29296875
1771543736.262125,-556.640625,600.5859375,716.796875,-664.0625,-11.71875
1771543736.2660313,-568.84765625,585.44921875,566.89453125,-662.109375,12.20703125
1771543736.2699375,-562.5,500.48828125,594.7265625,-641.11328125,39.0625
1771543736.2738438,-544.921875,369.62890625,607.91015625,-630.37109375,-9.27734375
1771543736.27775,-564.94140625,247.55859375,639.16015625,-665.52734375,9.27734375
1771543736.2816563,-529.296875,131.34765625,376.46484375,-641.11328125,28.80859375
1771543736.2855625,-509.27734375,32.2265625,208.984375,-624.0234375,80.078125
1771543736.2894688,-574.21875,-113.28125,673.33984375,-676.7578125,99.609375
1771543736.293375,-559.08203125,-245.60546875,791.50390625,-639.6484375,52.734375
1771543736.2972813,-498.53515625,-330.078125,585.44921875,-561.03515625,20.5078125
1771543736.3011875,-534.1796875,-458.0078125,583.984375,-583.0078125,11.71875
1771543736.3050938,-507.8125,-537.59765625,783.203125,-563.96484375,54.19921875
1771543736.306125,-464.35546875,-580.56640625,750.0,-520.5078125,52.734375
1771543736.3100312,-464.84375,-652.83203125,541.015625,-516.11328125,37.59765625
1771543736.3139374,-462.40234375,-663.57421875,514.6484375,-515.13671875,29.296875
1771543736.3178437,-453.125,-687.01171875,633.30078125,-524.4140625,29.78515625
1771543736.32175,-418.45703125,-776.3671875,685.05859375,-508.30078125,62.01171875
1771543736.3256562,-412.59765625,-857.421875,525.390625,-482.91015625,99.609375
1771543736.3295624,-413.0859375,-855.46875,372.0703125,-482.91015625,70.3125
1771543736.3334687,-416.015625,-800.78125,467.7734375,-488.76953125,39.0625
1771543736.337375,-376.953125,-722.16796875,549.8046875,-440.4296875,13.671875
1771543736.3412812,-329.58984375,-636.23046875,226.07421875,-402.34375,57.6171875
1771543736.3451874,-330.56640625,-561.03515625,263.18359375,-395.5078125,83.49609375
1771543736.3490937,-313.96484375,-458.984375,594.23828125,-389.16015625,90.33203125
1771543736.352125,-304.6875,-402.34375,669.921875,-381.34765625,93.26171875
1771543736.3560312,-311.5234375,-389.16015625,636.71875,-365.234375,22.4609375
1771543736.3599374,-297.36328125,-347.65625,647.94921875,-361.328125,91.30859375
1771543736.3638437,-294.43359375,-287.109375,591.796875,-346.19140625,94.7265625
1771543736.36775,-314.453125,-285.15625,565.91796875,-361.81640625,22.94921875
1771543736.3716562,-268.06640625,-259.27734375,553.7109375,-331.54296875,38.0859375
1771543736.3755624,-268.06640625,-201.171875,441.89453125,-329.1015625,71.77734375
1771543736.3794687,-285.15625,-222.65625,372.0703125,-322.75390625,40.52734375
1771543736.383375,-251.953125,-273.92578125,178.7109375,-287.109375,5.37109375
1771543736.3872812,-233.3984375,-251.46484375,157.2265625,-298.33984375,7.8125
1771543736.3911874,-221.6796875,-182.12890625,434.5703125,-301.26953125,23.92578125
1771543736.3950937,-217.28515625,-197.265625,368.65234375,-272.4609375,59.08203125
1771543736.397125,-245.1171875,-243.65234375,246.58203125,-292.96875,47.8515625
1771543736.4010313,-239.2578125,-257.32421875,400.87890625,-302.734375,26.85546875
1771543736.4049375,-186.03515625,-280.2734375,441.40625,-264.6484375,40.0390625
1771543736.4088438,-213.37890625,-314.94140625,209.9609375,-286.62109375,39.55078125
1771543736.41275,-216.30859375,-359.375,70.80078125,-289.0625,11.71875
1771543736.4166563,-193.84765625,-414.0625,88.8671875,-268.5546875,-20.5078125
1771543736.4205625,-170.41015625,-411.1328125,86.42578125,-234.375,-57.6171875
1771543736.4244688,-141.6015625,-402.83203125,6.34765625,-211.42578125,-1.46484375
1771543736.428375,-141.6015625,-425.78125,-252.44140625,-211.42578125,13.671875
1771543736.4322813,-141.6015625,-389.6484375,-16.6015625,-200.1953125,-30.76171875
1771543736.4361875,-140.625,-341.796875,276.3671875,-193.84765625,26.85546875
1771543736.4400938,-131.8359375,-342.7734375,37.59765625,-179.19921875,40.52734375
1771543736.442125,-127.44140625,-331.54296875,-127.9296875,-175.29296875,-36.62109375
1771543736.4460313,-118.65234375,-297.36328125,150.390625,-165.52734375,0.48828125
1771543736.4499376,-131.34765625,-309.08203125,324.21875,-174.8046875,52.734375
1771543736.4538438,-144.53125,-317.3828125,140.625,-183.59375,9.765625
1771543736.45775,-131.34765625,-304.6875,45.8984375,-178.22265625,64.453125
1771543736.4616563,-137.20703125,-288.57421875,20.99609375,-191.40625,43.9453125
1771543736.4655626,-115.72265625,-290.52734375,7.8125,-174.31640625,9.765625
1771543736.4694688,-123.046875,-322.75390625,-187.98828125,-181.15234375,47.36328125
1771543736.473375,-151.85546875,-284.66796875,-269.53125,-177.24609375,71.2890625
1771543736.4772813,-139.6484375,-252.44140625,-97.16796875,-158.203125,36.1328125
1771543736.4811876,-124.51171875,-271.484375,4.39453125,-154.78515625,18.06640625
1771543736.4850938,-122.0703125,-270.99609375,-71.2890625,-159.66796875,56.15234375
1771543736.488125,-130.859375,-256.34765625,-202.1484375,-180.6640625,32.71484375
1771543736.4920313,-116.2109375,-264.16015625,-95.703125,-171.38671875,-0.9765625
1771543736.4959376,-103.515625,-293.45703125,34.66796875,-167.96875,3.90625
1771543736.4998438,-85.9375,-291.50390625,81.54296875,-146.484375,33.203125
1771543736.50375,-86.42578125,-281.73828125,130.37109375,-138.671875,19.04296875
1771543736.5076563,-102.05078125,-264.16015625,58.59375,-153.3203125,58.10546875
1771543736.5115626,-72.265625,-276.85546875,-50.29296875,-152.34375,41.015625
1771543736.5154688,-30.76171875,-286.62109375,-62.01171875,-126.953125,23.4375
1771543736.519375,-56.15234375,-256.34765625,130.859375,-118.1640625,59.5703125
1771543736.5232813,-69.3359375,-244.140625,203.61328125,-121.58203125,70.80078125
1771543736.5271876,-38.57421875,-265.13671875,97.16796875,-104.4921875,66.89453125
1771543736.5310938,-40.52734375,-286.62109375,145.5078125,-87.890625,-0.48828125
1771543736.532125,-27.83203125,-255.37109375,184.08203125,-78.125,-28.3203125
1771543736.5360312,-43.9453125,-261.71875,78.125,-83.49609375,11.23046875
1771543736.5399375,-43.45703125,-279.78515625,-92.7734375,-73.73046875,41.50390625
1771543736.5438437,-14.6484375,-271.484375,-93.26171875,-73.2421875,-7.8125
1771543736.54775,-39.0625,-264.16015625,147.4609375,-70.80078125,1.46484375
1771543736.5516562,-47.36328125,-291.015625,41.50390625,-51.7578125,8.30078125
1771543736.5555625,-47.36328125,-370.60546875,-290.0390625,-59.5703125,-11.71875
1771543736.5594687,-36.1328125,-362.79296875,-209.9609375,-63.96484375,48.828125
1771543736.563375,-8.30078125,-298.33984375,321.77734375,-52.24609375,84.47265625
1771543736.5672812,-3.41796875,-325.1953125,427.734375,-41.50390625,76.66015625
1771543736.5711875,1.953125,-331.54296875,194.82421875,-38.0859375,35.64453125
1771543736.5750937,-29.296875,-298.33984375,259.765625,-62.01171875,55.6640625
1771543736.577125,-55.17578125,-284.66796875,487.3046875,-66.40625,58.59375
1771543736.5810313,-25.87890625,-281.73828125,413.0859375,-61.03515625,50.29296875
1771543736.5849376,2.44140625,-285.15625,167.48046875,-65.4296875,19.04296875
1771543736.5888438,-16.11328125,-268.06640625,174.31640625,-65.91796875,-20.5078125
1771543736.59275,-30.2734375,-238.76953125,392.578125,-68.359375,48.33984375
1771543736.5966563,-12.6953125,-274.90234375,297.36328125,-72.265625,74.21875
1771543736.6005626,15.13671875,-337.890625,-268.5546875,-66.89453125,33.69140625
1771543736.6044688,31.73828125,-296.38671875,-304.19921875,-38.0859375,-10.7421875
1771543736.608375,-13.18359375,-242.1875,168.45703125,-47.8515625,4.8828125
1771543736.6122813,-77.63671875,-247.55859375,203.125,-100.09765625,41.9921875
1771543736.6161876,-52.24609375,-242.1875,79.58984375,-62.01171875,64.94140625
1771543736.6200938,-18.06640625,-207.03125,62.98828125,-19.04296875,45.41015625
1771543736.651125,-25.87890625,-184.08203125,153.3203125,-20.99609375,49.31640625
1771543736.6550312,-10.7421875,-143.5546875,214.84375,-7.8125,79.1015625
1771543736.6589375,-20.01953125,-129.8828125,85.9375,-34.1796875,52.734375
1771543736.6628437,-34.1796875,-108.88671875,-42.96875,-50.29296875,-4.8828125
1771543736.66675,-32.71484375,-97.65625,-12.20703125,-38.57421875,-23.4375
1771543736.6706562,-38.0859375,-115.72265625,46.875,-51.7578125,33.69140625
1771543736.6745625,-47.36328125,-89.84375,20.01953125,-80.56640625,37.59765625
1771543736.6784687,-77.63671875,-92.28515625,-51.26953125,-98.6328125,40.0390625
1771543736.682375,-82.03125,-111.81640625,-88.37890625,-97.16796875,30.2734375
1771543736.6862812,-10.25390625,-75.68359375,-154.296875,-52.24609375,20.01953125
1771543736.6901875,-19.04296875,-52.734375,-159.66796875,-65.91796875,59.5703125
1771543736.6940937,-65.4296875,-82.51953125,29.78515625,-96.19140625,65.4296875
1771543736.681125,-35.64453125,-109.375,-40.0390625,-54.6875,71.2890625
1771543736.6850312,-62.5,-132.32421875,-25.390625,-87.40234375,45.8984375
1771543736.6889374,-84.47265625,-133.7890625,152.34375,-114.2578125,44.921875
1771543736.6928437,-8.7890625,-107.91015625,118.1640625,-46.875,58.59375
1771543736.69675,-2.44140625,-100.5859375,-96.19140625,-51.7578125,32.71484375
1771543736.7006562,-46.38671875,-94.23828125,-189.94140625,-82.51953125,24.90234375
1771543736.7045624,-38.57421875,-39.55078125,24.90234375,-79.1015625,60.546875
1771543736.7084687,-1.953125,-51.26953125,108.3984375,-42.96875,43.45703125
1771543736.712375,11.23046875,-97.16796875,-101.07421875,-21.484375,50.29296875
1771543736.7162812,-17.578125,-62.98828125,-152.83203125,-44.43359375,59.08203125
1771543736.7201874,-15.625,-10.7421875,79.58984375,-34.1796875,34.66796875
1771543736.7240937,20.99609375,-10.7421875,252.9296875,-14.6484375,61.03515625
1771543736.726125,2.44140625,-34.66796875,-28.3203125,-34.66796875,38.0859375
1771543736.7300313,-2.44140625,-26.3671875,-426.26953125,-41.50390625,-11.23046875
1771543736.7339375,-9.27734375,-13.671875,-41.50390625,-45.41015625,12.20703125
1771543736.7378438,0.48828125,-42.96875,296.38671875,-39.55078125,35.15625
1771543736.74175,20.01953125,-62.98828125,41.015625,-11.23046875,-0.48828125
1771543736.7456563,-19.53125,-82.51953125,-160.64453125,-22.94921875,5.859375
1771543736.7495625,-36.1328125,-48.33984375,-94.7265625,-43.45703125,22.4609375
1771543736.7534688,2.44140625,-36.1328125,87.890625,-20.01953125,5.859375
1771543736.757375,0.9765625,-104.00390625,-205.078125,-20.01953125,-14.6484375
1771543736.7612813,-34.1796875,-78.61328125,-437.01171875,-52.734375,-14.16015625
1771543736.7651875,-21.97265625,-51.7578125,-53.22265625,-30.76171875,30.2734375
1771543736.7690938,-20.99609375,-71.2890625,88.37890625,-46.38671875,43.45703125
1771543736.771125,-18.5546875,-92.7734375,-126.953125,-43.45703125,49.8046875
1771543736.7750313,-9.27734375,-83.0078125,-228.02734375,-27.34375,73.73046875
1771543736.7789376,19.04296875,-78.125,-88.37890625,-9.27734375,84.47265625
1771543736.7828438,36.1328125,-79.58984375,-92.7734375,5.37109375,43.45703125
1771543736.78675,0.48828125,-95.703125,-293.9453125,-37.109375,15.625
1771543736.7906563,-22.94921875,-101.5625,-449.70703125,-50.78125,46.38671875
1771543736.7945626,8.7890625,-64.94140625,-605.95703125,-27.83203125,-18.5546875
1771543736.7984688,8.7890625,-68.359375,-588.8671875,-25.87890625,-0.48828125
1771543736.802375,-10.25390625,-124.51171875,-642.08984375,-22.94921875,17.08984375
1771543736.8062813,-14.6484375,-106.93359375,-634.765625,-33.203125,-34.1796875
1771543736.8101876,1.46484375,-73.73046875,-546.38671875,-27.34375,15.625
1771543736.8140938,46.38671875,-70.80078125,-502.9296875,23.92578125,61.5234375
1771543736.816125,18.06640625,-54.19921875,-419.921875,-10.25390625,20.01953125
1771543736.8200312,10.7421875,-49.8046875,-370.1171875,-13.671875,35.15625
1771543736.8239374,18.5546875,-58.59375,-513.18359375,9.765625,103.02734375
1771543736.8278437,-17.08984375,-28.80859375,-711.42578125,-17.578125,38.57421875
1771543736.83175,-7.32421875,-2.44140625,-475.5859375,-12.20703125,16.11328125
1771543736.8356562,28.80859375,-47.36328125,-411.62109375,21.484375,53.7109375
1771543736.8395624,10.25390625,-61.03515625,-546.38671875,1.46484375,51.7578125
1771543736.8434687,6.8359375,-84.47265625,-704.58984375,-0.9765625,63.96484375
1771543736.847375,4.39453125,-59.08203125,-652.34375,-0.9765625,62.01171875
1771543736.8512812,-4.39453125,-41.015625,-334.47265625,-8.7890625,12.20703125
1771543736.8551874,37.109375,-63.4765625,-470.21484375,29.78515625,-1.46484375
1771543736.8590937,30.2734375,-34.1796875,-595.21484375,6.8359375,43.9453125
1771543736.862125,8.30078125,-48.828125,-448.2421875,-9.765625,23.92578125
1771543736.8660312,0.9765625,-73.2421875,-337.40234375,0.48828125,-3.90625
1771543736.8699374,14.6484375,-72.75390625,-526.85546875,17.578125,34.1796875
1771543736.8738437,-8.7890625,-102.05078125,-746.09375,-4.8828125,27.83203125
1771543736.87775,-9.765625,-89.35546875,-649.4140625,-1.46484375,-19.04296875
1771543736.8816562,7.32421875,-89.84375,-567.87109375,7.8125,14.16015625
1771543736.8855624,-5.859375,-155.2734375,-791.9921875,-18.06640625,18.5546875
1771543736.8894687,2.9296875,-181.15234375,-993.1640625,-6.8359375,-22.4609375
1771543736.893375,-19.04296875,-162.109375,-900.390625,-30.76171875,7.32421875
1771543736.8972812,-13.671875,-160.15625,-630.859375,-22.4609375,32.71484375
1771543736.9011874,2.44140625,-199.21875,-645.5078125,-15.13671875,33.203125
1771543736.9050937,-10.25390625,-188.4765625,-763.671875,-20.01953125,61.5234375
1771543736.907125,-45.8984375,-193.84765625,-692.3828125,-36.1328125,61.03515625
1771543736.9110312,-36.62109375,-243.65234375,-556.640625,-34.1796875,41.9921875
1771543736.9149375,6.34765625,-251.953125,-577.1484375,4.39453125,26.3671875
1771543736.9188437,-10.7421875,-237.79296875,-709.9609375,-18.5546875,22.4609375
1771543736.92275,-21.484375,-236.81640625,-711.9140625,-43.9453125,51.26953125
1771543736.9266562,-14.16015625,-245.1171875,-697.75390625,-20.01953125,38.0859375
1771543736.9305625,-3.90625,-247.0703125,-824.70703125,16.6015625,0.0
1771543736.9344687,-6.8359375,-244.140625,-976.07421875,1.46484375,-14.6484375
1771543736.938375,-48.33984375,-243.65234375,-849.609375,-51.26953125,-20.01953125
1771543736.9422812,-50.78125,-224.609375,-594.23828125,-49.8046875,41.9921875
1771543736.9461875,-6.8359375,-212.40234375,-508.7890625,-10.25390625,71.77734375
1771543736.9500937,-20.99609375,-210.9375,-499.51171875,-40.0390625,63.4765625
1771543736.951125,-52.734375,-208.49609375,-534.1796875,-63.4765625,31.25
1771543736.9550312,-14.16015625,-203.125,-606.93359375,-31.73828125,10.25390625
1771543736.9589374,-20.5078125,-214.35546875,-459.9609375,-52.24609375,69.82421875
1771543736.9628437,-37.59765625,-219.23828125,-331.54296875,-58.59375,94.23828125
1771543736.96675,-34.1796875,-185.05859375,-434.5703125,-60.05859375,57.12890625
1771543736.9706562,-43.45703125,-228.515625,-651.85546875,-58.59375,19.04296875
1771543736.9745624,0.9765625,-227.05078125,-763.18359375,0.48828125,7.8125
1771543736.9784687,-22.94921875,-134.27734375,-462.40234375,-23.92578125,16.11328125
1771543736.982375,-55.17578125,-146.484375,-359.86328125,-53.7109375,-4.8828125
1771543736.9862812,-78.125,-139.6484375,-555.6640625,-81.0546875,-5.859375
1771543736.9901874,-85.9375,-112.79296875,-466.796875,-90.8203125,44.921875
1771543736.9940937,-5.859375,-103.02734375,-244.140625,-11.23046875,46.875
1771543737.011125,-64.94140625,-120.60546875,-202.63671875,-48.33984375,61.03515625
1771543737.0150313,-88.8671875,-118.1640625,-440.91796875,-60.546875,94.23828125
1771543737.0189376,-23.4375,-46.38671875,-487.3046875,-22.94921875,43.45703125
1771543737.0228438,-80.078125,-11.23046875,-164.0625,-80.56640625,-6.34765625
1771543737.02675,-83.0078125,-57.12890625,-103.515625,-80.56640625,-8.7890625
1771543737.0306563,-16.11328125,-84.9609375,-441.40625,-18.06640625,24.4140625
1771543737.0345626,-36.62109375,-56.640625,-517.08984375,-45.41015625,30.2734375
1771543737.0384688,-44.921875,18.5546875,-117.1875,-53.7109375,4.8828125
1771543737.042375,-86.42578125,-0.9765625,-36.62109375,-79.58984375,14.6484375
1771543737.0462813,-112.79296875,-62.98828125,-367.1875,-81.54296875,40.52734375
1771543737.0501876,-72.75390625,-12.20703125,-424.8046875,-74.70703125,23.4375
1771543737.0540938,-78.125,17.578125,-65.91796875,-104.98046875,57.6171875
1771543737.056125,-69.3359375,-10.25390625,-107.91015625,-74.21875,41.015625
1771543737.0600312,-82.51953125,-15.625,-346.6796875,-83.49609375,18.06640625
1771543737.0639374,-72.265625,-21.97265625,-308.59375,-87.890625,10.7421875
1771543737.0678437,-56.15234375,-8.7890625,-99.609375,-76.66015625,16.11328125
1771543737.07175,-93.26171875,10.7421875,18.06640625,-98.6328125,72.265625
1771543737.0756562,-99.609375,-11.23046875,-214.35546875,-115.234375,35.64453125
1771543737.0795624,-159.66796875,-30.2734375,-360.83984375,-161.62109375,52.24609375
1771543737.0834687,-153.3203125,9.27734375,-156.73828125,-136.23046875,79.1015625
1771543737.087375,-43.9453125,47.36328125,-27.83203125,-34.66796875,64.453125
1771543737.0912812,-26.3671875,89.35546875,-265.625,-30.2734375,27.34375
1771543737.0951874,-82.51953125,128.90625,-194.82421875,-90.8203125,17.578125
1771543737.0990937,-75.1953125,128.41796875,13.18359375,-76.171875,50.78125
1771543737.102125,-87.40234375,153.80859375,73.73046875,-93.75,13.18359375
1771543737.1060312,-134.27734375,184.08203125,206.0546875,-143.5546875,23.92578125
1771543737.1099374,-103.515625,206.0546875,158.203125,-115.72265625,8.30078125
1771543737.1138437,-53.7109375,274.90234375,205.56640625,-56.15234375,14.16015625
1771543737.11775,-42.48046875,391.6015625,404.296875,-42.48046875,81.54296875
1771543737.1216562,-66.40625,479.4921875,494.140625,-83.0078125,89.84375
1771543737.1255624,-131.8359375,534.1796875,585.44921875,-145.01953125,89.84375
1771543737.1294687,-140.13671875,564.453125,681.640625,-142.578125,79.1015625
1771543737.133375,-62.01171875,546.875,549.31640625,-77.1484375,40.0390625
1771543737.1372812,-8.30078125,565.91796875,694.3359375,-31.25,60.546875
1771543737.1411874,-53.7109375,586.9140625,997.0703125,-80.56640625,19.53125
1771543737.1450937,-135.7421875,558.59375,865.234375,-161.1328125,10.25390625
1771543737.146125,-132.32421875,531.25,855.95703125,-164.0625,26.85546875
1771543737.1500313,-121.58203125,537.109375,988.76953125,-166.50390625,5.37109375
1771543737.1539376,-120.1171875,564.94140625,-989.2578125,-159.66796875,-29.296875
1771543737.1578438,-105.95703125,532.2265625,976.5625,-139.16015625,-30.2734375
1771543737.16175,-129.8828125,513.671875,932.6171875,-146.484375,58.59375
1771543737.1656563,-172.8515625,569.82421875,934.08203125,-170.41015625,58.10546875
1771543737.1695626,-158.203125,617.1875,996.09375,-184.08203125,19.04296875
1771543737.1734688,-114.74609375,639.16015625,923.33984375,-163.0859375,47.36328125
1771543737.177375,-160.15625,571.2890625,510.7421875,-189.94140625,35.15625
1771543737.1812813,-172.36328125,598.14453125,647.4609375,-203.125,-7.8125
1771543737.1851876,-85.9375,683.59375,-958.49609375,-115.72265625,45.41015625
1771543737.1890938,-86.42578125,707.51953125,923.828125,-123.046875,45.41015625
1771543737.192125,-168.9453125,767.08984375,828.125,-196.2890625,16.6015625
1771543737.1960313,-170.8984375,846.19140625,908.203125,-202.1484375,35.64453125
1771543737.1999376,-129.8828125,881.34765625,-993.1640625,-167.96875,-11.23046875
1771543737.2038438,-105.95703125,862.3046875,920.8984375,-119.62890625,-61.5234375
1771543737.20775,-73.2421875,890.625,799.31640625,-93.75,-1.953125
1771543737.2116563,-118.1640625,931.15234375,685.05859375,-156.73828125,11.71875
1771543737.2155626,-145.01953125,959.9609375,773.4375,-171.875,43.9453125
1771543737.2194688,-58.10546875,-997.55859375,641.11328125,-85.9375,36.1328125
1771543737.223375,-54.19921875,994.140625,294.43359375,-93.75,-59.5703125
1771543737.2272813,-40.52734375,-999.0234375,516.11328125,-83.49609375,-46.38671875
1771543737.2311876,-2.44140625,979.4921875,787.59765625,-54.19921875,36.62109375
1771543737.2350938,-41.50390625,955.56640625,805.17578125,-80.56640625,57.6171875
1771543737.237125,-81.54296875,991.69921875,716.30859375,-94.7265625,26.3671875
1771543737.2410312,-172.36328125,-1000.0,642.578125,-171.875,23.4375
1771543737.2449374,-97.16796875,999.51171875,698.73046875,-124.51171875,84.9609375
1771543737.2488437,-21.97265625,994.62890625,783.203125,-65.91796875,82.03125
1771543737.25275,-64.94140625,977.05078125,722.16796875,-88.37890625,43.9453125
1771543737.2566562,-45.41015625,991.69921875,419.43359375,-78.61328125,-4.39453125
1771543737.2605624,-34.66796875,982.421875,287.59765625,-72.265625,13.671875
1771543737.2644687,-63.96484375,963.8671875,358.88671875,-92.7734375,85.9375
1771543737.268375,-145.01953125,878.90625,503.41796875,-159.66796875,64.94140625
1771543737.2722812,-114.2578125,807.12890625,456.54296875,-135.7421875,20.01953125
1771543737.2761874,-57.12890625,868.65234375,250.9765625,-88.8671875,39.55078125
1771543737.2800937,-104.98046875,908.69140625,357.421875,-132.32421875,22.4609375
1771543737.282125,-104.98046875,911.62109375,589.35546875,-139.16015625,28.3203125
1771543737.2860312,-20.5078125,908.69140625,512.6953125,-33.69140625,33.69140625
1771543737.2899375,-29.78515625,927.734375,341.30859375,-46.875,-15.625
1771543737.2938437,-79.58984375,886.23046875,453.125,-110.3515625,10.7421875
1771543737.29775,-20.99609375,858.3984375,688.96484375,-44.921875,112.3046875
1771543737.3016562,-22.94921875,884.765625,500.48828125,-45.41015625,82.51953125
1771543737.3055625,-62.01171875,900.390625,44.921875,-67.87109375,5.37109375
1771543737.3094687,-81.54296875,946.77734375,145.5078125,-100.5859375,81.0546875
1771543737.313375,-62.98828125,983.88671875,628.41796875,-95.703125,86.42578125
1771543737.3172812,15.13671875,990.234375,557.6171875,3.41796875,10.25390625
1771543737.3211875,-33.69140625,941.89453125,375.48828125,-50.29296875,92.28515625
1771543737.3250937,-71.2890625,923.33984375,392.578125,-98.6328125,121.58203125
1771543737.327125,-15.13671875,981.93359375,461.9140625,-27.83203125,58.59375
1771543737.3310313,48.828125,-997.0703125,432.12890625,35.64453125,12.6953125
1771543737.3349376,33.203125,999.51171875,222.16796875,11.23046875,-3.90625
1771543737.3388438,-54.19921875,951.66015625,251.46484375,-85.9375,21.97265625
1771543737.34275,-41.50390625,968.26171875,490.234375,-69.3359375,37.109375
1771543737.3466563,-6.8359375,951.171875,420.8984375,-28.3203125,26.85546875
1771543737.3505626,-78.61328125,798.33984375,41.50390625,-98.14453125,27.34375
1771543737.3544688,-44.43359375,832.51953125,112.79296875,-71.2890625,34.1796875
1771543737.358375,31.73828125,885.25390625,448.73046875,2.9296875,30.76171875
1771543737.3622813,12.20703125,849.609375,420.8984375,1.46484375,-7.8125
1771543737.3661876,-72.265625,785.64453125,291.015625,-79.1015625,3.90625
1771543737.3700938,-91.796875,756.34765625,282.71484375,-94.23828125,16.11328125
1771543737.387125,5.37109375,777.34375,369.62890625,9.765625,8.30078125
1771543737.3910313,2.9296875,716.796875,465.33203125,4.8828125,22.94921875
1771543737.3949375,-32.2265625,659.1796875,350.5859375,-35.15625,53.7109375
1771543737.3988438,-7.8125,654.78515625,225.5859375,-15.13671875,33.203125
1771543737.40275,-14.6484375,618.1640625,293.9453125,-20.99609375,25.87890625
1771543737.4066563,7.8125,546.875,195.3125,9.27734375,33.69140625
1771543737.4105625,13.18359375,506.34765625,-20.01953125,8.7890625,25.87890625
1771543737.4144688,-10.7421875,495.1171875,160.15625,-24.90234375,38.0859375
1771543737.418375,-39.55078125,430.17578125,227.05078125,-53.7109375,24.90234375
1771543737.4222813,-8.30078125,410.64453125,279.78515625,-27.34375,31.73828125
1771543737.4261875,67.3828125,459.9609375,443.84765625,49.8046875,53.7109375
1771543737.4300938,30.76171875,403.3203125,322.265625,19.04296875,40.52734375
1771543737.435125,-48.828125,313.96484375,128.90625,-41.015625,29.296875
1771543737.4390314,-16.11328125,317.87109375,156.73828125,-16.11328125,32.2265625
1771543737.4429376,62.98828125,345.703125,375.48828125,41.9921875,40.0390625
1771543737.4468439,40.52734375,332.51953125,393.5546875,25.390625,54.19921875
1771543737.45075,-36.1328125,285.15625,121.09375,-39.0625,64.94140625
1771543737.4546564,-42.96875,294.43359375,-95.703125,-42.48046875,58.59375
1771543737.4585626,-9.765625,297.8515625,110.83984375,-31.73828125,62.01171875
1771543737.4624689,5.37109375,257.8125,279.78515625,-28.3203125,44.43359375
1771543737.466375,-3.41796875,208.0078125,29.78515625,-34.66796875,39.55078125
1771543737.4702814,-27.34375,158.203125,-285.15625,-57.6171875,30.2734375
1771543737.4741876,-41.50390625,200.68359375,74.21875,-42.48046875,54.6875
1771543737.4780939,-109.375,170.8984375,290.52734375,-109.86328125,51.26953125
1771543737.476125,-25.87890625,82.51953125,-1.953125,-41.50390625,4.39453125
1771543737.4800313,37.109375,63.4765625,-59.5703125,23.4375,33.203125
1771543737.4839375,3.41796875,39.55078125,94.7265625,-15.625,28.80859375
1771543737.4878438,11.71875,20.99609375,151.85546875,1.46484375,10.7421875
1771543737.49175,-39.0625,7.8125,-23.4375,-33.69140625,44.43359375
1771543737.4956563,-93.26171875,-29.296875,-254.8828125,-76.171875,53.7109375
1771543737.4995625,-26.85546875,7.8125,-292.48046875,-30.2734375,-5.859375
1771543737.5034688,-13.671875,41.015625,-109.375,-42.96875,-46.38671875
1771543737.507375,-2.44140625,-3.90625,-271.97265625,-14.16015625,-6.34765625
1771543737.5112813,50.78125,-24.90234375,-625.9765625,43.45703125,30.76171875
1771543737.5151875,0.9765625,-18.06640625,-304.19921875,0.0,51.7578125
1771543737.5190938,-38.0859375,-33.203125,-19.53125,-34.1796875,23.4375
1771543737.521125,-32.2265625,-75.68359375,-89.84375,-35.64453125,21.97265625
1771543737.5250313,-9.27734375,-7.32421875,-119.62890625,-23.4375,31.25
1771543737.5289376,-18.06640625,104.98046875,-58.10546875,-21.484375,58.10546875
1771543737.5328438,-11.23046875,109.375,-44.43359375,-16.11328125,23.4375
1771543737.53675,-25.87890625,59.5703125,-70.80078125,-44.921875,-13.671875
1771543737.5406563,-5.859375,97.16796875,-148.92578125,-34.1796875,39.0625
1771543737.5445626,4.8828125,44.43359375,-235.83984375,-26.85546875,41.50390625
1771543737.5484688,-31.73828125,-68.359375,-135.25390625,-46.875,51.7578125
1771543737.552375,-33.203125,-137.20703125,-157.2265625,-42.96875,64.453125
1771543737.5562813,8.30078125,-207.51953125,-160.64453125,0.48828125,-1.46484375
1771543737.5601876,18.06640625,-125.48828125,24.90234375,17.578125,29.296875
1771543737.5640938,10.25390625,-47.36328125,81.0546875,-10.25390625,73.2421875
1771543737.566125,34.66796875,-3.41796875,192.87109375,-11.23046875,25.390625
1771543737.5700312,19.53125,67.87109375,388.671875,-5.859375,58.10546875
1771543737.5739374,-15.13671875,71.77734375,338.8671875,-16.6015625,73.73046875
1771543737.5778437,-31.73828125,4.39453125,185.546875,-25.87890625,66.40625
1771543737.58175,-31.73828125,-21.97265625,262.20703125,-31.25,43.45703125
1771543737.5856562,-19.53125,-104.00390625,246.09375,-41.9921875,-0.48828125
1771543737.5895624,-28.3203125,-205.078125,117.67578125,-39.55078125,22.4609375
1771543737.5934687,4.39453125,-278.80859375,-120.1171875,13.18359375,12.6953125
1771543737.597375,18.5546875,-353.515625,-115.72265625,6.34765625,25.87890625
1771543737.6012812,-52.24609375,-374.51171875,225.5859375,-77.63671875,35.15625
1771543737.6051874,-61.03515625,-392.578125,84.9609375,-74.21875,46.38671875
1771543737.6090937,22.94921875,-437.5,-202.1484375,20.99609375,25.87890625
1771543737.612125,60.546875,-445.80078125,-120.1171875,47.8515625,23.4375
1771543737.6160312,9.27734375,-429.6875,189.94140625,-5.37109375,57.6171875
1771543737.6199374,-11.23046875,-444.3359375,65.4296875,-4.39453125,67.3828125
1771543737.6238437,20.01953125,-391.11328125,-182.6171875,13.671875,85.44921875
1771543737.62775,1.46484375,-319.3359375,-37.59765625,-12.6953125,52.734375
1771543737.6316562,-43.45703125,-273.4375,127.44140625,-31.73828125,33.203125
1771543737.6355624,-67.3828125,-251.953125,-7.8125,-69.3359375,62.98828125
1771543737.6394687,17.08984375,-284.1796875,-298.828125,-17.08984375,76.171875
1771543737.643375,16.6015625,-283.203125,-175.78125,13.18359375,50.78125
1771543737.6472812,-41.50390625,-270.01953125,122.0703125,-24.90234375,35.64453125
1771543737.6511874,-61.5234375,-338.37890625,33.203125,-59.5703125,37.109375
1771543737.6550937,-47.8515625,-390.625,-151.85546875,-56.15234375,37.109375
1771543737.657125,-55.17578125,-358.3984375,-187.01171875,-63.96484375,19.53125
1771543737.6610312,-19.53125,-295.8984375,-105.95703125,-24.4140625,-3.41796875
1771543737.6649375,40.52734375,-276.3671875,-211.9140625,31.25,-27.34375
1771543737.6688437,-3.41796875,-223.6328125,-308.59375,-14.16015625,-11.71875
1771543737.67275,-37.109375,-123.53515625,-249.0234375,-25.390625,-21.484375
1771543737.6766562,-46.38671875,-71.2890625,-162.109375,-18.06640625,66.40625
1771543737.6805625,-38.57421875,-19.53125,-190.91796875,-23.4375,119.62890625
1771543737.6844687,-82.03125,53.22265625,-330.078125,-58.59375,0.48828125
1771543737.688375,-69.82421875,120.1171875,-119.140625,-44.921875,6.34765625
1771543737.6922812,0.9765625,109.86328125,-24.90234375,5.859375,26.3671875
1771543737.6961875,-31.25,125.0,-20.99609375,-31.73828125,-21.484375
1771543737.7000937,-80.078125,147.94921875,20.01953125,-78.125,18.5546875
1771543737.702125,-38.57421875,141.6015625,-31.25,-39.55078125,83.49609375
1771543737.7060313,-13.18359375,216.796875,-173.828125,-7.8125,52.734375
1771543737.7099376,-37.109375,271.484375,-175.29296875,-23.4375,-9.765625
1771543737.7138438,-54.6875,224.12109375,-9.765625,-52.24609375,27.83203125
1771543737.71775,-42.96875,161.1328125,-140.625,-22.4609375,45.8984375
1771543737.7216563,-50.78125,114.74609375,-380.37109375,-22.94921875,43.9453125
1771543737.7255626,-44.921875,64.94140625,-607.421875,-54.19921875,32.2265625
1771543737.7294688,-8.7890625,50.29296875,-483.88671875,-24.90234375,-19.04296875
1771543737.733375,-14.6484375,40.52734375,-185.05859375,-10.25390625,29.78515625
1771543737.7372813,-42.48046875,-19.04296875,-340.8203125,-13.18359375,31.73828125
1771543737.7411876,-84.47265625,-39.0625,-272.4609375,-47.36328125,40.0390625
1771543737.7450938,-132.32421875,-25.390625,2.44140625,-100.09765625,50.78125
1771543737.762125,-57.12890625,-98.14453125,-21.97265625,-16.11328125,18.06640625
1771543737.7660313,-7.8125,-167.96875,-203.125,39.0625,34.1796875
1771543737.7699375,-46.875,-166.50390625,-239.74609375,-10.7421875,16.11328125
1771543737.7738438,-67.3828125,-151.85546875,-37.109375,-35.15625,10.7421875
1771543737.77775,-66.89453125,-172.36328125,50.78125,-26.3671875,41.015625
1771543737.7816563,-57.12890625,-229.98046875,-345.703125,-30.2734375,27.34375
1771543737.7855625,-59.08203125,-270.5078125,-580.56640625,-23.92578125,8.7890625
1771543737.7894688,-43.45703125,-272.94921875,-211.9140625,-9.27734375,13.671875
1771543737.793375,-33.69140625,-313.4765625,13.671875,1.46484375,39.0625
1771543737.7972813,-4.8828125,-408.69140625,-334.9609375,47.8515625,6.34765625
1771543737.8011875,-31.25,-445.80078125,-433.59375,7.8125,40.52734375
1771543737.8050938,-23.4375,-476.5625,-137.6953125,-2.44140625,71.2890625
1771543737.807125,3.41796875,-533.69140625,-114.74609375,38.0859375,40.0390625
1771543737.8110313,-10.7421875,-571.77734375,-332.03125,35.64453125,12.20703125
1771543737.8149376,0.9765625,-571.2890625,-418.9453125,17.08984375,51.7578125
1771543737.8188438,-3.41796875,-575.1953125,-351.07421875,11.71875,71.77734375
1771543737.82275,-17.08984375,-629.39453125,-356.4453125,16.11328125,32.2265625
1771543737.8266563,6.34765625,-681.15234375,-557.12890625,27.34375,53.22265625
1771543737.8305626,23.4375,-680.17578125,-787.59765625,44.921875,58.59375
1771543737.8344688,13.18359375,-693.359375,-807.6171875,48.828125,42.96875
1771543737.838375,8.30078125,-745.60546875,-845.21484375,29.78515625,-0.9765625
1771543737.8422813,13.18359375,-808.10546875,-972.16796875,22.4609375,-8.7890625
1771543737.8461876,33.203125,-875.0,-971.19140625,35.15625,1.46484375
1771543737.8500938,34.1796875,-959.9609375,-966.796875,48.828125,-56.15234375
1771543737.852125,18.06640625,-972.16796875,-971.19140625,29.78515625,-26.85546875
1771543737.8560312,18.06640625,-967.28515625,-970.21484375,34.66796875,70.3125
1771543737.8599374,23.4375,-970.703125,-970.21484375,66.89453125,43.45703125
1771543737.8638437,5.37109375,-970.21484375,-970.21484375,36.1328125,-19.04296875
1771543737.86775,-9.765625,-970.21484375,-970.21484375,8.30078125,-50.29296875
1771543737.8716562,16.6015625,-970.21484375,-970.21484375,27.83203125,-7.32421875
1771543737.8755624,38.57421875,-970.21484375,-970.21484375,45.41015625,35.64453125
1771543737.8794687,28.80859375,-970.21484375,-970.21484375,51.26953125,-3.90625
1771543737.883375,17.578125,-970.21484375,-970.21484375,53.22265625,3.41796875
1771543737.8872812,40.0390625,-970.21484375,-970.21484375,56.15234375,56.15234375
1771543737.8911874,72.265625,-970.21484375,-970.21484375,53.22265625,82.03125
1771543737.8950937,66.89453125,-970.21484375,-970.21484375,67.3828125,39.0625
1771543737.896125,62.5,-970.21484375,-970.21484375,70.3125,-8.30078125
1771543737.9000313,102.05078125,-970.21484375,-970.21484375,87.890625,6.8359375
1771543737.9039376,130.37109375,-970.21484375,-970.21484375,141.11328125,27.34375
1771543737.9078438,120.60546875,-970.21484375,-970.21484375,141.6015625,16.6015625
1771543737.91175,141.6015625,-969.7265625,-970.21484375,163.0859375,-8.30078125
1771543737.9156563,180.17578125,-968.26171875,-970.21484375,188.4765625,61.5234375
1771543737.9195626,232.421875,-972.16796875,-970.21484375,215.33203125,61.5234375
1771543737.9234688,266.6015625,-938.96484375,-970.21484375,257.32421875,4.39453125
1771543737.927375,277.83203125,-874.0234375,-970.21484375,255.37109375,77.1484375
1771543737.9312813,308.59375,-787.59765625,-970.21484375,278.3203125,99.609375
1771543737.9351876,353.02734375,-710.9375,-970.21484375,325.1953125,53.7109375
1771543737.9390938,366.2109375,-701.171875,-970.21484375,342.28515625,47.36328125
1771543737.942125,364.74609375,-683.10546875,-970.21484375,346.19140625,61.5234375
1771543737.9460313,384.27734375,-631.8359375,-970.21484375,368.1640625,50.78125
1771543737.9499376,406.73828125,-616.69921875,-970.21484375,401.85546875,60.546875
1771543737.9538438,432.6171875,-661.62109375,-970.21484375,419.921875,63.4765625
1771543737.95775,443.359375,-752.44140625,-971.19140625,432.6171875,13.671875
1771543737.9616563,451.171875,-863.76953125,-970.703125,439.94140625,5.859375
1771543737.9655626,463.37890625,-941.89453125,-922.8515625,437.98828125,27.83203125
1771543737.9694688,466.30859375,-964.35546875,-1000.0,442.3828125,27.34375
1771543737.973375,480.95703125,-969.23828125,-421.38671875,455.56640625,-4.8828125
1771543737.9772813,484.375,-970.21484375,812.5,459.47265625,-10.7421875
1771543737.9811876,488.28125,-970.21484375,-971.19140625,453.125,8.30078125
1771543737.9850938,490.72265625,-970.21484375,962.40234375,448.73046875,13.18359375
1771543737.987125,475.09765625,-970.21484375,-995.1171875,435.546875,19.04296875
1771543737.9910312,470.21484375,-970.21484375,999.51171875,423.828125,39.55078125
1771543737.9949374,457.51953125,-970.21484375,999.51171875,410.15625,63.4765625
1771543737.9988437,447.75390625,-970.21484375,999.51171875,401.85546875,78.61328125
1771543738.00275,448.73046875,-970.21484375,999.51171875,416.015625,71.77734375
1771543738.0066562,449.70703125,-970.21484375,999.51171875,422.8515625,37.59765625
1771543738.0105624,455.56640625,-970.21484375,999.51171875,412.109375,14.16015625
1771543738.0144687,443.84765625,-970.21484375,999.51171875,396.97265625,59.08203125
1771543738.018375,429.6875,-970.21484375,999.51171875,409.1796875,89.35546875
1771543738.0222812,433.59375,-970.21484375,999.51171875,424.8046875,37.59765625
1771543738.0261874,436.03515625,-970.21484375,999.51171875,434.5703125,43.9453125
1771543738.0300937,432.12890625,-970.21484375,999.51171875,431.15234375,35.15625
1771543738.031125,438.96484375,-967.7734375,999.51171875,427.734375,10.7421875
1771543738.0350313,437.01171875,-973.14453125,999.51171875,429.6875,-19.04296875
1771543738.0389376,409.66796875,-947.75390625,999.51171875,419.43359375,-20.01953125
1771543738.0428438,413.57421875,-881.8359375,999.51171875,417.48046875,44.43359375
1771543738.04675,424.31640625,-835.9375,999.51171875,411.62109375,44.921875
1771543738.0506563,417.96875,-799.8046875,999.51171875,409.66796875,47.8515625
1771543738.0545626,415.52734375,-764.16015625,999.51171875,413.57421875,66.89453125
1771543738.0584688,414.55078125,-728.02734375,999.51171875,397.94921875,45.41015625
1771543738.062375,414.0625,-697.75390625,999.51171875,389.16015625,4.8828125
1771543738.0662813,401.85546875,-683.59375,999.51171875,393.5546875,4.8828125
1771543738.0701876,395.99609375,-678.7109375,999.51171875,394.04296875,36.62109375
1771543738.0740938,388.671875,-662.59765625,999.51171875,377.44140625,18.5546875
1771543738.077125,379.8828125,-655.2734375,-999.51171875,360.3515625,32.2265625
1771543738.0810313,366.69921875,-666.9921875,984.375,370.60546875,15.625
1771543738.0849376,363.76953125,-664.0625,-991.2109375,374.51171875,-37.59765625
1771543738.0888438,379.8828125,-645.99609375,833.49609375,374.51171875,-8.7890625
1771543738.09275,362.79296875,-629.8828125,260.25390625,363.28125,1.953125
1771543738.0966563,353.02734375,-616.69921875,-558.10546875,355.95703125,14.16015625
1771543738.1005626,360.83984375,-598.14453125,-990.72265625,355.46875,63.4765625
1771543738.1044688,356.4453125,-569.82421875,-951.66015625,338.37890625,40.0390625
1771543738.108375,340.33203125,-548.33984375,-965.33203125,322.75390625,-1.46484375
1771543738.1122813,327.63671875,-543.9453125,-972.16796875,320.80078125,60.546875
1771543738.1161876,329.58984375,-526.85546875,-970.21484375,332.03125,56.15234375
1771543738.1200938,339.84375,-488.28125,-970.21484375,327.63671875,-10.7421875
1771543738.123125,317.3828125,-455.078125,-970.21484375,318.359375,9.27734375
1771543738.1270313,284.1796875,-419.43359375,-970.21484375,296.38671875,49.31640625
1771543738.1309376,288.0859375,-389.6484375,-970.21484375,285.15625,60.05859375
1771543738.1348438,279.78515625,-373.046875,-970.21484375,282.71484375,108.3984375
1771543738.13875,268.5546875,-365.234375,-970.21484375,270.5078125,96.6796875
1771543738.1426563,272.94921875,-359.375,-970.21484375,279.296875,63.4765625
1771543738.1465626,270.5078125,-349.609375,-970.21484375,273.92578125,46.875
1771543738.1504688,254.8828125,-342.28515625,-970.21484375,256.34765625,41.9921875
1771543738.154375,245.60546875,-330.56640625,-970.21484375,255.37109375,66.89453125
1771543738.1582813,248.046875,-316.40625,-970.21484375,250.48828125,32.71484375
1771543738.1621876,248.046875,-301.26953125,-971.19140625,238.76953125,38.57421875
1771543738.1660938,241.2109375,-283.203125,-966.30859375,255.37109375,77.1484375
1771543738.196125,237.3046875,-267.08984375,-965.8203125,237.3046875,56.640625
1771543738.2000313,239.2578125,-267.578125,-972.65625,214.84375,7.8125
1771543738.2039375,241.69921875,-289.55078125,-769.53125,228.515625,30.2734375
1771543738.2078438,234.375,-313.4765625,-523.4375,257.32421875,86.9140625
1771543738.21175,239.2578125,-316.89453125,-640.13671875,265.625,51.26953125
1771543738.2156563,243.65234375,-312.5,-954.58984375,250.0,0.9765625
1771543738.2195625,236.328125,-300.78125,-766.11328125,257.32421875,-1.46484375
1771543738.2234688,223.6328125,-291.50390625,-549.8046875,232.421875,39.0625
1771543738.227375,218.75,-294.921875,-816.89453125,187.5,84.47265625
1771543738.2312813,215.33203125,-300.29296875,-980.95703125,165.52734375,25.390625
1771543738.2351875,219.7265625,-289.0625,-846.6796875,206.54296875,11.23046875
1771543738.2390938,214.35546875,-281.25,-841.796875,272.4609375,45.8984375
1771543738.227125,198.73046875,-291.015625,-966.796875,247.0703125,41.9921875
1771543738.2310312,193.84765625,-292.96875,-972.16796875,228.515625,32.71484375
1771543738.2349374,189.94140625,-293.9453125,-966.796875,258.30078125,21.97265625
1771543738.2388437,189.453125,-291.9921875,-971.19140625,234.375,8.30078125
1771543738.24275,183.10546875,-297.8515625,-970.21484375,194.82421875,9.765625
1771543738.2466562,179.19921875,-310.05859375,-970.21484375,174.31640625,9.27734375
1771543738.2505624,167.96875,-312.01171875,-970.21484375,161.1328125,10.7421875
1771543738.2544687,148.92578125,-310.05859375,-970.21484375,159.66796875,55.6640625
1771543738.258375,145.5078125,-311.03515625,-970.21484375,158.203125,47.36328125
1771543738.2622812,152.34375,-312.5,-970.21484375,211.42578125,10.25390625
1771543738.2661874,136.71875,-307.6171875,-970.21484375,201.66015625,62.01171875
1771543738.2700937,123.53515625,-305.6640625,-970.21484375,174.31640625,50.29296875
1771543738.272125,138.18359375,-311.5234375,-970.21484375,174.8046875,-28.3203125
1771543738.2760313,143.5546875,-303.22265625,-970.21484375,190.4296875,-44.921875
1771543738.2799375,128.90625,-297.36328125,-970.21484375,209.47265625,-15.625
1771543738.2838438,117.67578125,-298.828125,-970.21484375,169.43359375,-14.16015625
1771543738.28775,124.0234375,-298.33984375,-970.21484375,152.83203125,-27.34375
1771543738.2916563,111.328125,-291.015625,-970.21484375,110.3515625,27.83203125
1771543738.2955625,113.28125,-281.73828125,-970.21484375,60.05859375,67.87109375
1771543738.2994688,127.9296875,-285.15625,-970.21484375,159.66796875,82.03125
1771543738.303375,118.1640625,-291.9921875,-970.21484375,172.36328125,84.47265625
1771543738.3072813,112.3046875,-280.2734375,-970.21484375,148.4375,35.64453125
1771543738.3111875,85.9375,-280.2734375,-970.21484375,33.69140625,37.59765625
1771543738.3150938,101.5625,-295.8984375,-970.21484375,-40.52734375,10.25390625
1771543738.316125,134.27734375,-289.55078125,-970.21484375,240.234375,8.7890625
1771543738.3200312,108.3984375,-293.9453125,-970.21484375,285.15625,49.31640625
1771543738.3239374,94.7265625,-303.22265625,-970.21484375,212.890625,24.90234375
1771543738.3278437,106.93359375,-305.6640625,-970.21484375,253.41796875,41.9921875
1771543738.33175,102.5390625,-312.5,-970.21484375,253.41796875,60.546875
1771543738.3356562,93.75,-317.87109375,-970.21484375,215.8203125,23.4375
1771543738.3395624,100.09765625,-319.3359375,-970.21484375,204.1015625,39.0625
1771543738.3434687,83.49609375,-325.68359375,-970.21484375,178.7109375,42.96875
1771543738.347375,80.56640625,-335.44921875,-970.21484375,163.57421875,21.484375
1771543738.3512812,94.23828125,-345.21484375,-970.21484375,182.6171875,-2.9296875
1771543738.3551874,94.7265625,-357.421875,-970.21484375,193.359375,50.78125
1771543738.3590937,87.40234375,-349.609375,-970.21484375,188.96484375,65.91796875
1771543738.362125,69.82421875,-345.703125,-970.21484375,156.73828125,4.8828125
1771543738.3660312,68.359375,-361.81640625,-970.21484375,158.203125,72.265625
1771543738.3699374,93.26171875,-371.58203125,-970.21484375,177.24609375,46.38671875
1771543738.3738437,99.12109375,-377.9296875,-970.21484375,172.36328125,20.99609375
1771543738.37775,79.58984375,-375.48828125,-970.21484375,163.57421875,75.68359375
1771543738.3816562,81.0546875,-364.74609375,-970.21484375,157.2265625,65.4296875
1771543738.3855624,98.6328125,-362.79296875,-970.21484375,132.32421875,62.01171875
1771543738.3894687,101.5625,-361.81640625,-970.21484375,159.66796875,41.50390625
1771543738.393375,100.09765625,-363.76953125,-970.21484375,196.77734375,26.85546875
1771543738.3972812,97.16796875,-361.81640625,-970.21484375,168.45703125,38.0859375
1771543738.4011874,93.75,-345.703125,-970.21484375,154.78515625,48.828125
1771543738.4050937,99.609375,-330.56640625,-970.21484375,163.57421875,24.4140625
1771543738.407125,100.5859375,-320.80078125,-970.21484375,162.109375,14.16015625
1771543738.4110312,88.37890625,-311.03515625,-970.21484375,156.25,48.828125
1771543738.4149375,84.9609375,-301.26953125,-970.21484375,149.90234375,4.39453125
1771543738.4188437,104.00390625,-293.45703125,-970.21484375,153.3203125,17.08984375
1771543738.42275,107.421875,-287.109375,-970.21484375,151.3671875,98.6328125
1771543738.4266562,96.6796875,-283.203125,-970.21484375,138.671875,65.91796875
1771543738.4305625,96.19140625,-280.2734375,-970.21484375,130.859375,59.08203125
1771543738.4344687,97.16796875,-280.2734375,-970.21484375,130.37109375,21.97265625
1771543738.438375,85.9375,-271.97265625,-970.21484375,142.08984375,3.90625
1771543738.4422812,82.03125,-259.27734375,-970.21484375,151.3671875,10.7421875
1771543738.4461875,87.40234375,-248.53515625,-970.21484375,143.06640625,3.41796875
1771543738.4500937,92.7734375,-245.60546875,-970.703125,133.7890625,38.0859375
1771543738.467125,91.30859375,-253.90625,-968.26171875,130.37109375,-9.765625
1771543738.4710312,77.1484375,-254.8828125,-971.19140625,122.0703125,-70.3125
1771543738.4749374,68.359375,-241.69921875,-971.6796875,119.140625,-32.2265625
1771543738.4788437,73.2421875,-237.3046875,-901.85546875,126.46484375,79.1015625
1771543738.48275,88.8671875,-238.28125,-915.0390625,144.04296875,69.3359375
1771543738.4866562,85.9375,-237.3046875,-977.5390625,138.18359375,8.7890625
1771543738.4905624,76.171875,-234.375,-968.26171875,105.46875,68.359375
1771543738.4944687,88.37890625,-225.09765625,-969.23828125,115.72265625,33.69140625
1771543738.498375,101.07421875,-219.23828125,-970.21484375,129.8828125,-9.27734375
1771543738.5022812,97.65625,-219.23828125,-970.21484375,135.25390625,11.23046875
1771543738.5061874,88.8671875,-209.47265625,-970.21484375,136.71875,33.69140625
1771543738.5100937,93.26171875,-199.70703125,-970.21484375,130.859375,12.6953125
1771543738.498125,110.3515625,-197.265625,-970.21484375,134.27734375,62.01171875
1771543738.5020313,102.5390625,-190.91796875,-970.21484375,127.9296875,34.1796875
1771543738.5059376,94.7265625,-174.8046875,-970.21484375,114.74609375,57.12890625
1771543738.5098438,96.6796875,-167.96875,-970.703125,119.62890625,95.21484375
1771543738.51375,99.609375,-168.45703125,-967.7734375,137.6953125,47.36328125
1771543738.5176563,103.515625,-165.52734375,-965.8203125,141.11328125,47.8515625
1771543738.5215626,108.88671875,-160.15625,-973.14453125,138.18359375,100.5859375
1771543738.5254688,102.5390625,-144.04296875,-845.703125,130.859375,72.265625
1771543738.529375,93.75,-132.32421875,-599.12109375,116.69921875,28.3203125
1771543738.5332813,95.21484375,-131.8359375,-777.34375,114.74609375,50.29296875
1771543738.5371876,93.75,-127.9296875,-916.50390625,114.74609375,18.5546875
1771543738.5410938,87.40234375,-115.72265625,-526.85546875,113.76953125,59.5703125
1771543738.557125,85.9375,-108.88671875,-355.95703125,104.00390625,100.5859375
1771543738.5610313,66.40625,-101.5625,-524.4140625,78.61328125,90.33203125
1771543738.5649376,64.453125,-93.26171875,-627.44140625,82.51953125,105.95703125
1771543738.5688438,53.7109375,-96.19140625,-713.37890625,73.73046875,63.96484375
1771543738.57275,47.36328125,-98.14453125,-753.41796875,56.640625,26.3671875
1771543738.5766563,56.640625,-90.8203125,-899.90234375,57.12890625,41.9921875
1771543738.5805626,41.9921875,-81.54296875,-965.8203125,43.9453125,20.99609375
1771543738.5844688,29.78515625,-82.03125,-780.76171875,30.2734375,45.8984375
1771543738.588375,32.2265625,-82.51953125,-766.6015625,25.390625,68.84765625
1771543738.5922813,41.015625,-77.63671875,-841.30859375,16.6015625,52.734375
1771543738.5961876,45.8984375,-70.3125,-755.859375,27.83203125,42.48046875
1771543738.6000938,53.7109375,-61.03515625,-773.92578125,33.69140625,-2.9296875
1771543738.602125,47.8515625,-54.6875,-774.4140625,28.3203125,-25.87890625
1771543738.6060312,56.15234375,-51.7578125,-651.3671875,46.38671875,2.44140625
1771543738.6099374,80.078125,-41.015625,-644.53125,66.89453125,3.41796875
1771543738.6138437,63.4765625,-47.36328125,-731.4453125,49.8046875,-2.44140625
1771543738.61775,41.9921875,-58.10546875,-725.5859375,28.3203125,20.5078125
1771543738.6216562,63.96484375,-49.8046875,-645.5078125,58.10546875,62.5
1771543738.6255624,77.63671875,-52.24609375,-683.59375,74.70703125,40.52734375
1771543738.6294687,66.89453125,-61.03515625,-771.97265625,54.6875,15.625
1771543738.633375,70.80078125,-54.6875,-838.37890625,57.6171875,51.26953125
1771543738.6372812,85.9375,-38.57421875,-757.32421875,71.2890625,35.64453125
1771543738.6411874,85.9375,-33.69140625,-482.421875,61.5234375,-15.13671875
1771543738.6450937,93.75,-40.0390625,-504.8828125,66.89453125,-12.20703125
1771543738.646125,104.4921875,-43.45703125,-582.03125,80.56640625,10.7421875
1771543738.6500313,110.3515625,-33.69140625,-426.26953125,88.8671875,1.953125
1771543738.6539376,143.06640625,-14.6484375,-281.73828125,117.1875,60.546875
1771543738.6578438,165.52734375,-20.5078125,-427.24609375,126.46484375,63.4765625
1771543738.66175,130.859375,-47.8515625,-547.36328125,105.46875,-3.41796875
1771543738.6656563,114.2578125,-52.24609375,-382.8125,89.84375,41.9921875
1771543738.6695626,121.09375,-42.96875,-130.37109375,93.75,103.02734375
1771543738.6734688,135.25390625,-42.96875,-31.73828125,111.328125,51.7578125
1771543738.677375,151.85546875,-38.57421875,-177.24609375,109.86328125,73.73046875
1771543738.6812813,148.92578125,-30.2734375,126.953125,106.93359375,62.01171875
1771543738.6851876,160.15625,-18.06640625,667.48046875,125.9765625,-5.859375
1771543738.6890938,180.6640625,-13.18359375,723.14453125,145.5078125,-0.48828125
1771543738.692125,180.6640625,-16.11328125,753.41796875,145.01953125,31.25
1771543738.6960313,165.52734375,-15.625,898.4375,136.23046875,23.92578125
1771543738.6999376,181.640625,-8.7890625,987.79296875,146.484375,10.7421875
1771543738.7038438,198.73046875,-27.34375,-998.046875,161.62109375,10.7421875
1771543738.70775,217.28515625,-46.875,995.60546875,185.05859375,16.11328125
1771543738.7116563,227.5390625,-58.10546875,-999.51171875,188.96484375,-11.71875
1771543738.7155626,208.984375,-40.0390625,999.51171875,173.33984375,-44.43359375
1771543738.7194688,193.84765625,-2.9296875,999.51171875,177.24609375,11.23046875
1771543738.723375,201.66015625,-7.32421875,999.51171875,183.10546875,-2.44140625
1771543738.7272813,210.44921875,-14.6484375,999.51171875,190.4296875,-7.32421875
1771543738.7311876,200.1953125,-35.15625,999.51171875,192.3828125,-3.41796875
1771543738.7350938,210.44921875,-52.734375,999.51171875,208.0078125,21.484375
1771543738.737125,248.53515625,-25.390625,999.51171875,233.88671875,92.28515625
1771543738.7410312,243.1640625,-39.55078125,999.51171875,226.5625,48.828125
1771543738.7449374,192.3828125,-63.96484375,999.51171875,196.77734375,11.23046875
1771543738.7488437,186.03515625,-43.45703125,999.51171875,194.82421875,75.1953125
1771543738.75275,191.89453125,-29.78515625,999.51171875,203.61328125,101.5625
1771543738.7566562,209.47265625,-32.2265625,999.51171875,190.91796875,7.32421875
1771543738.7605624,207.03125,-37.109375,999.51171875,181.15234375,-26.85546875
1771543738.7644687,175.78125,-53.7109375,999.51171875,176.26953125,64.94140625
1771543738.768375,222.65625,-59.08203125,990.72265625,196.77734375,45.8984375
1771543738.7722812,256.34765625,-43.9453125,-976.07421875,214.35546875,46.875
1771543738.7761874,229.4921875,-41.015625,885.7421875,196.2890625,71.2890625
1771543738.7800937,221.6796875,-39.0625,813.4765625,189.94140625,30.76171875
1771543738.782125,229.00390625,-35.64453125,904.78515625,212.40234375,74.70703125
1771543738.7860312,233.3984375,-39.55078125,673.33984375,226.07421875,58.59375
1771543738.7899375,202.63671875,-60.05859375,387.6953125,216.30859375,34.66796875
1771543738.7938437,199.70703125,-67.87109375,384.27734375,233.88671875,31.73828125
1771543738.79775,259.27734375,-36.1328125,531.73828125,281.73828125,16.6015625
1771543738.8016562,266.11328125,-30.76171875,385.25390625,289.0625,56.640625
1771543738.8055625,236.328125,-62.01171875,-27.83203125,257.32421875,60.546875
1771543738.8094687,218.26171875,-66.40625,-198.73046875,241.2109375,-1.46484375
1771543738.813375,214.35546875,-47.8515625,158.69140625,237.3046875,-11.71875
1771543738.8172812,240.234375,-47.36328125,313.4765625,250.9765625,49.8046875
1771543738.8211875,251.46484375,-48.828125,83.49609375,265.13671875,27.83203125
1771543738.8250937,247.0703125,-44.43359375,55.6640625,266.11328125,40.0390625
1771543738.827125,248.046875,-41.015625,167.48046875,266.6015625,39.0625
1771543738.8310313,266.6015625,-37.109375,84.47265625,273.92578125,55.17578125
1771543738.8349376,250.48828125,-42.48046875,-127.9296875,267.578125,105.46875
1771543738.8388438,275.87890625,-4.39453125,-317.87109375,295.41015625,1.46484375
1771543738.84275,341.30859375,54.6875,-203.61328125,351.07421875,0.48828125
1771543738.8466563,292.48046875,13.18359375,-118.1640625,294.43359375,50.29296875
1771543738.8505626,219.7265625,-78.61328125,-406.25,205.078125,36.1328125
1771543738.8544688,186.5234375,-95.703125,-7.32421875,180.17578125,48.828125
1771543738.858375,198.2421875,-60.05859375,844.7265625,199.70703125,66.89453125
1771543738.8622813,231.4453125,-33.203125,-985.3515625,228.515625,48.33984375
1771543738.8661876,231.93359375,-32.2265625,977.05078125,236.328125,19.53125
1771543738.8700938,223.6328125,-34.66796875,-999.0234375,226.5625,2.44140625
1771543738.887125,213.37890625,-22.4609375,-1000.0,215.8203125,25.87890625
1771543738.8910313,226.07421875,-7.32421875,999.51171875,217.28515625,22.4609375
1771543738.8949375,237.79296875,-3.41796875,999.51171875,229.00390625,40.52734375
1771543738.8988438,238.28125,-7.32421875,999.51171875,243.65234375,16.11328125
1771543738.90275,245.1171875,-11.23046875,999.51171875,243.65234375,-8.7890625
1771543738.9066563,250.0,-19.53125,999.51171875,235.3515625,14.16015625
1771543738.9105625,236.81640625,-27.34375,999.51171875,235.3515625,-0.48828125
1771543738.9144688,218.75,-25.87890625,999.51171875,243.1640625,-4.39453125
1771543738.918375,215.33203125,-20.01953125,999.51171875,240.234375,4.39453125
1771543738.9222813,214.35546875,-17.08984375,999.51171875,228.02734375,26.3671875
1771543738.9261875,225.09765625,-20.01953125,999.51171875,233.88671875,9.27734375
1771543738.9300938,241.69921875,-20.5078125,999.51171875,242.1875,10.25390625
1771543738.932125,236.81640625,-14.6484375,999.51171875,230.95703125,66.40625
1771543738.9360313,223.6328125,-10.7421875,-997.0703125,222.65625,77.1484375
1771543738.9399376,219.7265625,-0.48828125,969.23828125,222.65625,69.82421875
1771543738.9438438,223.14453125,4.8828125,-960.9375,220.703125,62.98828125
1771543738.94775,211.9140625,3.41796875,772.4609375,220.21484375,21.97265625
1771543738.9516563,189.94140625,0.9765625,-47.8515625,218.75,7.32421875
1771543738.9555626,195.3125,0.9765625,-492.1875,211.42578125,80.56640625
1771543738.9594688,213.8671875,0.9765625,-794.43359375,201.171875,45.8984375
1771543738.963375,209.47265625,-2.9296875,-984.86328125,207.51953125,-27.83203125
1771543738.9672813,194.82421875,-2.44140625,-960.9375,208.0078125,9.27734375
1771543738.9711876,199.21875,2.9296875,-969.23828125,196.77734375,41.015625
1771543738.9750938,219.7265625,12.6953125,-970.703125,201.66015625,8.30078125
1771543738.992125,212.890625,14.16015625,-970.21484375,197.75390625,-23.4375
1771543738.9960313,194.82421875,-0.48828125,-970.21484375,201.66015625,-37.59765625
1771543738.9999375,192.3828125,-8.30078125,-970.21484375,211.9140625,13.671875
1771543739.0038438,199.70703125,-6.8359375,-970.21484375,199.70703125,-2.9296875
1771543739.00775,187.5,-11.23046875,-970.21484375,177.734375,4.8828125
1771543739.0116563,184.08203125,-12.6953125,-970.21484375,169.43359375,62.5
1771543739.0155625,178.7109375,-14.16015625,-970.21484375,158.203125,39.55078125
1771543739.0194688,175.78125,-15.625,-970.21484375,165.0390625,-2.9296875
1771543739.023375,190.4296875,-20.01953125,-970.21484375,179.19921875,11.71875
1771543739.0272813,169.43359375,-26.85546875,-970.21484375,165.52734375,11.23046875
1771543739.0311875,149.4140625,-26.85546875,-970.21484375,154.296875,20.01953125
1771543739.0350938,160.64453125,-27.34375,-970.21484375,156.73828125,52.734375
1771543739.022125,155.76171875,-31.73828125,-970.21484375,159.1796875,15.13671875
1771543739.0260313,146.484375,-36.62109375,-970.21484375,147.94921875,9.27734375
1771543739.0299375,149.4140625,-33.69140625,-970.21484375,127.44140625,54.6875
1771543739.0338438,135.25390625,-34.1796875,-970.21484375,126.953125,45.41015625
1771543739.03775,126.953125,-33.69140625,-970.21484375,125.48828125,-6.34765625
1771543739.0416563,150.87890625,-26.85546875,-970.21484375,129.8828125,-14.6484375
1771543739.0455625,153.80859375,-31.25,-970.21484375,133.30078125,27.34375
1771543739.0494688,128.90625,-35.15625,-970.21484375,125.0,70.80078125
1771543739.053375,129.39453125,-31.73828125,-970.21484375,136.23046875,68.84765625
1771543739.0572813,148.92578125,-26.85546875,-970.21484375,145.01953125,13.18359375
1771543739.0611875,135.7421875,-32.2265625,-970.21484375,145.5078125,16.11328125
1771543739.0650938,117.67578125,-26.3671875,-970.21484375,126.46484375,42.96875
1771543739.068125,130.859375,-25.390625,-970.21484375,103.515625,63.96484375
1771543739.0720313,142.578125,-36.1328125,-970.21484375,119.62890625,55.6640625
1771543739.0759375,148.4375,-39.55078125,-970.21484375,136.71875,43.45703125
1771543739.0798438,138.671875,-38.0859375,-970.21484375,125.0,35.64453125
1771543739.08375,133.7890625,-36.62109375,-970.21484375,87.890625,28.3203125
1771543739.0876563,144.53125,-53.22265625,-970.21484375,109.375,6.34765625
1771543739.0915625,139.6484375,-68.84765625,-970.21484375,136.71875,15.625
1771543739.0954688,126.46484375,-79.1015625,-970.21484375,140.13671875,37.59765625
1771543739.099375,111.81640625,-89.35546875,-970.21484375,148.4375,22.4609375
1771543739.1032813,111.328125,-88.37890625,-970.21484375,138.18359375,26.3671875
1771543739.1071875,118.1640625,-86.9140625,-970.21484375,129.39453125,83.984375
1771543739.1110938,105.95703125,-88.37890625,-970.21484375,112.79296875,84.47265625
1771543739.111125,100.09765625,-85.9375,-970.21484375,86.42578125,43.9453125
1771543739.1150312,122.55859375,-81.0546875,-970.21484375,76.171875,59.08203125
1771543739.1189375,128.90625,-87.40234375,-970.21484375,95.21484375,62.5
1771543739.1228437,129.8828125,-96.6796875,-970.21484375,109.86328125,35.15625
1771543739.12675,142.578125,-94.23828125,-970.21484375,117.1875,30.76171875
1771543739.1306562,125.0,-96.6796875,-970.21484375,130.37109375,59.08203125
1771543739.1345625,124.0234375,-98.6328125,-970.703125,134.765625,69.3359375
1771543739.1384687,140.13671875,-93.75,-968.75,127.9296875,81.0546875
1771543739.142375,110.83984375,-84.47265625,-973.14453125,115.234375,65.91796875
1771543739.1462812,93.75,-74.21875,-963.8671875,95.703125,14.16015625
1771543739.1501875,125.48828125,-70.80078125,-948.73046875,114.74609375,51.7578125
1771543739.1540937,145.5078125,-82.03125,-963.37890625,116.2109375,86.42578125
1771543739.157125,137.6953125,-83.984375,-981.4453125,88.37890625,24.90234375
1771543739.1610312,148.4375,-79.58984375,-907.2265625,96.19140625,14.16015625
1771543739.1649375,129.39453125,-85.44921875,-800.78125,124.51171875,38.57421875
1771543739.1688437,101.5625,-86.42578125,-788.57421875,132.32421875,48.33984375
1771543739.17275,133.30078125,-82.51953125,-816.89453125,130.37109375,53.22265625
1771543739.1766562,124.51171875,-82.51953125,-851.07421875,119.62890625,47.8515625
1771543739.1805625,121.09375,-80.078125,-903.3203125,105.46875,51.7578125
1771543739.1844687,125.48828125,-77.1484375,-932.12890625,112.79296875,65.4296875
1771543739.188375,100.5859375,-77.63671875,-773.4375,115.234375,35.64453125
1771543739.1922812,86.9140625,-73.2421875,-683.59375,93.26171875,50.78125
1771543739.1961875,117.1875,-62.01171875,-694.82421875,80.56640625,-3.41796875
1771543739.2000937,136.23046875,-69.3359375,-629.39453125,74.70703125,-48.828125
1771543739.202125,125.0,-70.3125,-630.37109375,88.8671875,-19.53125
1771543739.2060313,113.76953125,-63.96484375,-699.70703125,100.5859375,3.90625
1771543739.2099376,80.078125,-67.3828125,-662.109375,91.30859375,9.27734375
1771543739.2138438,112.3046875,-57.12890625,-516.11328125,96.19140625,0.48828125
1771543739.21775,123.53515625,-54.19921875,-509.27734375,127.9296875,19.04296875
1771543739.2216563,104.4921875,-58.10546875,-671.38671875,109.86328125,62.5
1771543739.2255626,106.93359375,-47.36328125,-767.578125,37.59765625,92.28515625
1771543739.2294688,120.60546875,-34.1796875,-542.48046875,68.359375,114.74609375
1771543739.233375,148.4375,-41.9921875,-446.2890625,120.1171875,54.6875
1771543739.2372813,127.9296875,-54.19921875,-599.12109375,101.07421875,23.4375
1771543739.2411876,86.42578125,-57.12890625,-611.81640625,77.63671875,8.30078125
1771543739.2450938,109.375,-48.828125,-362.79296875,69.3359375,0.48828125
1771543739.262125,115.72265625,-33.69140625,-315.91796875,74.21875,17.08984375
1771543739.2660313,85.44921875,-32.2265625,-482.421875,86.42578125,-19.04296875
1771543739.2699375,92.7734375,-40.52734375,-484.375,91.30859375,-0.48828125
1771543739.2738438,111.81640625,-30.2734375,-308.10546875,97.65625,62.98828125
1771543739.27775,103.515625,-19.53125,-266.6015625,96.19140625,61.5234375
1771543739.2816563,90.33203125,-18.06640625,-507.32421875,112.79296875,24.90234375
1771543739.2855625,112.3046875,-4.8828125,-552.734375,116.69921875,44.43359375
1771543739.2894688,92.7734375,6.34765625,-318.359375,110.3515625,38.57421875
1771543739.293375,65.4296875,6.8359375,-233.88671875,100.09765625,28.80859375
1771543739.2972813,126.46484375,22.94921875,-363.76953125,89.84375,30.2734375
1771543739.3011875,163.57421875,36.1328125,-469.7265625,100.5859375,25.87890625
1771543739.3050938,132.32421875,41.9921875,-345.703125,95.703125,33.203125
1771543739.307125,98.14453125,51.7578125,-185.05859375,71.2890625,60.05859375
1771543739.3110313,100.09765625,46.38671875,-425.78125,63.96484375,36.62109375
1771543739.3149376,119.62890625,52.24609375,-472.65625,94.23828125,42.48046875
1771543739.3188438,97.16796875,53.7109375,-217.7734375,114.74609375,63.4765625
1771543739.32275,105.95703125,48.33984375,-216.30859375,115.72265625,-9.765625
1771543739.3266563,121.09375,56.15234375,-287.59765625,117.1875,0.9765625
1771543739.3305626,108.3984375,63.4765625,-323.2421875,119.62890625,60.546875
1771543739.3344688,105.46875,60.546875,-234.86328125,96.6796875,76.66015625
1771543739.338375,94.23828125,66.40625,-223.14453125,41.50390625,53.7109375
1771543739.3422813,104.00390625,73.73046875,-297.8515625,58.10546875,68.84765625
1771543739.3461876,107.421875,63.4765625,-170.8984375,112.3046875,84.9609375
1771543739.3500938,54.19921875,55.6640625,-132.8125,110.3515625,22.4609375
1771543739.352125,63.4765625,59.5703125,-164.0625,100.5859375,29.78515625
1771543739.3560312,102.5390625,80.078125,-112.3046875,79.58984375,35.15625
1771543739.3599374,82.51953125,58.10546875,-68.359375,89.35546875,10.7421875
1771543739.3638437,120.1171875,54.19921875,-118.65234375,80.078125,10.7421875
1771543739.36775,129.8828125,77.1484375,-202.1484375,51.26953125,41.9921875
1771543739.3716562,87.40234375,68.84765625,-164.0625,90.8203125,44.921875
1771543739.3755624,107.421875,70.3125,-90.8203125,104.98046875,0.48828125
1771543739.3794687,103.02734375,69.82421875,-88.37890625,83.49609375,-28.80859375
1771543739.383375,87.890625,62.98828125,-220.21484375,90.8203125,12.20703125
1771543739.3872812,89.35546875,65.4296875,-186.5234375,91.30859375,30.2734375
1771543739.3911874,101.5625,73.2421875,83.49609375,87.40234375,0.9765625
1771543739.3950937,105.95703125,81.0546875,12.20703125,94.7265625,20.5078125
1771543739.396125,66.89453125,78.125,-80.56640625,93.75,76.171875
1771543739.4000313,69.3359375,73.73046875,40.52734375,94.23828125,81.0546875
1771543739.4039376,109.86328125,102.5390625,112.79296875,94.23828125,67.3828125
1771543739.4078438,111.328125,100.09765625,-53.22265625,96.19140625,86.42578125
1771543739.41175,83.984375,79.1015625,-205.078125,93.75,46.38671875
1771543739.4156563,60.546875,88.8671875,-128.41796875,84.9609375,-23.4375
1771543739.4195626,72.265625,91.796875,0.48828125,88.37890625,-32.2265625
1771543739.4234688,111.81640625,102.05078125,-42.48046875,69.82421875,-6.34765625
1771543739.427375,121.09375,84.9609375,-176.7578125,84.9609375,73.2421875
1771543739.4312813,62.01171875,80.56640625,-19.53125,87.40234375,62.01171875
1771543739.4351876,55.17578125,99.12109375,163.57421875,80.078125,3.90625
1771543739.4390938,103.515625,96.19140625,104.4921875,78.125,76.171875
1771543739.441125,110.3515625,84.9609375,-23.4375,83.984375,74.70703125
1771543739.4450312,98.6328125,85.9375,-12.6953125,129.39453125,41.015625
1771543739.4489374,104.00390625,84.47265625,72.265625,111.81640625,45.41015625
1771543739.4528437,76.66015625,95.21484375,62.98828125,68.84765625,69.3359375
1771543739.45675,60.546875,109.86328125,-38.57421875,66.89453125,83.0078125
1771543739.4606562,71.77734375,87.890625,-149.4140625,60.05859375,54.19921875
1771543739.4645624,81.0546875,91.30859375,-98.14453125,48.828125,45.41015625
1771543739.4684687,93.75,90.33203125,-92.28515625,46.38671875,62.98828125
1771543739.472375,87.890625,88.37890625,-108.88671875,49.31640625,74.70703125
1771543739.4762812,65.4296875,111.328125,12.6953125,55.6640625,59.08203125
1771543739.4801874,60.05859375,92.7734375,42.48046875,48.33984375,30.76171875
1771543739.4840937,43.9453125,68.84765625,-45.41015625,39.0625,0.0
1771543739.502125,34.1796875,77.1484375,-15.625,38.57421875,4.8828125
1771543739.5060313,24.4140625,95.703125,87.890625,34.66796875,26.85546875
1771543739.5099375,-3.41796875,84.9609375,14.6484375,2.44140625,22.94921875
1771543739.5138438,-12.6953125,86.42578125,78.125,2.9296875,45.41015625
1771543739.51775,2.44140625,86.9140625,126.953125,13.18359375,27.83203125
1771543739.5216563,-14.16015625,80.56640625,-34.66796875,-15.625,-1.46484375
1771543739.5255625,-37.109375,78.61328125,-136.71875,-36.62109375,23.4375
1771543739.5294688,-39.55078125,60.05859375,-178.7109375,-22.4609375,-4.8828125
1771543739.533375,-48.828125,72.265625,-30.2734375,-29.78515625,-47.36328125
1771543739.5372813,-30.76171875,83.49609375,72.75390625,-45.41015625,-30.2734375
1771543739.5411875,-28.3203125,92.28515625,-126.46484375,-50.29296875,1.953125
1771543739.5450938,-20.99609375,83.49609375,-133.30078125,-15.13671875,4.39453125
1771543739.532125,14.16015625,67.3828125,125.48828125,12.20703125,40.0390625
1771543739.5360312,22.4609375,76.171875,68.359375,-0.9765625,41.50390625
1771543739.5399375,26.3671875,99.12109375,-111.81640625,9.27734375,43.9453125
1771543739.5438437,25.390625,101.5625,-86.9140625,7.32421875,44.921875
1771543739.54775,28.3203125,67.87109375,74.21875,-18.5546875,72.75390625
1771543739.5516562,48.828125,67.87109375,-21.97265625,11.23046875,118.65234375
1771543739.5555625,77.1484375,76.171875,-169.921875,54.19921875,58.59375
1771543739.5594687,64.453125,76.66015625,-105.95703125,49.8046875,-15.625
1771543739.563375,54.6875,75.1953125,34.1796875,89.84375,13.18359375
1771543739.5672812,77.1484375,73.2421875,105.95703125,91.30859375,77.1484375
1771543739.5711875,76.66015625,82.03125,-208.49609375,105.46875,43.45703125
1771543739.5750937,73.2421875,87.40234375,-363.28125,126.46484375,-57.12890625
1771543739.577125,98.6328125,68.359375,36.1328125,117.1875,-25.390625
1771543739.5810313,112.79296875,68.84765625,137.6953125,129.39453125,5.37109375
1771543739.5849376,109.375,68.84765625,-22.4609375,120.1171875,-14.6484375
1771543739.5888438,137.6953125,69.3359375,-40.52734375,121.58203125,-6.34765625
1771543739.59275,144.04296875,64.94140625,26.85546875,136.71875,-18.5546875
1771543739.5966563,144.04296875,59.08203125,-5.859375,126.953125,-37.109375
1771543739.6005626,152.83203125,62.01171875,-170.8984375,128.90625,-4.8828125
1771543739.6044688,147.94921875,57.6171875,-52.24609375,157.71484375,83.0078125
1771543739.608375,149.4140625,63.4765625,88.8671875,132.8125,66.40625
1771543739.6122813,140.625,56.640625,65.4296875,117.67578125,22.4609375
1771543739.6161876,148.4375,47.36328125,61.03515625,174.8046875,40.0390625
1771543739.6200938,156.25,41.50390625,25.390625,201.171875,53.7109375
1771543739.622125,132.8125,59.08203125,-37.109375,169.921875,45.8984375
1771543739.6260312,115.234375,52.734375,-50.29296875,122.55859375,27.83203125
1771543739.6299374,143.06640625,64.94140625,19.04296875,129.39453125,42.96875
1771543739.6338437,153.80859375,90.8203125,50.29296875,167.48046875,62.98828125
1771543739.63775,169.43359375,65.91796875,-14.16015625,156.73828125,60.05859375
1771543739.6416562,175.29296875,69.3359375,-47.8515625,142.578125,45.8984375
1771543739.6455624,155.76171875,68.359375,-14.6484375,137.20703125,32.2265625
1771543739.6494687,172.8515625,71.77734375,20.99609375,108.3984375,29.78515625
1771543739.653375,185.05859375,76.171875,-11.23046875,115.72265625,12.6953125
1771543739.6572812,160.64453125,71.2890625,-156.25,157.2265625,0.48828125
1771543739.6611874,140.13671875,64.94140625,-39.0625,168.45703125,20.5078125
1771543739.6650937,147.94921875,59.08203125,153.80859375,178.22265625,39.0625
1771543739.682125,161.1328125,63.4765625,6.8359375,180.17578125,46.875
1771543739.6860313,153.3203125,68.359375,-41.015625,163.0859375,59.08203125
1771543739.6899376,144.04296875,68.359375,5.859375,102.5390625,16.11328125
1771543739.6938438,147.4609375,68.84765625,31.25,97.16796875,49.8046875
1771543739.69775,137.20703125,82.03125,-77.1484375,135.25390625,-0.9765625
1771543739.7016563,118.1640625,83.49609375,-333.0078125,100.5859375,-28.80859375
1771543739.7055626,145.99609375,58.59375,-151.3671875,105.46875,-9.765625
1771543739.7094688,152.83203125,55.17578125,154.78515625,137.20703125,-5.859375
1771543739.713375,145.99609375,65.91796875,-26.3671875,122.55859375,9.765625
1771543739.7172813,143.06640625,79.58984375,-155.76171875,109.86328125,-18.06640625
1771543739.7211876,122.55859375,86.9140625,9.27734375,105.95703125,9.765625
1771543739.7250938,122.0703125,70.80078125,86.42578125,106.4453125,37.59765625
1771543739.726125,118.1640625,63.4765625,-76.171875,121.58203125,20.01953125
1771543739.7300313,118.65234375,62.5,-164.55078125,111.328125,8.30078125
1771543739.7339375,116.2109375,63.96484375,-61.03515625,83.984375,6.34765625
1771543739.7378438,95.21484375,61.03515625,52.734375,77.1484375,58.10546875
1771543739.74175,113.28125,74.21875,-13.671875,57.6171875,82.03125
1771543739.7456563,123.53515625,77.1484375,-199.21875,53.7109375,30.76171875
1771543739.7495625,98.6328125,63.96484375,-179.6875,59.08203125,45.41015625
1771543739.7534688,82.51953125,65.4296875,-31.25,67.87109375,73.73046875
1771543739.757375,94.23828125,68.84765625,-151.3671875,85.9375,23.4375
1771543739.7612813,99.609375,65.4296875,-272.94921875,74.70703125,35.15625
1771543739.7651875,58.10546875,66.89453125,-77.1484375,58.59375,9.765625
1771543739.7690938,61.03515625,65.4296875,42.96875,40.0390625,2.44140625
1771543739.771125,63.96484375,72.265625,49.8046875,65.91796875,43.45703125
1771543739.7750313,60.05859375,74.21875,17.08984375,88.37890625,53.22265625
1771543739.7789376,91.796875,72.265625,-55.17578125,75.1953125,21.97265625
1771543739.7828438,95.21484375,79.1015625,-72.75390625,88.37890625,5.37109375
1771543739.78675,80.56640625,64.453125,5.859375,102.05078125,61.03515625
1771543739.7906563,82.51953125,68.359375,-67.87109375,89.84375,42.48046875
1771543739.7945626,83.49609375,77.1484375,-176.7578125,71.2890625,21.97265625
1771543739.7984688,81.54296875,73.73046875,-172.36328125,64.94140625,27.34375
1771543739.802375,102.5390625,73.2421875,-214.35546875,77.63671875,26.3671875
1771543739.8062813,99.609375,83.0078125,-84.47265625,78.125,41.50390625
1771543739.8101876,89.35546875,87.40234375,21.484375,74.70703125,39.55078125
1771543739.8140938,102.05078125,84.47265625,-161.1328125,95.21484375,14.16015625
1771543739.816125,109.86328125,86.9140625,-146.97265625,100.09765625,-18.06640625
1771543739.8200312,120.1171875,86.9140625,19.53125,97.16796875,-8.7890625
1771543739.8239374,134.27734375,78.125,-69.82421875,114.2578125,14.16015625
1771543739.8278437,125.0,71.2890625,-189.94140625,110.3515625,11.71875
1771543739.83175,109.86328125,76.66015625,-93.26171875,104.4921875,58.59375
1771543739.8356562,114.74609375,81.54296875,-56.15234375,114.2578125,70.80078125
1771543739.8395624,120.60546875,70.3125,-141.11328125,104.00390625,25.87890625
1771543739.8434687,108.3984375,67.3828125,-273.4375,92.7734375,60.546875
1771543739.847375,110.3515625,79.1015625,-255.37109375,110.83984375,78.61328125
1771543739.8512812,89.84375,72.75390625,1.46484375,95.703125,53.7109375
1771543739.8551874,76.171875,66.89453125,-71.2890625,90.8203125,37.59765625
1771543739.8590937,113.76953125,76.171875,-222.16796875,128.41796875,32.71484375
1771543739.862125,121.58203125,79.58984375,-138.18359375,103.02734375,50.78125
1771543739.8660312,107.421875,78.61328125,15.625,83.984375,38.57421875
1771543739.8699374,110.3515625,74.70703125,-19.04296875,117.67578125,57.12890625
1771543739.8738437,100.5859375,71.77734375,-142.08984375,126.953125,74.21875
1771543739.87775,94.23828125,68.359375,-170.8984375,98.14453125,-11.23046875
1771543739.8816562,112.3046875,61.03515625,-112.79296875,65.4296875,-1.953125
1771543739.8855624,114.74609375,61.03515625,-103.515625,78.125,77.63671875
1771543739.8894687,108.88671875,55.17578125,-167.96875,98.6328125,74.21875
1771543739.893375,74.70703125,50.29296875,-118.65234375,85.44921875,20.99609375
1771543739.8972812,78.61328125,55.17578125,2.44140625,81.0546875,22.4609375
1771543739.9011874,109.375,57.6171875,-38.57421875,92.28515625,46.38671875
1771543739.9050937,86.42578125,50.78125,-166.50390625,83.984375,78.61328125
1771543739.907125,80.56640625,46.38671875,-132.32421875,76.171875,94.23828125
1771543739.9110312,107.91015625,51.7578125,-69.3359375,76.171875,35.64453125
1771543739.9149375,110.83984375,48.33984375,-77.1484375,84.47265625,19.53125
1771543739.9188437,100.09765625,51.26953125,-72.265625,67.3828125,100.5859375
1771543739.92275,94.23828125,53.7109375,-56.640625,62.01171875,89.35546875
1771543739.9266562,78.125,55.6640625,-192.87109375,75.68359375,-14.6484375
1771543739.9305625,87.40234375,57.12890625,-167.48046875,84.9609375,30.2734375
1771543739.9344687,95.703125,52.734375,-11.71875,57.12890625,90.33203125
1771543739.938375,62.5,61.03515625,-27.34375,30.2734375,40.0390625
1771543739.9422812,86.42578125,62.98828125,-117.1875,92.28515625,4.8828125
1771543739.9461875,103.02734375,44.921875,-118.1640625,94.23828125,-20.99609375
1771543739.9500937,104.98046875,48.828125,-29.296875,68.84765625,36.1328125
1771543739.968125,105.95703125,63.96484375,-26.85546875,68.359375,52.24609375
1771543739.9720314,77.63671875,59.08203125,-111.328125,64.453125,4.8828125
1771543739.9759376,72.265625,46.875,-244.62890625,81.0546875,43.45703125
1771543739.9798439,99.12109375,62.01171875,-136.71875,69.3359375,43.9453125
1771543739.98375,105.95703125,78.61328125,59.5703125,53.7109375,24.4140625
1771543739.9876564,95.703125,75.1953125,-162.59765625,62.5,-0.48828125
1771543739.9915626,68.84765625,61.03515625,-158.69140625,71.2890625,62.5
1771543739.9954689,80.56640625,59.5703125,82.51953125,43.9453125,51.7578125
1771543739.999375,109.86328125,68.84765625,87.40234375,23.92578125,-4.8828125
1771543740.0032814,110.3515625,66.40625,-113.28125,79.58984375,24.4140625
1771543740.0071876,76.66015625,50.78125,-201.171875,83.984375,55.6640625
1771543740.0110939,69.3359375,54.19921875,45.41015625,69.3359375,57.12890625
1771543740.012125,119.140625,62.5,139.6484375,66.40625,67.3828125
1771543740.0160313,87.890625,57.6171875,-21.484375,79.58984375,81.0546875
1771543740.0199375,74.70703125,52.24609375,-117.67578125,71.2890625,7.32421875
1771543740.0238438,85.44921875,58.10546875,-7.32421875,44.43359375,6.8359375
1771543740.02775,86.9140625,59.5703125,52.24609375,67.87109375,23.92578125
1771543740.0316563,120.60546875,45.8984375,-85.9375,86.42578125,52.734375
1771543740.0355625,98.14453125,48.33984375,-217.7734375,63.96484375,46.875
1771543740.0394688,73.2421875,53.7109375,-66.89453125,56.15234375,85.9375
1771543740.043375,85.44921875,48.33984375,95.21484375,48.828125,83.984375
1771543740.0472813,83.0078125,47.8515625,-169.921875,61.03515625,16.6015625
1771543740.0511875,77.1484375,51.26953125,-337.890625,79.58984375,9.27734375
1771543740.0550938,74.70703125,54.6875,-64.94140625,78.61328125,7.8125
1771543740.056125,74.21875,52.24609375,54.19921875,38.57421875,1.953125
1771543740.0600312,88.37890625,55.6640625,-29.78515625,38.0859375,-3.41796875
1771543740.0639374,77.1484375,56.15234375,-85.9375,69.3359375,18.5546875
1771543740.0678437,60.546875,57.12890625,-68.84765625,70.80078125,48.33984375
1771543740.07175,61.03515625,57.6171875,-35.64453125,58.10546875,50.78125
1771543740.0756562,87.890625,56.640625,-94.7265625,67.87109375,17.578125
1771543740.0795624,82.03125,60.05859375,-135.7421875,73.73046875,2.9296875
1771543740.0834687,46.875,60.546875,-139.6484375,55.6640625,-4.8828125
1771543740.087375,49.31640625,62.01171875,-116.2109375,42.96875,-1.953125
1771543740.0912812,58.10546875,66.89453125,-185.05859375,35.15625,50.78125
1771543740.0951874,48.33984375,70.3125,-139.6484375,46.875,38.0859375
1771543740.0990937,49.8046875,75.68359375,-13.18359375,36.1328125,39.55078125
1771543740.102125,52.734375,74.21875,-62.98828125,31.25,81.54296875
1771543740.1060312,31.25,61.5234375,-5.37109375,30.76171875,52.734375
1771543740.1099374,3.41796875,69.82421875,55.17578125,19.04296875,66.89453125
1771543740.1138437,0.0,67.87109375,-46.38671875,11.71875,71.2890625
1771543740.11775,13.18359375,60.05859375,-102.5390625,-8.7890625,27.83203125
1771543740.1216562,-11.71875,67.3828125,-39.0625,-62.5,28.80859375
1771543740.1255624,-41.9921875,66.89453125,-17.578125,-85.9375,30.76171875
1771543740.1294687,-90.8203125,73.2421875,-12.20703125,-93.26171875,34.1796875
1771543740.133375,-116.69921875,73.2421875,-154.78515625,-76.66015625,60.546875
1771543740.1372812,-119.62890625,74.70703125,-187.98828125,-145.01953125,53.7109375
1771543740.1411874,-75.68359375,78.61328125,48.33984375,-145.99609375,10.7421875
1771543740.1450937,-58.59375,75.1953125,-9.27734375,-48.828125,3.90625
1771543740.147125,-83.984375,76.171875,-163.0859375,-103.02734375,35.15625
1771543740.1510313,-66.89453125,75.1953125,-61.03515625,-109.375,58.59375
1771543740.1549375,-57.12890625,82.03125,65.91796875,-24.4140625,57.6171875
1771543740.1588438,-0.9765625,83.984375,-87.890625,-17.08984375,28.3203125
1771543740.16275,6.8359375,84.9609375,-266.11328125,-31.25,39.0625
1771543740.1666563,-24.4140625,84.9609375,-257.8125,-45.8984375,16.6015625
1771543740.1705625,18.5546875,73.2421875,-116.2109375,-4.39453125,43.9453125
1771543740.1744688,51.26953125,77.63671875,-150.390625,37.109375,57.12890625
1771543740.178375,44.43359375,78.125,-316.89453125,55.6640625,13.18359375
1771543740.1822813,35.64453125,75.1953125,-215.8203125,47.36328125,5.859375
1771543740.1861875,54.6875,87.40234375,-46.38671875,40.52734375,41.50390625
1771543740.1900938,70.3125,87.890625,-176.26953125,73.73046875,31.73828125
1771543740.191125,84.9609375,81.54296875,-405.76171875,76.171875,-8.30078125
1771543740.1950312,74.21875,84.47265625,-235.3515625,47.36328125,16.11328125
1771543740.1989374,80.078125,84.9609375,-83.984375,71.2890625,1.46484375
1771543740.2028437,89.35546875,82.51953125,-100.5859375,53.7109375,20.99609375
1771543740.20675,91.796875,81.54296875,-163.0859375,71.2890625,47.36328125
1771543740.2106562,108.88671875,82.51953125,-258.7890625,138.18359375,44.43359375
1771543740.2145624,84.9609375,80.56640625,-191.89453125,118.1640625,5.859375
1771543740.2184687,88.37890625,83.0078125,-178.22265625,87.40234375,18.5546875
1771543740.222375,104.00390625,83.49609375,-264.6484375,94.23828125,40.0390625
1771543740.2262812,86.42578125,81.0546875,-143.5546875,75.68359375,32.71484375
1771543740.2301874,78.125,83.49609375,-137.20703125,29.296875,46.875
1771543740.2340937,82.51953125,77.63671875,-125.48828125,37.59765625,20.5078125
1771543740.238125,85.44921875,72.265625,-89.84375,77.1484375,14.16015625
1771543740.2420313,97.16796875,82.51953125,-168.45703125,127.44140625,0.48828125
1771543740.2459376,100.5859375,82.51953125,-270.99609375,102.05078125,10.7421875
1771543740.2498438,90.8203125,82.03125,-232.421875,85.9375,5.859375
1771543740.25375,106.4453125,89.35546875,-101.07421875,98.6328125,-23.4375
1771543740.2576563,108.88671875,88.8671875,-159.1796875,138.671875,44.921875
1771543740.2615626,105.46875,90.33203125,-306.640625,82.03125,41.50390625
1771543740.2654688,106.93359375,91.796875,-338.37890625,42.48046875,-20.5078125
1771543740.269375,105.46875,94.23828125,-89.35546875,113.28125,4.39453125
1771543740.2732813,113.76953125,94.7265625,-15.625,100.09765625,23.4375
1771543740.2771876,96.19140625,94.7265625,-203.125,93.75,22.4609375
1771543740.2810938,84.47265625,92.7734375,-181.640625,124.51171875,22.4609375
1771543740.282125,87.40234375,94.7265625,-26.85546875,102.05078125,25.87890625
1771543740.2860312,94.7265625,97.16796875,-74.21875,78.125,41.015625
1771543740.2899375,97.65625,89.35546875,-234.375,119.62890625,47.8515625
1771543740.2938437,102.05078125,93.26171875,-206.0546875,107.91015625,68.84765625
1771543740.29775,103.515625,94.7265625,-110.83984375,75.1953125,33.69140625
1771543740.3016562,104.98046875,93.26171875,-166.015625,95.21484375,8.30078125
1771543740.3055625,97.16796875,84.9609375,-368.1640625,70.3125,28.3203125
1771543740.3094687,81.0546875,76.171875,-417.96875,83.49609375,46.875
1771543740.313375,93.75,86.42578125,-103.02734375,116.69921875,19.53125
1771543740.3172812,101.07421875,86.9140625,0.0,96.19140625,1.46484375
1771543740.3211875,102.5390625,79.1015625,-169.43359375,108.88671875,-3.41796875
1771543740.3250937,102.5390625,83.49609375,-218.26171875,113.28125,-12.20703125
1771543740.327125,98.6328125,86.42578125,-129.39453125,75.68359375,-4.39453125
1771543740.3310313,94.7265625,85.9375,-78.61328125,104.00390625,36.62109375
1771543740.3349376,87.890625,82.03125,-169.921875,128.41796875,78.125
1771543740.3388438,73.2421875,80.56640625,-227.05078125,86.42578125,65.91796875
1771543740.34275,63.4765625,78.61328125,-174.31640625,76.171875,80.56640625
1771543740.3466563,73.2421875,76.66015625,-220.21484375,116.69921875,9.27734375
1771543740.3505626,69.3359375,81.0546875,-362.79296875,41.9921875,42.48046875
1771543740.3544688,74.21875,83.49609375,-341.30859375,62.98828125,71.77734375
1771543740.358375,78.125,85.9375,-178.22265625,158.69140625,10.7421875
1771543740.3622813,75.1953125,86.42578125,-127.9296875,123.53515625,66.40625
1771543740.3661876,72.265625,88.37890625,-221.19140625,87.40234375,50.29296875
1771543740.3700938,68.359375,87.890625,-233.88671875,68.359375,30.76171875
1771543740.387125,71.2890625,92.7734375,-217.7734375,116.69921875,51.7578125
1771543740.3910313,51.7578125,91.30859375,-202.63671875,44.43359375,44.43359375
1771543740.3949375,42.48046875,86.42578125,-162.109375,44.43359375,22.94921875
1771543740.3988438,55.17578125,95.21484375,-181.640625,107.421875,19.04296875
1771543740.40275,68.84765625,100.5859375,-274.4140625,110.83984375,34.1796875
1771543740.4066563,54.19921875,90.8203125,-331.54296875,102.5390625,-18.5546875
1771543740.4105625,48.33984375,93.26171875,-230.95703125,68.359375,13.18359375
1771543740.4144688,48.828125,97.16796875,-150.390625,86.42578125,82.51953125
1771543740.418375,34.66796875,92.28515625,-200.68359375,70.3125,61.5234375
1771543740.4222813,34.1796875,95.703125,-403.3203125,53.7109375,10.25390625
1771543740.4261875,20.5078125,99.609375,-341.796875,70.3125,20.5078125
1771543740.4300938,25.390625,102.5390625,-83.0078125,45.8984375,34.66796875
1771543740.431125,46.38671875,100.5859375,-217.7734375,19.53125,0.48828125
1771543740.4350312,43.9453125,98.6328125,-261.71875,72.75390625,59.08203125
1771543740.4389374,46.875,104.00390625,-88.37890625,104.98046875,110.3515625
1771543740.4428437,57.6171875,108.3984375,-94.7265625,118.1640625,19.04296875
1771543740.44675,45.8984375,104.98046875,-240.72265625,104.4921875,34.1796875
1771543740.4506562,38.0859375,94.23828125,-373.53515625,83.984375,53.7109375
1771543740.4545624,43.9453125,91.30859375,-275.390625,71.2890625,47.8515625
1771543740.4584687,59.08203125,101.07421875,-91.796875,36.62109375,58.59375
1771543740.462375,49.31640625,90.33203125,-221.6796875,51.26953125,33.203125
1771543740.4662812,43.9453125,83.0078125,-463.37890625,89.84375,10.25390625
1771543740.4701874,36.62109375,86.9140625,-250.0,68.359375,-0.48828125
1771543740.4740937,19.53125,77.63671875,-9.27734375,87.890625,-2.9296875
1771543740.477125,45.8984375,78.125,-226.5625,85.9375,-27.34375
1771543740.4810312,56.640625,81.0546875,-306.15234375,51.26953125,16.6015625
1771543740.4849374,34.66796875,74.70703125,-142.578125,68.84765625,34.66796875
1771543740.4888437,39.0625,77.1484375,-79.1015625,83.49609375,-11.23046875
1771543740.49275,56.15234375,83.984375,-156.73828125,83.984375,8.30078125
1771543740.4966562,61.5234375,79.58984375,-282.2265625,95.703125,48.33984375
1771543740.5005624,53.22265625,73.73046875,-286.1328125,90.8203125,21.97265625
1771543740.5044687,39.55078125,70.3125,-166.015625,56.15234375,-11.71875
1771543740.508375,32.71484375,60.05859375,-128.90625,46.875,22.94921875
1771543740.5122812,36.62109375,62.98828125,-192.87109375,51.7578125,36.62109375
1771543740.5161874,49.31640625,71.77734375,-163.0859375,79.1015625,43.9453125
1771543740.5200937,60.546875,69.82421875,-143.5546875,69.3359375,24.90234375
1771543740.539125,65.4296875,67.3828125,-209.9609375,65.91796875,-5.37109375
1771543740.5430312,62.5,64.94140625,-212.40234375,72.265625,28.3203125
1771543740.5469375,72.265625,64.94140625,-214.84375,63.96484375,89.84375
1771543740.5508437,47.36328125,56.15234375,-257.32421875,76.66015625,53.7109375
1771543740.55475,40.0390625,54.19921875,-230.46875,75.68359375,-32.2265625
1771543740.5586562,48.828125,51.26953125,-203.61328125,43.9453125,36.1328125
1771543740.5625625,80.078125,62.5,-262.6953125,68.84765625,61.5234375
1771543740.5664687,71.2890625,57.6171875,-316.40625,85.44921875,20.01953125
1771543740.570375,56.15234375,55.17578125,-243.1640625,89.35546875,36.62109375
1771543740.5742812,65.4296875,64.453125,-123.53515625,76.171875,29.296875
1771543740.5781875,45.41015625,46.38671875,-176.7578125,59.08203125,27.34375
1771543740.5820937,56.15234375,41.9921875,-361.81640625,74.70703125,15.13671875
1771543740.566125,66.40625,45.41015625,-358.88671875,74.70703125,-0.9765625
1771543740.5700312,70.80078125,44.921875,-102.05078125,45.8984375,53.22265625
1771543740.5739374,67.87109375,42.96875,-161.62109375,70.3125,30.2734375
1771543740.5778437,62.5,42.96875,-382.8125,81.54296875,26.3671875
1771543740.58175,68.84765625,46.38671875,-358.88671875,65.4296875,76.171875
1771543740.5856562,49.31640625,31.73828125,-202.1484375,52.734375,56.15234375
1771543740.5895624,47.8515625,28.3203125,-218.75,59.5703125,80.078125
1771543740.5934687,79.58984375,48.33984375,-344.23828125,84.9609375,65.4296875
1771543740.597375,64.94140625,42.96875,-323.73046875,73.73046875,38.0859375
1771543740.6012812,53.22265625,41.50390625,-162.109375,69.3359375,76.171875
1771543740.6051874,57.6171875,45.41015625,-174.31640625,98.6328125,77.1484375
1771543740.6090937,62.01171875,41.015625,-434.5703125,68.359375,17.08984375
1771543740.612125,49.31640625,40.0390625,-547.8515625,32.71484375,-15.625
1771543740.6160312,46.38671875,46.38671875,-189.94140625,57.12890625,-15.13671875
1771543740.6199374,55.17578125,46.38671875,-72.75390625,66.89453125,-22.4609375
1771543740.6238437,48.33984375,42.48046875,-227.05078125,76.171875,-4.8828125
1771543740.62775,45.8984375,44.43359375,-224.609375,67.87109375,20.5078125
1771543740.6316562,56.15234375,46.38671875,-202.63671875,77.1484375,30.2734375
1771543740.6355624,55.6640625,45.41015625,-190.4296875,79.1015625,34.1796875
1771543740.6394687,62.5,48.33984375,-423.33984375,100.09765625,3.41796875
1771543740.643375,53.7109375,51.26953125,-386.23046875,80.078125,21.97265625
1771543740.6472812,43.9453125,57.6171875,-109.375,62.98828125,9.765625
1771543740.6511874,39.55078125,59.5703125,-111.328125,79.1015625,-13.18359375
1771543740.6550937,38.57421875,54.6875,-161.62109375,66.40625,21.97265625
1771543740.657125,52.24609375,55.17578125,-209.9609375,69.82421875,27.83203125
1771543740.6610312,51.26953125,59.08203125,-226.07421875,55.6640625,25.87890625
1771543740.6649375,35.15625,54.6875,-194.3359375,57.6171875,9.27734375
1771543740.6688437,38.0859375,52.734375,-170.8984375,88.37890625,15.13671875
1771543740.67275,51.26953125,56.640625,-224.609375,97.65625,23.4375
1771543740.6766562,54.6875,56.640625,-291.015625,55.17578125,44.921875
1771543740.6805625,53.7109375,52.734375,-340.33203125,20.01953125,54.19921875
1771543740.6844687,57.6171875,57.12890625,-293.9453125,84.9609375,27.34375
1771543740.688375,56.640625,61.5234375,-157.71484375,97.16796875,41.50390625
1771543740.6922812,49.31640625,50.78125,-283.203125,66.40625,23.92578125
1771543740.6961875,44.921875,43.45703125,-295.8984375,44.43359375,35.64453125
1771543740.7000937,50.29296875,50.78125,-116.2109375,52.24609375,69.3359375
1771543740.701125,48.828125,53.22265625,-114.74609375,66.89453125,96.19140625
1771543740.7050312,41.9921875,53.22265625,-258.30078125,63.96484375,120.1171875
1771543740.7089374,33.203125,49.31640625,-312.5,58.10546875,49.31640625
1771543740.7128437,32.71484375,49.31640625,-179.19921875,40.52734375,13.671875
1771543740.71675,43.9453125,50.29296875,-170.41015625,39.0625,34.66796875
1771543740.7206562,45.41015625,41.9921875,-334.47265625,63.96484375,81.54296875
1771543740.7245624,52.24609375,47.8515625,-505.859375,78.125,46.38671875
1771543740.7284687,53.22265625,52.734375,-274.90234375,60.546875,-8.7890625
1771543740.732375,54.19921875,49.31640625,-65.4296875,41.50390625,16.6015625
1771543740.7362812,55.6640625,52.24609375,-252.44140625,63.4765625,40.0390625
1771543740.7401874,33.69140625,44.921875,-284.1796875,35.15625,68.359375
1771543740.7440937,27.83203125,42.96875,-205.56640625,-7.32421875,25.390625
1771543740.747125,40.0390625,43.45703125,-137.20703125,68.359375,26.3671875
1771543740.7510312,38.57421875,38.0859375,-235.3515625,78.61328125,49.31640625
1771543740.7549374,41.015625,43.9453125,-342.7734375,58.10546875,27.83203125
1771543740.7588437,42.48046875,45.8984375,-165.0390625,69.82421875,39.55078125
1771543740.76275,45.8984375,45.41015625,-66.89453125,62.01171875,29.296875
1771543740.7666562,45.8984375,41.015625,-288.57421875,41.9921875,37.109375
1771543740.7705624,55.6640625,41.9921875,-393.5546875,82.03125,65.4296875
1771543740.7744687,55.17578125,41.015625,-172.36328125,74.21875,28.80859375
1771543740.778375,60.05859375,42.48046875,-93.75,62.01171875,12.20703125
1771543740.7822812,56.15234375,39.0625,-159.66796875,57.6171875,22.94921875
1771543740.7861874,51.7578125,40.0390625,-233.88671875,55.17578125,31.25
1771543740.7900937,44.43359375,42.48046875,-267.578125,31.25,-25.87890625
1771543740.822125,40.52734375,42.48046875,-204.1015625,38.57421875,-77.63671875
1771543740.8260312,49.31640625,49.8046875,-206.0546875,83.0078125,-39.0625
1771543740.8299375,41.9921875,50.78125,-289.55078125,62.5,-12.6953125
1771543740.8338437,39.55078125,52.24609375,-230.46875,67.3828125,20.99609375
1771543740.83775,49.31640625,55.6640625,-186.5234375,71.77734375,-10.25390625
1771543740.8416562,48.828125,47.8515625,-324.21875,52.734375,21.484375
1771543740.8455625,48.33984375,50.29296875,-318.84765625,38.57421875,62.5
1771543740.8494687,48.33984375,55.6640625,-152.83203125,70.80078125,57.6171875
1771543740.853375,48.33984375,51.26953125,-184.5703125,74.21875,66.89453125
1771543740.8572812,50.78125,52.734375,-155.76171875,46.875,69.3359375
1771543740.8611875,48.828125,55.17578125,-98.14453125,54.6875,96.6796875
1771543740.8650937,43.9453125,53.7109375,-204.58984375,32.71484375,80.078125
1771543740.852125,36.1328125,49.31640625,-300.78125,30.2734375,32.2265625
1771543740.8560312,42.96875,50.29296875,-191.89453125,74.70703125,42.96875
1771543740.8599374,45.8984375,52.24609375,-99.609375,72.75390625,66.40625
1771543740.8638437,51.7578125,57.6171875,-192.3828125,44.921875,101.5625
1771543740.86775,52.24609375,59.08203125,-334.9609375,27.83203125,84.9609375
1771543740.8716562,51.7578125,60.05859375,-319.3359375,70.80078125,23.92578125
1771543740.8755624,40.52734375,54.6875,-154.78515625,52.734375,56.15234375
1771543740.8794687,29.296875,54.19921875,-169.43359375,33.69140625,68.84765625
1771543740.883375,40.52734375,61.5234375,-288.0859375,72.265625,67.3828125
1771543740.8872812,39.55078125,61.5234375,-256.8359375,62.98828125,11.71875
1771543740.8911874,49.31640625,69.3359375,-138.671875,65.4296875,-15.625
1771543740.8950937,52.24609375,67.3828125,-161.1328125,44.921875,65.4296875
1771543740.911125,41.015625,57.6171875,-471.19140625,41.50390625,34.66796875
1771543740.9150312,33.69140625,60.546875,-504.39453125,13.671875,-13.671875
1771543740.9189374,41.9921875,64.453125,-149.90234375,34.1796875,-33.203125
1771543740.9228437,49.8046875,60.05859375,-137.20703125,89.35546875,11.71875
1771543740.92675,41.9921875,58.10546875,-298.33984375,73.2421875,33.203125
1771543740.9306562,29.78515625,56.640625,-327.63671875,42.96875,15.625
1771543740.9345624,30.2734375,58.10546875,-242.1875,39.0625,23.92578125
1771543740.9384687,37.59765625,56.640625,-212.40234375,55.17578125,51.7578125
1771543740.942375,40.0390625,53.22265625,-436.03515625,51.26953125,70.3125
1771543740.9462812,49.8046875,57.12890625,-386.71875,59.5703125,22.94921875
1771543740.9501874,50.78125,67.87109375,-85.9375,40.0390625,5.37109375
1771543740.9540937,35.15625,71.2890625,-126.953125,20.5078125,0.0
1771543740.942125,32.71484375,71.77734375,-254.39453125,30.76171875,-27.83203125
1771543740.9460313,30.76171875,71.2890625,-232.91015625,38.0859375,32.71484375
1771543740.9499376,10.25390625,63.96484375,-189.94140625,0.9765625,47.8515625
1771543740.9538438,3.90625,64.453125,-175.29296875,-20.99609375,50.29296875
1771543740.95775,16.11328125,64.94140625,-231.4453125,15.625,61.03515625
1771543740.9616563,12.20703125,62.5,-343.75,33.69140625,23.4375
1771543740.9655626,-2.9296875,54.6875,-378.41796875,-4.8828125,-18.5546875
1771543740.9694688,-4.39453125,56.640625,-250.48828125,-22.94921875,19.04296875
1771543740.973375,4.8828125,62.98828125,-153.80859375,21.97265625,87.890625
1771543740.9772813,5.859375,53.22265625,-277.34375,9.765625,30.76171875
1771543740.9811876,10.7421875,53.7109375,-286.1328125,14.6484375,-28.3203125
1771543740.9850938,15.13671875,53.7109375,-326.171875,19.04296875,-19.04296875
1771543741.002125,28.80859375,55.17578125,-354.98046875,16.11328125,6.8359375
1771543741.0060313,37.109375,60.546875,-165.52734375,32.2265625,57.6171875
1771543741.0099375,19.53125,59.5703125,-198.73046875,19.53125,83.49609375
1771543741.0138438,22.4609375,63.96484375,-198.73046875,36.1328125,73.73046875
1771543741.01775,38.0859375,63.4765625,-117.67578125,47.36328125,22.4609375
1771543741.0216563,32.71484375,59.08203125,-234.86328125,48.33984375,18.5546875
1771543741.0255625,27.83203125,58.59375,-365.72265625,51.26953125,58.10546875
1771543741.0294688,32.2265625,59.5703125,-419.43359375,37.59765625,27.34375
1771543741.033375,29.296875,59.5703125,-204.1015625,44.921875,-3.90625
1771543741.0372813,35.15625,57.6171875,-82.51953125,50.78125,35.64453125
1771543741.0411875,32.71484375,57.12890625,-270.5078125,43.45703125,45.8984375
1771543741.0450938,17.08984375,57.12890625,-311.03515625,20.01953125,30.76171875
1771543741.032125,27.83203125,59.5703125,-154.78515625,20.01953125,24.90234375
1771543741.0360312,35.64453125,59.08203125,-140.13671875,33.69140625,9.27734375
1771543741.0399375,44.43359375,58.10546875,-315.91796875,58.59375,15.13671875
1771543741.0438437,47.36328125,60.546875,-317.3828125,71.77734375,25.87890625
1771543741.04775,47.8515625,67.87109375,-128.41796875,74.70703125,55.17578125
1771543741.0516562,51.7578125,62.98828125,-181.640625,66.89453125,60.05859375
1771543741.0555625,54.6875,61.5234375,-371.58203125,65.91796875,2.44140625
1771543741.0594687,55.17578125,64.94140625,-306.640625,48.33984375,26.85546875
1771543741.063375,56.15234375,65.4296875,-154.78515625,41.015625,78.125
1771543741.0672812,57.12890625,67.3828125,-104.98046875,75.1953125,20.99609375
1771543741.0711875,57.6171875,59.08203125,-344.7265625,52.24609375,15.625
1771543741.0750937,56.15234375,57.6171875,-469.23828125,67.3828125,28.80859375
1771543741.077125,45.8984375,66.40625,-165.52734375,85.9375,38.57421875
1771543741.0810313,47.8515625,64.94140625,-93.75,60.546875,42.96875
1771543741.0849376,50.78125,64.453125,-218.26171875,34.1796875,56.640625
1771543741.0888438,61.03515625,71.77734375,-233.3984375,75.68359375,61.5234375
1771543741.09275,65.4296875,70.80078125,-212.40234375,91.30859375,-9.27734375
1771543741.0966563,57.12890625,63.96484375,-223.14453125,82.51953125,6.8359375
1771543741.1005626,59.08203125,60.05859375,-212.40234375,82.51953125,57.6171875
1771543741.1044688,58.59375,53.7109375,-197.265625,60.546875,45.8984375
1771543741.108375,42.96875,47.8515625,-192.87109375,64.453125,42.96875
1771543741.1122813,43.45703125,52.24609375,-266.6015625,62.98828125,-6.34765625
1771543741.1161876,51.26953125,48.828125,-284.1796875,80.078125,38.0859375
1771543741.1200938,45.8984375,47.36328125,-182.6171875,63.4765625,62.98828125
1771543741.137125,40.52734375,51.7578125,-168.9453125,43.9453125,65.4296875
1771543741.1410313,40.52734375,49.31640625,-200.68359375,71.77734375,75.68359375
1771543741.1449375,49.8046875,48.828125,-136.71875,75.68359375,70.3125
1771543741.1488438,55.6640625,51.26953125,-139.6484375,51.7578125,95.21484375
1771543741.15275,56.640625,52.734375,-283.203125,37.59765625,68.84765625
1771543741.1566563,60.546875,55.17578125,-374.51171875,57.6171875,79.58984375
1771543741.1605625,60.05859375,52.24609375,-396.97265625,63.4765625,62.01171875
1771543741.1644688,62.98828125,53.7109375,-207.03125,60.546875,2.44140625
1771543741.168375,76.66015625,54.19921875,-158.203125,72.75390625,11.71875
1771543741.1722813,70.80078125,51.7578125,-280.2734375,77.63671875,20.5078125
1771543741.1761875,62.01171875,53.7109375,-168.45703125,38.57421875,-1.953125
1771543741.1800938,67.3828125,54.6875,-34.66796875,67.87109375,27.34375
1771543741.182125,69.3359375,54.19921875,-174.8046875,102.5390625,50.29296875
1771543741.1860313,67.3828125,56.640625,-279.78515625,62.01171875,44.921875
1771543741.1899376,60.05859375,57.6171875,-150.390625,36.62109375,62.98828125
1771543741.1938438,56.640625,55.6640625,-65.4296875,65.91796875,58.59375
1771543741.19775,54.19921875,50.29296875,-222.65625,79.1015625,9.765625
1771543741.2016563,49.8046875,47.8515625,-414.0625,50.29296875,-41.9921875
1771543741.2055626,43.45703125,49.31640625,-346.6796875,45.8984375,-46.38671875
1771543741.2094688,39.0625,52.734375,-101.5625,55.17578125,7.8125
1771543741.213375,43.9453125,50.29296875,-214.84375,14.6484375,-17.578125
1771543741.2172813,43.9453125,44.921875,-427.734375,21.97265625,9.765625
1771543741.2211876,29.296875,48.33984375,-237.79296875,30.2734375,65.4296875
1771543741.2250938,33.69140625,52.24609375,-61.5234375,27.34375,51.26953125
1771543741.230125,42.48046875,49.31640625,-197.265625,40.52734375,37.59765625
1771543741.2340312,46.875,48.33984375,-345.703125,25.390625,33.69140625
1771543741.2379375,47.36328125,50.78125,-220.21484375,59.08203125,3.41796875
1771543741.2418437,37.109375,51.26953125,-74.21875,70.80078125,47.8515625
1771543741.24575,39.0625,47.36328125,-110.3515625,38.57421875,59.5703125
1771543741.2496562,50.29296875,45.8984375,-291.015625,36.1328125,16.6015625
1771543741.2535625,50.78125,51.26953125,-331.0546875,60.05859375,-9.765625
1771543741.2574687,39.0625,49.31640625,-157.2265625,52.24609375,17.578125
1771543741.261375,40.52734375,51.26953125,-143.5546875,50.29296875,51.26953125
1771543741.2652812,41.015625,50.78125,-234.86328125,55.6640625,46.38671875
1771543741.2691875,41.50390625,51.7578125,-230.46875,34.66796875,11.71875
1771543741.2730937,32.2265625,49.8046875,-189.453125,3.41796875,18.06640625
1771543741.272125,47.8515625,56.15234375,-154.78515625,32.71484375,16.6015625
1771543741.2760313,57.12890625,59.5703125,-143.5546875,78.61328125,47.36328125
1771543741.2799375,57.12890625,57.12890625,-192.3828125,72.265625,61.5234375
1771543741.2838438,53.7109375,57.6171875,-232.421875,49.31640625,32.2265625
1771543741.28775,48.828125,54.19921875,-320.80078125,43.45703125,57.12890625
1771543741.2916563,55.6640625,54.19921875,-335.44921875,53.7109375,26.85546875
1771543741.2955625,56.640625,59.5703125,-238.28125,56.15234375,-5.37109375
1771543741.2994688,42.96875,56.640625,-256.34765625,31.73828125,4.39453125
1771543741.303375,44.921875,53.7109375,-280.2734375,27.34375,32.2265625
1771543741.3072813,60.546875,64.453125,-114.74609375,47.36328125,23.92578125
1771543741.3111875,54.19921875,69.3359375,-52.734375,31.73828125,45.41015625
1771543741.3150938,45.8984375,60.05859375,-287.59765625,38.57421875,52.734375
1771543741.316125,39.55078125,61.5234375,-265.625,25.87890625,11.23046875
1771543741.3200312,53.7109375,72.75390625,-48.828125,37.109375,-3.41796875
1771543741.3239374,70.80078125,68.84765625,-92.28515625,76.171875,39.55078125
1771543741.3278437,65.91796875,62.98828125,-239.74609375,66.40625,54.6875
1771543741.33175,48.828125,62.98828125,-246.58203125,51.26953125,-13.18359375
1771543741.3356562,59.08203125,69.3359375,-182.12890625,33.69140625,-21.97265625
1771543741.3395624,76.66015625,75.68359375,-113.28125,59.08203125,63.96484375
1771543741.3434687,70.3125,72.75390625,-279.296875,98.14453125,91.30859375
1771543741.347375,60.546875,70.3125,-388.18359375,73.73046875,22.4609375
1771543741.3512812,57.12890625,77.63671875,-58.59375,53.22265625,16.11328125
1771543741.3551874,62.5,81.0546875,0.48828125,65.4296875,77.63671875
1771543741.3590937,51.7578125,68.359375,-166.9921875,64.453125,83.984375
1771543741.362125,42.96875,70.80078125,-216.796875,41.9921875,14.16015625
1771543741.3660312,55.17578125,76.171875,-135.25390625,32.2265625,26.3671875
1771543741.3699374,50.29296875,65.91796875,-95.21484375,52.734375,77.1484375
1771543741.3738437,52.24609375,66.89453125,-216.796875,71.2890625,58.10546875
1771543741.37775,57.12890625,67.87109375,-241.69921875,70.3125,49.31640625
1771543741.3816562,51.7578125,54.6875,-181.640625,59.5703125,51.26953125
1771543741.3855624,45.8984375,49.8046875,-151.3671875,48.33984375,57.12890625
1771543741.3894687,52.24609375,53.22265625,-293.45703125,68.84765625,36.62109375
1771543741.393375,55.17578125,51.7578125,-266.11328125,71.77734375,-0.48828125
1771543741.3972812,37.59765625,48.33984375,-75.1953125,42.48046875,1.953125
1771543741.4011874,37.109375,49.8046875,-56.15234375,52.734375,29.296875
1771543741.4050937,43.45703125,45.41015625,-120.60546875,55.17578125,-6.34765625
1771543741.407125,33.203125,37.109375,-147.94921875,45.41015625,3.41796875
1771543741.4110312,25.87890625,36.1328125,-150.87890625,56.15234375,51.26953125
1771543741.4149375,30.2734375,37.59765625,-124.51171875,56.640625,38.57421875
1771543741.4188437,41.015625,38.0859375,-87.890625,44.921875,65.91796875
1771543741.42275,41.015625,32.71484375,-192.87109375,29.296875,44.921875
1771543741.4266562,36.1328125,28.3203125,-295.41015625,50.29296875,-37.59765625
1771543741.4305625,23.4375,25.390625,-312.01171875,32.2265625,-31.25
1771543741.4344687,29.296875,23.4375,-262.20703125,20.5078125,30.2734375
1771543741.438375,49.31640625,32.71484375,-97.65625,62.98828125,49.31640625
1771543741.4422812,40.52734375,31.25,-119.62890625,49.8046875,10.7421875
1771543741.4461875,25.87890625,23.92578125,-122.55859375,36.62109375,41.9921875
1771543741.4500937,35.64453125,27.34375,-2.44140625,49.31640625,86.42578125
1771543741.452125,48.33984375,26.85546875,-51.7578125,52.734375,43.9453125
1771543741.4560313,39.0625,23.4375,-194.82421875,58.10546875,26.85546875
1771543741.4599376,27.34375,26.3671875,-233.3984375,58.59375,26.3671875
1771543741.4638438,29.296875,27.83203125,-90.8203125,50.78125,20.5078125
1771543741.46775,41.9921875,25.390625,-65.4296875,61.5234375,-5.37109375
1771543741.4716563,43.9453125,20.5078125,-250.48828125,37.109375,-12.20703125
1771543741.4755626,34.1796875,15.625,-425.29296875,10.7421875,57.6171875
1771543741.4794688,26.85546875,16.11328125,-187.5,34.1796875,114.2578125
1771543741.483375,27.83203125,15.13671875,62.5,33.203125,69.3359375
1771543741.4872813,38.57421875,16.11328125,-157.2265625,39.55078125,28.80859375
1771543741.4911876,27.34375,14.6484375,-229.98046875,24.4140625,79.1015625
1771543741.4950938,4.39453125,12.6953125,-55.17578125,0.0,96.6796875
1771543741.511125,28.80859375,24.4140625,-10.25390625,24.90234375,59.5703125
1771543741.5150313,32.2265625,15.13671875,-137.6953125,19.04296875,50.29296875
1771543741.5189376,23.4375,12.6953125,-228.515625,32.71484375,39.55078125
1771543741.5228438,22.4609375,22.4609375,-137.6953125,41.9921875,47.36328125
1771543741.52675,9.765625,21.97265625,-28.80859375,12.20703125,35.15625
1771543741.5306563,8.30078125,21.484375,-233.3984375,14.6484375,7.8125
1771543741.5345626,5.859375,23.92578125,-348.6328125,14.6484375,16.6015625
1771543741.5384688,-18.5546875,30.76171875,-130.37109375,-17.08984375,3.90625
1771543741.542375,-23.4375,34.66796875,-64.453125,-15.625,18.5546875
1771543741.5462813,-6.8359375,33.69140625,-186.5234375,9.27734375,40.0390625
1771543741.5501876,-6.34765625,39.0625,-187.5,2.44140625,62.01171875
1771543741.5540938,-21.484375,43.45703125,-93.75,-0.48828125,58.10546875
1771543741.571125,-15.13671875,42.96875,-74.70703125,-2.9296875,34.1796875
1771543741.5750313,3.41796875,46.38671875,-50.29296875,-0.9765625,72.75390625
1771543741.5789375,13.18359375,47.8515625,-120.1171875,25.390625,33.203125
1771543741.5828438,16.11328125,51.26953125,-173.828125,30.2734375,-2.44140625
1771543741.58675,2.44140625,47.36328125,-154.78515625,-0.48828125,32.2265625
1771543741.5906563,-1.953125,35.64453125,-172.36328125,1.46484375,26.3671875
1771543741.5945625,20.99609375,42.96875,-172.8515625,21.97265625,17.578125
1771543741.5984688,32.71484375,48.828125,-117.1875,25.87890625,73.73046875
1771543741.602375,26.85546875,47.8515625,-158.69140625,58.59375,74.21875
1771543741.6062813,34.1796875,46.38671875,-234.86328125,39.0625,41.015625
1771543741.6101875,41.9921875,47.8515625,-104.98046875,26.85546875,37.59765625
1771543741.6140938,44.921875,51.7578125,-109.375,55.6640625,31.73828125
1771543741.602125,42.48046875,48.33984375,-206.0546875,51.7578125,40.52734375
1771543741.6060312,45.41015625,52.734375,-112.79296875,34.1796875,25.87890625
1771543741.6099374,53.7109375,58.10546875,-14.6484375,60.546875,8.7890625
1771543741.6138437,58.59375,54.19921875,-86.42578125,82.51953125,30.2734375
1771543741.61775,61.03515625,51.26953125,-247.55859375,71.2890625,41.015625
1771543741.6216562,55.17578125,52.734375,-255.859375,62.01171875,25.390625
1771543741.6255624,58.10546875,57.6171875,-83.0078125,82.03125,24.4140625
1771543741.6294687,54.19921875,56.640625,-64.94140625,60.05859375,50.78125
1771543741.633375,43.9453125,54.19921875,-182.12890625,47.8515625,83.984375
1771543741.6372812,52.734375,54.19921875,-163.0859375,59.5703125,25.87890625
1771543741.6411874,60.05859375,50.78125,-34.66796875,40.0390625,-10.25390625
1771543741.6450937,63.4765625,50.29296875,-97.16796875,67.3828125,3.90625
1771543741.647125,63.4765625,48.828125,-328.61328125,67.3828125,25.390625
1771543741.6510313,56.640625,46.875,-329.1015625,53.22265625,40.0390625
1771543741.6549375,57.12890625,48.828125,-16.6015625,68.359375,6.34765625
1771543741.6588438,67.3828125,50.78125,-33.203125,70.80078125,-3.90625
1771543741.66275,67.87109375,52.734375,-229.98046875,73.2421875,19.04296875
1771543741.6666563,63.4765625,50.29296875,-225.5859375,69.82421875,41.9921875
1771543741.6705625,61.5234375,46.38671875,-80.078125,61.5234375,28.3203125
1771543741.6744688,72.265625,42.48046875,-47.8515625,55.6640625,16.6015625
1771543741.678375,80.56640625,40.52734375,-255.859375,80.56640625,62.01171875
1771543741.6822813,64.453125,40.0390625,-184.08203125,63.4765625,79.58984375
1771543741.6861875,63.4765625,42.96875,-14.6484375,57.6171875,24.90234375
1771543741.6900938,75.68359375,50.29296875,-18.06640625,88.37890625,49.8046875
1771543741.692125,65.91796875,47.8515625,-69.3359375,84.9609375,87.40234375
1771543741.6960313,58.10546875,48.828125,-141.11328125,84.9609375,38.0859375
1771543741.6999376,44.43359375,45.41015625,-117.67578125,54.6875,29.296875
1771543741.7038438,50.78125,46.38671875,-104.98046875,53.22265625,5.859375
1771543741.70775,60.546875,50.29296875,-125.0,78.61328125,16.6015625
1771543741.7116563,52.24609375,42.48046875,-234.86328125,60.546875,11.23046875
1771543741.7155626,54.19921875,43.9453125,-180.6640625,53.7109375,17.08984375
1771543741.7194688,62.01171875,45.8984375,-138.18359375,59.5703125,29.78515625
1771543741.723375,62.5,40.0390625,-259.27734375,55.6640625,2.9296875
1771543741.7272813,55.17578125,41.9921875,-88.37890625,31.25,51.26953125
1771543741.7311876,58.10546875,45.8984375,-66.40625,37.59765625,32.2265625
1771543741.7350938,51.7578125,43.45703125,-51.26953125,54.6875,41.50390625
1771543741.737125,58.59375,49.8046875,15.625,70.3125,37.59765625
1771543741.7410312,60.05859375,52.24609375,-74.21875,79.58984375,-12.6953125
1771543741.7449374,53.7109375,45.41015625,-161.62109375,47.8515625,5.37109375
