timestamps,TP9,AF7,AF8,TP10,Right AUX
1771544504.552125,208.49609375,-139.6484375,35.15625,67.87109375,19.53125
1771544504.5560312,-45.8984375,-200.1953125,33.69140625,-4.39453125,-15.625
1771544504.5599375,-223.14453125,-889.16015625,33.69140625,-64.94140625,-87.40234375
1771544504.5638437,13.671875,-811.5234375,33.69140625,-16.6015625,-4.8828125
1771544504.56775,229.98046875,-57.12890625,32.2265625,45.41015625,65.4296875
1771544504.5716562,74.70703125,-48.33984375,39.0625,32.71484375,22.94921875
1771544504.5755625,-155.76171875,-768.06640625,51.26953125,9.27734375,11.71875
1771544504.5794687,-45.41015625,-954.1015625,34.66796875,-3.41796875,-5.37109375
1771544504.583375,137.20703125,-599.609375,24.90234375,-7.32421875,62.01171875
1771544504.5872812,52.24609375,-28.80859375,36.1328125,-30.2734375,91.796875
1771544504.5911875,-261.71875,-291.50390625,34.1796875,-141.6015625,93.26171875
1771544504.5950937,-298.33984375,-942.3828125,21.484375,-207.03125,78.125
1771544504.597125,-50.78125,-527.83203125,6.34765625,-190.4296875,19.53125
1771544504.6010313,-23.4375,134.765625,7.8125,-187.5,37.59765625
1771544504.6049376,-343.75,-178.22265625,10.7421875,-268.06640625,72.75390625
1771544504.6088438,-488.28125,-946.2890625,9.27734375,-341.796875,20.01953125
1771544504.61275,-258.30078125,-740.234375,-4.39453125,-340.8203125,10.25390625
1771544504.6166563,-107.421875,-41.015625,-13.18359375,-305.6640625,54.19921875
1771544504.6205626,-313.4765625,-156.25,-7.32421875,-335.44921875,58.10546875
1771544504.6244688,-540.52734375,-842.7734375,-5.37109375,-407.71484375,75.68359375
1771544504.628375,-339.84375,-904.78515625,0.0,-375.0,72.75390625
1771544504.6322813,-95.21484375,-96.19140625,0.48828125,-280.2734375,33.69140625
1771544504.6361876,-215.33203125,142.08984375,3.41796875,-279.296875,57.12890625
1771544504.6400938,-492.67578125,-692.3828125,1.46484375,-367.1875,64.453125
1771544504.642125,-356.93359375,-960.9375,-5.859375,-332.51953125,38.57421875
1771544504.6460311,-26.3671875,-250.48828125,2.44140625,-198.73046875,10.25390625
1771544504.6499374,-34.1796875,239.2578125,3.41796875,-171.38671875,0.48828125
1771544504.6538436,-332.51953125,-453.125,0.9765625,-242.67578125,20.01953125
1771544504.65775,-330.078125,-1000.0,8.30078125,-225.09765625,40.52734375
1771544504.6616561,-29.78515625,-539.0625,12.6953125,-130.859375,38.57421875
1771544504.6655624,69.82421875,48.828125,12.20703125,-80.56640625,30.2734375
1771544504.6694686,-175.78125,-428.22265625,15.13671875,-125.9765625,50.78125
1771544504.673375,-314.453125,-1000.0,15.13671875,-164.55078125,15.625
1771544504.6772811,-40.0390625,-600.09765625,15.13671875,-94.23828125,-14.16015625
1771544504.6811874,160.15625,225.09765625,19.04296875,-20.01953125,63.4765625
1771544504.6850936,-41.015625,212.40234375,17.578125,-50.78125,57.12890625
1771544504.687125,-280.2734375,-512.20703125,11.71875,-119.62890625,71.77734375
1771544504.6910312,-90.8203125,-572.265625,6.8359375,-77.63671875,91.796875
1771544504.6949375,171.875,63.96484375,10.7421875,10.25390625,15.13671875
1771544504.6988437,82.51953125,401.85546875,18.06640625,-0.48828125,32.71484375
1771544504.70275,-223.6328125,-218.75,14.6484375,-85.9375,62.98828125
1771544504.7066562,-156.73828125,-786.1328125,12.6953125,-83.49609375,60.05859375
1771544504.7105625,153.80859375,-419.43359375,15.13671875,13.18359375,39.0625
1771544504.7144687,170.41015625,9.27734375,15.13671875,48.828125,81.0546875
1771544504.718375,-132.8125,-172.36328125,16.6015625,-32.71484375,68.84765625
1771544504.7222812,-193.84765625,-662.109375,16.6015625,-60.05859375,-23.4375
1771544504.7261875,102.05078125,-298.33984375,20.5078125,15.625,4.8828125
1771544504.7300937,213.8671875,524.90234375,20.5078125,62.5,50.29296875
1771544504.732125,-33.203125,429.6875,19.53125,0.0,33.203125
1771544504.7360313,-210.9375,-454.1015625,12.6953125,-59.08203125,15.13671875
1771544504.7399375,31.25,-440.4296875,10.7421875,0.0,33.203125
1771544504.7438438,255.859375,459.9609375,16.11328125,76.171875,43.45703125
1771544504.74775,71.77734375,674.8046875,19.53125,45.8984375,65.4296875
1771544504.7516563,-205.078125,-351.5625,22.4609375,-41.50390625,29.78515625
1771544504.7555625,-56.15234375,-986.328125,20.99609375,-14.6484375,11.23046875
1771544504.7594688,208.0078125,-35.64453125,18.06640625,59.08203125,76.66015625
1771544504.763375,142.08984375,735.3515625,21.484375,60.05859375,66.40625
1771544504.7672813,-155.2734375,-84.9609375,17.08984375,-14.16015625,53.22265625
1771544504.7711875,-131.8359375,-700.1953125,14.6484375,-38.0859375,79.58984375
1771544504.7750938,166.015625,104.00390625,18.5546875,37.59765625,65.4296875
1771544504.792125,207.51953125,862.79296875,20.5078125,66.40625,36.62109375
1771544504.7960312,-82.51953125,302.24609375,20.5078125,3.90625,52.24609375
1771544504.7999375,-189.453125,-535.15625,17.578125,-34.1796875,50.78125
1771544504.8038437,91.796875,-110.3515625,17.08984375,24.4140625,30.76171875
1771544504.80775,255.859375,763.18359375,18.06640625,87.40234375,24.90234375
1771544504.8116562,2.9296875,275.390625,18.06640625,47.36328125,-3.90625
1771544504.8155625,-215.33203125,-850.09765625,18.5546875,-35.15625,-31.25
1771544504.8194687,16.6015625,-398.4375,19.04296875,-3.90625,45.41015625
1771544504.823375,236.328125,590.33203125,17.578125,74.21875,43.45703125
1771544504.8272812,90.33203125,642.578125,23.4375,59.08203125,-18.06640625
1771544504.8311875,-180.6640625,-320.80078125,26.3671875,-33.69140625,-22.4609375
1771544504.8350937,-73.73046875,-619.140625,20.5078125,-19.04296875,11.23046875
1771544504.837125,216.30859375,288.0859375,26.85546875,89.84375,41.015625
1771544504.8410313,202.1484375,671.875,29.78515625,106.93359375,21.484375
1771544504.8449376,-127.9296875,1.46484375,17.578125,-18.06640625,14.16015625
1771544504.8488438,-142.578125,-485.83984375,13.18359375,-41.9921875,31.73828125
1771544504.85275,168.45703125,55.17578125,16.6015625,60.05859375,44.921875
1771544504.8566563,217.7734375,636.71875,18.5546875,66.40625,66.89453125
1771544504.8605626,-65.4296875,206.0546875,24.4140625,8.30078125,35.64453125
1771544504.8644688,-186.5234375,-457.51953125,32.71484375,-40.0390625,44.921875
1771544504.868375,86.42578125,-212.40234375,33.203125,17.08984375,79.1015625
1771544504.8722813,246.58203125,220.21484375,31.73828125,88.37890625,41.015625
1771544504.8761876,8.7890625,299.31640625,35.15625,34.66796875,47.36328125
1771544504.8800938,-222.16796875,-308.10546875,35.64453125,-54.19921875,4.39453125
1771544504.882125,-30.2734375,-456.0546875,31.25,-22.94921875,53.22265625
1771544504.8860312,237.3046875,293.9453125,28.3203125,74.70703125,79.58984375
1771544504.8899374,127.9296875,708.984375,31.25,62.98828125,67.87109375
1771544504.8938437,-188.96484375,7.8125,31.25,-45.41015625,46.38671875
1771544504.89775,-113.76953125,-733.88671875,30.76171875,-39.55078125,-38.57421875
1771544504.9016562,166.9921875,-245.1171875,32.71484375,62.98828125,-23.92578125
1771544504.9055624,167.48046875,513.671875,31.25,70.80078125,24.90234375
1771544504.9094687,-133.30078125,186.5234375,30.76171875,-13.671875,51.7578125
1771544504.913375,-178.22265625,-716.796875,30.76171875,-25.87890625,77.63671875
1771544504.9172812,113.28125,-433.59375,28.80859375,56.15234375,88.37890625
1771544504.9211874,227.5390625,661.62109375,31.73828125,83.0078125,47.8515625
1771544504.9250937,-41.9921875,418.45703125,31.73828125,-2.44140625,1.953125
1771544504.927125,-222.16796875,-536.1328125,23.4375,-53.7109375,52.734375
1771544504.9310312,37.59765625,-351.07421875,21.97265625,22.94921875,46.875
1771544504.9349375,225.5859375,584.9609375,22.4609375,74.21875,29.296875
1771544504.9388437,27.34375,488.76953125,21.97265625,20.5078125,27.34375
1771544504.94275,-220.21484375,-611.81640625,20.01953125,-63.96484375,-15.13671875
1771544504.9466562,-52.24609375,-754.8828125,19.53125,-22.94921875,22.4609375
1771544504.9505625,204.1015625,198.73046875,23.92578125,68.84765625,94.23828125
1771544504.9544687,111.81640625,662.59765625,28.80859375,47.36328125,84.9609375
1771544504.958375,-194.3359375,-402.83203125,29.296875,-62.98828125,54.6875
1771544504.9622812,-149.4140625,-851.5625,23.92578125,-55.17578125,40.0390625
1771544504.9661875,146.97265625,150.87890625,29.78515625,35.15625,23.4375
1771544504.9700937,175.78125,672.8515625,31.25,57.6171875,-11.23046875
1771544504.972125,-119.140625,120.60546875,28.80859375,0.0,1.953125
1771544504.9760313,-215.33203125,-503.41796875,33.69140625,-59.5703125,32.2265625
1771544504.9799376,54.19921875,-138.18359375,30.76171875,-20.99609375,-25.87890625
1771544504.9838438,183.10546875,584.9609375,33.203125,37.109375,6.34765625
1771544504.98775,-73.73046875,393.5546875,39.55078125,-17.08984375,36.62109375
1771544504.9916563,-263.671875,-573.2421875,34.1796875,-74.21875,16.6015625
1771544504.9955626,-40.52734375,-538.57421875,29.296875,-50.78125,57.12890625
1771544504.9994688,160.64453125,144.04296875,27.83203125,-21.484375,46.38671875
1771544505.003375,-7.8125,24.90234375,31.73828125,-55.6640625,36.1328125
1771544505.0072813,-293.45703125,-465.8203125,38.0859375,-138.671875,52.24609375
1771544505.0111876,-160.15625,-519.53125,37.59765625,-101.07421875,-2.44140625
1771544505.0150938,134.765625,182.6171875,30.76171875,-9.27734375,34.1796875
1771544505.017125,126.46484375,696.2890625,15.13671875,20.5078125,50.78125
1771544505.0210311,-186.03515625,82.03125,35.15625,-67.3828125,24.4140625
1771544505.0249374,-236.328125,-530.76171875,54.19921875,-124.51171875,81.54296875
1771544505.0288436,70.3125,-89.84375,41.9921875,-26.85546875,62.98828125
1771544505.03275,179.6875,581.0546875,45.8984375,65.91796875,0.9765625
1771544505.0366561,-65.91796875,116.69921875,47.8515625,18.5546875,18.5546875
1771544505.0405624,-167.96875,-793.9453125,47.36328125,-15.13671875,37.59765625
1771544505.0444686,125.9765625,-743.1640625,54.6875,104.98046875,60.546875
1771544505.048375,313.4765625,133.30078125,56.640625,185.546875,112.3046875
1771544505.0522811,100.09765625,378.41796875,59.08203125,132.32421875,17.08984375
1771544505.0561874,-94.23828125,-584.9609375,54.6875,98.14453125,-22.4609375
1771544505.0600936,131.8359375,-724.12109375,50.78125,178.22265625,59.08203125
1771544505.062125,383.30078125,276.85546875,54.19921875,260.25390625,62.01171875
1771544505.0660312,284.66796875,594.23828125,51.26953125,270.01953125,42.48046875
1771544505.0699375,17.08984375,-342.28515625,49.31640625,199.21875,29.296875
1771544505.0738437,128.90625,-742.67578125,49.31640625,220.703125,59.5703125
1771544505.07775,438.96484375,32.71484375,50.78125,321.2890625,38.57421875
1771544505.0816562,419.921875,382.8125,48.33984375,329.1015625,-0.48828125
1771544505.0855625,125.9765625,-411.62109375,44.921875,255.859375,-9.765625
1771544505.0894687,105.46875,-986.81640625,54.19921875,250.0,27.83203125
1771544505.093375,380.859375,-251.953125,49.31640625,317.87109375,90.33203125
1771544505.0972812,474.609375,549.31640625,42.96875,346.19140625,81.54296875
1771544505.1011875,205.56640625,40.0390625,48.33984375,267.08984375,16.11328125
1771544505.1050937,49.31640625,-828.125,46.875,205.078125,-4.39453125
1771544505.108125,298.33984375,-498.53515625,45.8984375,265.625,9.765625
1771544505.1120312,469.23828125,301.26953125,47.8515625,323.73046875,14.16015625
1771544505.1159375,254.39453125,151.3671875,42.96875,262.20703125,64.94140625
1771544505.1198437,-4.39453125,-703.125,42.48046875,158.69140625,50.29296875
1771544505.12375,158.69140625,-680.17578125,45.41015625,199.21875,48.33984375
1771544505.1276562,395.01953125,-60.546875,42.48046875,271.97265625,24.90234375
1771544505.1315625,297.36328125,-106.93359375,44.921875,247.55859375,14.16015625
1771544505.1354687,-7.32421875,-755.859375,41.015625,139.16015625,16.11328125
1771544505.139375,37.109375,-849.12109375,38.0859375,120.60546875,16.11328125
1771544505.1432812,333.49609375,-199.70703125,45.41015625,219.7265625,53.7109375
1771544505.1471875,350.5859375,362.79296875,41.50390625,232.421875,78.125
1771544505.1510937,37.59765625,-160.64453125,38.0859375,122.55859375,40.0390625
1771544505.153125,-42.96875,-855.95703125,35.64453125,96.19140625,20.01953125
1771544505.1570313,247.55859375,-648.4375,31.73828125,171.875,21.484375
1771544505.1609375,354.00390625,57.12890625,33.69140625,200.1953125,37.59765625
1771544505.1648438,86.42578125,109.375,33.69140625,133.30078125,28.3203125
1771544505.16875,-99.12109375,-752.44140625,31.73828125,50.78125,-11.71875
1771544505.1726563,131.8359375,-837.890625,32.71484375,113.76953125,13.18359375
1771544505.1765625,323.2421875,-98.14453125,31.73828125,179.19921875,31.73828125
1771544505.1804688,144.04296875,206.54296875,30.2734375,132.32421875,30.2734375
1771544505.184375,-117.67578125,-458.984375,31.73828125,44.43359375,50.29296875
1771544505.1882813,19.04296875,-1000.0,31.25,62.5,64.453125
1771544505.1921875,279.296875,-396.484375,29.78515625,149.4140625,36.62109375
1771544505.1960938,212.890625,495.60546875,30.2734375,142.578125,100.09765625
1771544505.212125,-91.30859375,-207.03125,25.390625,40.0390625,44.921875
1771544505.2160313,-75.1953125,-953.125,24.4140625,18.5546875,-43.9453125
1771544505.2199376,213.37890625,-260.7421875,26.85546875,95.21484375,21.484375
1771544505.2238438,261.71875,435.546875,26.3671875,127.44140625,66.89453125
1771544505.22775,-28.80859375,-28.3203125,32.2265625,46.38671875,79.1015625
1771544505.2316563,-148.92578125,-920.8984375,29.296875,-2.9296875,34.66796875
1771544505.2355626,128.41796875,-722.65625,23.4375,74.70703125,-30.76171875
1771544505.2394688,285.64453125,264.6484375,23.92578125,125.9765625,-24.4140625
1771544505.243375,43.9453125,187.5,26.85546875,64.453125,33.69140625
1771544505.2472813,-177.24609375,-875.48828125,26.3671875,-7.32421875,41.50390625
1771544505.2511876,36.62109375,-742.1875,28.80859375,48.828125,14.16015625
1771544505.2550938,267.08984375,317.3828125,30.2734375,125.0,77.1484375
1771544505.257125,128.41796875,426.7578125,29.296875,88.8671875,51.26953125
1771544505.2610312,-153.3203125,-503.41796875,28.80859375,-11.71875,14.6484375
1771544505.2649374,-57.6171875,-717.7734375,25.390625,-1.953125,51.7578125
1771544505.2688437,219.7265625,103.515625,25.87890625,96.19140625,67.87109375
1771544505.27275,202.1484375,571.77734375,30.2734375,107.91015625,74.70703125
1771544505.2766562,-97.65625,-210.44921875,32.2265625,17.578125,85.44921875
1771544505.2805624,-128.90625,-945.80078125,25.87890625,-12.20703125,75.1953125
1771544505.2844687,163.57421875,-297.36328125,28.80859375,81.0546875,63.96484375
1771544505.288375,280.2734375,321.77734375,49.8046875,163.57421875,30.2734375
1771544505.2922812,6.8359375,-375.48828125,50.78125,78.125,-7.8125
1771544505.2961874,-172.8515625,-888.18359375,21.97265625,-45.8984375,10.25390625
1771544505.3000937,102.05078125,-304.6875,9.765625,34.1796875,46.38671875
1771544505.301125,295.8984375,500.48828125,26.85546875,115.234375,51.7578125
1771544505.3050313,41.9921875,571.2890625,20.5078125,27.83203125,102.5390625
1771544505.3089375,-226.5625,-240.72265625,-0.48828125,-88.8671875,118.65234375
1771544505.3128438,-13.671875,-521.484375,-4.39453125,-29.78515625,-3.90625
1771544505.31675,248.046875,246.58203125,-5.859375,72.75390625,11.71875
1771544505.3206563,132.8125,559.5703125,-9.765625,45.41015625,63.96484375
1771544505.3245625,-150.87890625,-361.81640625,-26.3671875,-41.015625,6.8359375
1771544505.3284688,-81.54296875,-734.86328125,-26.3671875,-36.1328125,25.390625
1771544505.332375,199.70703125,-339.84375,-20.5078125,46.38671875,43.45703125
1771544505.3362813,203.61328125,222.65625,-17.578125,69.3359375,21.484375
1771544505.3401875,-95.703125,158.69140625,-15.13671875,-13.18359375,31.25
1771544505.3440938,-141.6015625,-566.40625,-16.11328125,-47.36328125,69.82421875
1771544505.346125,157.2265625,-170.41015625,-15.625,42.96875,50.29296875
1771544505.3500311,267.08984375,739.74609375,-12.20703125,86.9140625,25.87890625
1771544505.3539374,-15.625,477.5390625,-8.30078125,9.765625,6.8359375
1771544505.3578436,-189.453125,-558.10546875,-4.8828125,-38.57421875,-23.4375
1771544505.36175,60.05859375,-376.46484375,-2.44140625,39.0625,53.22265625
1771544505.3656561,250.9765625,433.10546875,-1.953125,93.75,44.43359375
1771544505.3695624,61.5234375,416.015625,2.9296875,43.45703125,-14.16015625
1771544505.3734686,-202.1484375,-515.13671875,0.9765625,-45.8984375,42.48046875
1771544505.377375,-45.8984375,-816.40625,-3.90625,-33.69140625,75.68359375
1771544505.3812811,211.42578125,255.37109375,5.37109375,58.10546875,54.19921875
1771544505.3851874,135.7421875,715.33203125,11.71875,59.5703125,23.92578125
1771544505.3890936,-170.8984375,-222.16796875,11.71875,-48.33984375,40.52734375
1771544505.392125,-134.765625,-752.44140625,10.25390625,-47.36328125,16.11328125
1771544505.3960311,165.52734375,120.1171875,10.7421875,55.6640625,38.0859375
1771544505.3999374,209.47265625,780.2734375,13.671875,87.890625,42.96875
1771544505.4038436,-71.2890625,137.6953125,10.25390625,9.27734375,5.859375
1771544505.40775,-172.36328125,-619.62890625,6.8359375,-25.87890625,21.484375
1771544505.4116561,100.09765625,-335.9375,11.23046875,45.8984375,-6.8359375
1771544505.4155624,239.74609375,347.16796875,12.6953125,75.1953125,-7.32421875
1771544505.4194686,-7.8125,76.171875,14.16015625,6.8359375,14.16015625
1771544505.423375,-210.9375,-660.15625,20.5078125,-47.36328125,29.296875
1771544505.4272811,16.11328125,-333.49609375,21.484375,20.01953125,47.8515625
1771544505.4311874,243.65234375,374.0234375,19.53125,98.6328125,23.92578125
1771544505.4350936,89.84375,353.515625,20.01953125,59.5703125,-30.2734375
1771544505.437125,-186.5234375,-427.734375,19.53125,-28.80859375,-20.01953125
1771544505.4410312,-50.78125,-597.16796875,16.6015625,-0.9765625,46.875
1771544505.4449375,233.88671875,28.80859375,20.01953125,98.14453125,-0.48828125
1771544505.4488437,189.94140625,408.203125,23.4375,91.796875,-21.97265625
1771544505.45275,-125.0,-62.98828125,21.97265625,-23.4375,-2.9296875
1771544505.4566562,-134.27734375,-779.296875,21.97265625,-36.1328125,8.7890625
1771544505.4605625,162.59765625,-476.07421875,16.11328125,60.546875,25.390625
1771544505.4644687,227.5390625,198.2421875,14.6484375,95.21484375,48.33984375
1771544505.468375,-60.05859375,141.11328125,19.53125,12.6953125,36.62109375
1771544505.4722812,-199.21875,-569.3359375,20.01953125,-49.31640625,34.1796875
1771544505.4761875,66.40625,-421.38671875,22.94921875,22.94921875,-3.90625
1771544505.4800937,246.09375,454.1015625,19.53125,77.1484375,-5.859375
1771544505.482125,36.1328125,527.83203125,20.01953125,20.99609375,58.10546875
1771544505.4860313,-203.61328125,-440.91796875,21.484375,-61.03515625,36.62109375
1771544505.4899375,8.30078125,-650.87890625,12.20703125,7.32421875,17.578125
1771544505.4938438,287.59765625,235.83984375,15.625,123.53515625,89.84375
1771544505.49775,89.84375,632.32421875,33.69140625,28.3203125,107.91015625
1771544505.5016563,-297.36328125,-286.62109375,27.83203125,-151.3671875,73.2421875
1771544505.5055625,-218.26171875,-1000.0,20.5078125,-162.59765625,32.71484375
1771544505.5094688,39.55078125,-465.33203125,28.3203125,-98.6328125,7.8125
1771544505.513375,-32.71484375,611.81640625,28.3203125,-131.34765625,63.4765625
1771544505.5172813,-373.046875,58.59375,25.390625,-253.41796875,91.30859375
1771544505.5211875,-439.453125,-761.23046875,24.4140625,-327.1484375,85.44921875
1771544505.5250938,-189.94140625,-144.53125,24.4140625,-293.9453125,72.265625
1771544505.542125,-125.9765625,668.9453125,28.80859375,-272.4609375,62.01171875
1771544505.5460312,-410.15625,197.265625,34.1796875,-358.3984375,14.6484375
1771544505.5499375,-576.66015625,-762.20703125,30.76171875,-428.22265625,1.953125
1771544505.5538437,-341.30859375,-444.82421875,24.4140625,-369.62890625,36.1328125
1771544505.55775,-166.9921875,508.7890625,34.1796875,-312.01171875,62.98828125
1771544505.5616562,-350.5859375,257.8125,35.15625,-346.6796875,91.796875
1771544505.5655625,-576.171875,-891.11328125,35.15625,-405.2734375,13.18359375
1771544505.5694687,-399.4140625,-793.9453125,41.015625,-364.74609375,-26.3671875
1771544505.573375,-126.953125,269.04296875,36.1328125,-279.78515625,36.62109375
1771544505.5772812,-194.82421875,413.0859375,39.0625,-274.4140625,79.1015625
1771544505.5811875,-470.703125,-558.10546875,42.48046875,-338.8671875,71.2890625
1771544505.5850937,-385.25390625,-799.8046875,39.0625,-305.6640625,41.015625
1771544505.588125,-67.87109375,22.4609375,37.59765625,-181.640625,74.21875
1771544505.5920312,-17.578125,634.765625,41.50390625,-135.25390625,77.63671875
1771544505.5959375,-292.96875,47.36328125,38.57421875,-214.84375,-10.25390625
1771544505.5998437,-360.83984375,-654.78515625,33.69140625,-236.328125,-14.6484375
1771544505.60375,-57.12890625,-242.1875,38.57421875,-125.9765625,18.5546875
1771544505.6076562,95.703125,375.9765625,38.0859375,-56.640625,-18.06640625
1771544505.6115625,-152.34375,107.91015625,35.64453125,-108.88671875,-1.953125
1771544505.6154687,-323.73046875,-738.76953125,35.15625,-163.57421875,8.7890625
1771544505.619375,-68.359375,-714.84375,35.64453125,-87.890625,-23.92578125
1771544505.6232812,131.34765625,-1.953125,36.62109375,-3.90625,8.30078125
1771544505.6271875,-39.0625,347.65625,35.15625,-52.734375,20.5078125
1771544505.6310937,-289.55078125,-198.2421875,31.25,-136.23046875,17.08984375
1771544505.632125,-125.9765625,-610.3515625,30.76171875,-92.28515625,13.18359375
1771544505.6360312,142.578125,86.42578125,32.71484375,16.11328125,15.625
1771544505.6399374,82.51953125,739.2578125,33.69140625,29.78515625,32.2265625
1771544505.6438437,-191.40625,96.19140625,34.1796875,-68.84765625,-11.23046875
1771544505.64775,-168.9453125,-691.40625,32.71484375,-95.703125,23.92578125
1771544505.6516562,111.81640625,-302.24609375,31.25,8.30078125,73.2421875
1771544505.6555624,170.8984375,554.19921875,28.3203125,52.24609375,68.84765625
1771544505.6594687,-96.6796875,365.72265625,30.2734375,-27.34375,53.7109375
1771544505.663375,-195.80078125,-650.390625,31.73828125,-60.05859375,45.8984375
1771544505.6672812,74.70703125,-564.453125,27.34375,17.578125,67.3828125
1771544505.6711874,226.5625,519.04296875,26.85546875,75.68359375,49.8046875
1771544505.6750937,-6.34765625,539.0625,31.25,30.76171875,10.25390625
1771544505.677125,-208.0078125,-481.4453125,29.78515625,-56.15234375,-19.53125
1771544505.6810312,3.90625,-437.5,27.34375,-22.94921875,29.78515625
1771544505.6849375,230.46875,555.17578125,30.2734375,74.21875,-5.859375
1771544505.6888437,83.49609375,771.97265625,30.2734375,63.96484375,13.671875
1771544505.69275,-188.96484375,-121.58203125,30.76171875,-35.64453125,29.78515625
1771544505.6966562,-73.2421875,-541.9921875,29.78515625,-23.4375,41.015625
1771544505.7005625,186.03515625,159.1796875,27.83203125,58.10546875,43.45703125
1771544505.7044687,154.296875,740.72265625,28.3203125,67.87109375,33.203125
1771544505.708375,-138.671875,-141.11328125,23.92578125,-21.97265625,41.015625
1771544505.7122812,-158.203125,-761.71875,20.99609375,-47.36328125,4.39453125
1771544505.7161875,129.39453125,172.36328125,22.94921875,51.7578125,39.0625
1771544505.7200937,219.23828125,846.19140625,25.390625,90.33203125,56.640625
1771544505.722125,-41.9921875,322.75390625,24.90234375,10.25390625,19.04296875
1771544505.7260313,-191.40625,-391.11328125,20.01953125,-49.31640625,33.203125
1771544505.7299376,55.17578125,12.20703125,17.08984375,21.484375,60.05859375
1771544505.7338438,239.74609375,563.4765625,22.94921875,89.84375,-16.6015625
1771544505.73775,30.2734375,422.8515625,21.484375,38.57421875,-28.3203125
1771544505.7416563,-200.1953125,-363.76953125,20.5078125,-33.69140625,-14.6484375
1771544505.7455626,-13.671875,-403.3203125,22.4609375,17.08984375,2.44140625
1771544505.7494688,233.3984375,333.984375,18.5546875,88.8671875,48.33984375
1771544505.753375,142.578125,450.68359375,17.08984375,87.890625,44.921875
1771544505.7572813,-135.7421875,2.44140625,16.6015625,12.6953125,30.76171875
1771544505.7611876,-89.84375,-311.5234375,20.99609375,-14.16015625,11.23046875
1771544505.7650938,166.50390625,279.296875,24.90234375,39.55078125,11.71875
1771544505.766125,193.84765625,924.31640625,30.76171875,60.546875,46.38671875
1771544505.7700312,-114.2578125,508.30078125,35.64453125,-13.18359375,90.33203125
1771544505.7739375,-176.26953125,-323.2421875,28.3203125,-41.015625,78.61328125
1771544505.7778437,133.30078125,-101.07421875,20.99609375,63.96484375,55.6640625
1771544505.78175,241.69921875,743.65234375,22.4609375,109.86328125,14.6484375
1771544505.7856562,-10.7421875,494.140625,23.4375,28.3203125,-10.7421875
1771544505.7895625,-170.41015625,-417.96875,20.01953125,-28.3203125,63.96484375
1771544505.7934687,63.4765625,-521.97265625,20.99609375,42.96875,58.59375
1771544505.797375,261.23046875,409.1796875,24.4140625,106.93359375,35.64453125
1771544505.8012812,63.4765625,849.609375,27.34375,51.7578125,5.37109375
1771544505.8051875,-197.75390625,-128.90625,23.4375,-33.203125,-30.76171875
1771544505.8090937,-35.15625,-333.0078125,15.625,-1.46484375,42.48046875
1771544505.811125,220.703125,600.09765625,21.484375,80.56640625,70.80078125
1771544505.8150313,141.11328125,-922.36328125,26.3671875,86.42578125,87.40234375
1771544505.8189375,-150.87890625,256.34765625,20.99609375,-5.859375,72.75390625
1771544505.8228438,-113.28125,-359.375,18.5546875,-33.203125,62.01171875
1771544505.82675,171.38671875,367.1875,16.11328125,59.5703125,77.63671875
1771544505.8306563,215.33203125,936.03515625,18.06640625,85.9375,55.17578125
1771544505.8345625,-75.68359375,167.96875,16.6015625,-4.8828125,41.015625
1771544505.8384688,-183.59375,-910.64453125,14.6484375,-52.24609375,0.9765625
1771544505.842375,79.1015625,-243.65234375,22.4609375,14.6484375,-7.32421875
1771544505.8462813,213.8671875,919.921875,25.390625,71.2890625,50.29296875
1771544505.8501875,-35.15625,677.734375,22.94921875,10.7421875,20.99609375
1771544505.8540938,-234.375,-212.40234375,26.85546875,-64.94140625,-10.25390625
1771544505.857125,-8.30078125,-43.9453125,25.87890625,-20.5078125,49.31640625
1771544505.8610313,197.265625,796.875,19.04296875,50.29296875,75.68359375
1771544505.8649375,51.7578125,827.1484375,23.4375,22.4609375,30.2734375
1771544505.8688438,-223.6328125,-22.94921875,29.78515625,-69.3359375,-7.32421875
1771544505.87275,-110.3515625,-270.99609375,31.73828125,-63.96484375,-2.9296875
1771544505.8766563,162.109375,343.26171875,29.296875,19.04296875,29.78515625
1771544505.8805625,113.28125,545.41015625,28.80859375,51.7578125,59.5703125
1771544505.8844688,-146.97265625,-96.6796875,35.64453125,-28.80859375,45.41015625
1771544505.888375,-155.2734375,-488.76953125,27.83203125,-56.15234375,17.08984375
1771544505.8922813,83.49609375,69.82421875,15.13671875,6.34765625,0.48828125
1771544505.8961875,190.4296875,552.734375,18.5546875,37.109375,6.34765625
1771544505.9000938,-26.3671875,336.9140625,23.92578125,14.6484375,25.390625
1771544505.917125,-122.0703125,-252.9296875,19.53125,19.53125,25.390625
1771544505.9210312,173.33984375,-119.140625,5.37109375,123.53515625,0.0
1771544505.9249375,360.83984375,652.83203125,-0.9765625,211.9140625,-12.20703125
1771544505.9288437,170.41015625,697.75390625,7.32421875,165.0390625,9.765625
1771544505.93275,-22.4609375,-125.9765625,2.44140625,120.1171875,43.45703125
1771544505.9366562,187.98828125,-513.671875,-4.39453125,193.359375,46.875
1771544505.9405625,448.2421875,106.93359375,-6.34765625,278.80859375,19.53125
1771544505.9444687,355.95703125,724.609375,-8.7890625,299.8046875,20.99609375
1771544505.948375,91.796875,77.1484375,-4.39453125,224.609375,73.73046875
1771544505.9522812,179.6875,-634.27734375,-6.34765625,217.7734375,20.5078125
1771544505.9561875,468.75,-63.96484375,-5.859375,332.51953125,25.390625
1771544505.9600937,476.07421875,798.33984375,-0.48828125,376.46484375,69.82421875
1771544505.962125,172.8515625,226.07421875,10.25390625,287.109375,-6.34765625
1771544505.9660313,122.0703125,-698.2421875,5.859375,227.05078125,-6.8359375
1771544505.9699376,407.2265625,-215.33203125,5.37109375,292.96875,-6.8359375
1771544505.9738438,502.44140625,713.8671875,10.7421875,346.19140625,-32.71484375
1771544505.97775,226.07421875,447.75390625,10.7421875,264.6484375,32.71484375
1771544505.9816563,58.59375,-583.984375,15.625,205.078125,43.45703125
1771544505.9855626,288.0859375,-516.11328125,18.5546875,263.671875,19.53125
1771544505.9894688,454.1015625,519.53125,17.08984375,288.57421875,37.59765625
1771544505.993375,246.58203125,578.125,21.97265625,230.46875,21.484375
1771544505.9972813,-13.671875,-614.2578125,26.3671875,148.4375,12.6953125
1771544506.0011876,142.08984375,-691.89453125,24.4140625,179.19921875,24.90234375
1771544506.0050938,400.390625,391.6015625,22.94921875,252.44140625,65.91796875
1771544506.007125,303.7109375,604.4921875,27.83203125,217.28515625,64.453125
1771544506.0110312,-22.4609375,-184.5703125,28.3203125,122.0703125,104.98046875
1771544506.0149374,26.85546875,-436.03515625,26.85546875,117.1875,104.00390625
1771544506.0188437,325.68359375,223.14453125,30.2734375,197.75390625,12.20703125
1771544506.02275,329.58984375,767.578125,28.3203125,202.1484375,27.83203125
1771544506.0266562,19.53125,104.00390625,26.3671875,108.88671875,62.98828125
1771544506.0305624,-56.640625,-675.78125,25.390625,78.61328125,15.13671875
1771544506.0344687,222.16796875,-46.875,22.4609375,142.578125,1.953125
1771544506.038375,343.26171875,604.4921875,23.92578125,187.5,95.21484375
1771544506.0422812,84.9609375,106.93359375,28.3203125,123.53515625,55.17578125
1771544506.0461874,-117.67578125,-479.4921875,29.78515625,45.41015625,-18.5546875
1771544506.0500937,111.328125,-191.40625,26.85546875,104.00390625,45.8984375
1771544506.053125,320.3125,554.19921875,25.390625,158.69140625,36.1328125
1771544506.0570312,150.87890625,693.84765625,30.2734375,122.55859375,-4.39453125
1771544506.0609374,-119.140625,-121.09375,30.76171875,35.15625,42.96875
1771544506.0648437,9.765625,-460.44921875,25.390625,47.8515625,76.171875
1771544506.06875,268.06640625,238.28125,28.80859375,131.8359375,63.4765625
1771544506.0726562,206.54296875,614.74609375,32.2265625,126.953125,25.87890625
1771544506.0765624,-94.7265625,6.8359375,32.2265625,43.9453125,21.97265625
1771544506.0804687,-85.9375,-456.0546875,30.76171875,30.76171875,66.89453125
1771544506.084375,207.03125,-211.42578125,24.90234375,108.88671875,47.36328125
1771544506.0882812,256.34765625,534.66796875,28.3203125,121.09375,39.0625
1771544506.0921874,-41.9921875,500.0,28.80859375,17.578125,59.5703125
1771544506.0960937,-154.78515625,-447.265625,27.34375,-13.671875,23.4375
1771544506.097125,128.41796875,-144.04296875,28.80859375,76.66015625,59.5703125
1771544506.1010313,267.578125,795.8984375,27.34375,119.62890625,36.1328125
1771544506.1049376,24.90234375,653.80859375,32.71484375,48.828125,-29.78515625
1771544506.1088438,-184.08203125,-292.96875,30.2734375,-37.109375,30.2734375
1771544506.11275,20.5078125,-348.6328125,24.4140625,26.3671875,38.0859375
1771544506.1166563,244.62890625,407.71484375,29.296875,102.5390625,2.9296875
1771544506.1205626,110.83984375,578.125,36.1328125,72.265625,-21.97265625
1771544506.1244688,-175.78125,-330.078125,32.71484375,-17.08984375,-11.71875
1771544506.128375,-75.68359375,-953.125,29.78515625,3.90625,19.04296875
1771544506.1322813,212.890625,90.33203125,33.69140625,83.984375,32.71484375
1771544506.1361876,191.40625,994.62890625,36.1328125,88.8671875,50.29296875
1771544506.1400938,-115.234375,316.89453125,35.64453125,-1.953125,70.3125
1771544506.142125,-139.6484375,-386.23046875,32.71484375,-42.48046875,21.97265625
1771544506.1460311,164.55078125,248.046875,34.1796875,70.80078125,27.83203125
1771544506.1499374,264.6484375,991.69921875,35.15625,126.953125,53.7109375
1771544506.1538436,-34.66796875,565.4296875,32.2265625,31.73828125,52.24609375
1771544506.15775,-216.796875,-258.7890625,20.99609375,-62.5,31.25
1771544506.1616561,34.66796875,-153.80859375,17.578125,-1.953125,11.71875
1771544506.1655624,212.890625,724.12109375,24.90234375,59.5703125,92.28515625
1771544506.1694686,12.20703125,432.6171875,20.01953125,8.7890625,82.03125
1771544506.173375,-231.93359375,-578.125,19.04296875,-79.58984375,39.0625
1771544506.1772811,-54.6875,-235.3515625,26.3671875,-41.50390625,-8.7890625
1771544506.1811874,201.66015625,629.39453125,28.3203125,55.6640625,-10.7421875
1771544506.1850936,94.7265625,-999.51171875,31.25,34.1796875,88.8671875
1771544506.187125,-204.1015625,325.1953125,29.296875,-61.03515625,46.38671875
1771544506.1910312,-124.0234375,-135.25390625,24.90234375,-36.1328125,-11.23046875
1771544506.1949375,166.9921875,506.8359375,24.4140625,58.10546875,25.87890625
1771544506.1988437,176.7578125,-935.546875,25.390625,61.03515625,60.546875
1771544506.20275,-118.65234375,592.28515625,26.85546875,-39.0625,23.92578125
1771544506.2066562,-182.6171875,-231.93359375,27.83203125,-61.5234375,-9.765625
1771544506.2105625,103.02734375,-52.734375,29.296875,38.0859375,2.9296875
1771544506.2144687,223.6328125,653.80859375,29.78515625,81.0546875,5.37109375
1771544506.218375,-32.71484375,845.703125,32.2265625,4.8828125,73.73046875
1771544506.2222812,-215.33203125,79.1015625,32.2265625,-49.31640625,62.98828125
1771544506.2261875,27.34375,-2.44140625,27.83203125,24.90234375,10.7421875
1771544506.2300937,229.98046875,802.734375,27.83203125,74.70703125,33.203125
1771544506.232125,46.875,-967.28515625,31.73828125,46.875,56.640625
1771544506.2360313,-207.51953125,340.33203125,31.73828125,-33.69140625,54.19921875
1771544506.2399375,-41.015625,112.79296875,30.2734375,-25.390625,51.26953125
1771544506.2438438,201.66015625,783.69140625,27.83203125,62.01171875,21.484375
1771544506.24775,126.953125,-897.4609375,29.78515625,58.10546875,23.4375
1771544506.2516563,-129.8828125,400.87890625,15.13671875,-20.99609375,31.25
1771544506.2555625,-80.56640625,-315.4296875,2.44140625,-9.27734375,12.20703125
1771544506.2594688,186.5234375,440.4296875,34.66796875,78.61328125,10.7421875
1771544506.263375,214.84375,-840.8203125,51.26953125,97.16796875,8.30078125
1771544506.2672813,-72.265625,645.99609375,48.33984375,15.13671875,0.0
1771544506.2711875,-202.1484375,-83.49609375,49.31640625,-46.875,39.55078125
1771544506.2750938,58.10546875,475.09765625,58.59375,36.1328125,68.84765625
1771544506.278125,199.21875,-881.34765625,70.80078125,77.63671875,60.05859375
1771544506.2820313,-46.38671875,755.37109375,80.078125,5.37109375,73.2421875
1771544506.2859375,-243.65234375,34.66796875,79.1015625,-50.29296875,70.80078125
1771544506.2898438,-20.5078125,333.49609375,84.9609375,9.27734375,36.1328125
1771544506.29375,192.87109375,-958.0078125,95.703125,88.37890625,36.1328125
1771544506.2976563,28.3203125,844.7265625,86.42578125,39.55078125,58.10546875
1771544506.3015625,-243.65234375,19.53125,82.03125,-55.17578125,19.53125
1771544506.3054688,-104.4921875,123.046875,78.61328125,-19.53125,9.27734375
1771544506.309375,165.0390625,852.05078125,73.73046875,67.3828125,-19.04296875
1771544506.3132813,119.140625,-921.875,71.77734375,56.15234375,-40.0390625
1771544506.3171875,-166.9921875,674.31640625,70.3125,-38.57421875,33.69140625
1771544506.3210938,-168.9453125,295.8984375,71.77734375,-38.57421875,93.26171875
1771544506.338125,103.02734375,749.51171875,72.265625,62.98828125,91.796875
1771544506.3420312,179.6875,-908.69140625,72.75390625,89.84375,46.38671875
1771544506.3459375,-93.75,744.140625,69.3359375,2.44140625,34.1796875
1771544506.3498437,-227.05078125,169.43359375,62.01171875,-57.6171875,28.3203125
1771544506.35375,42.96875,542.96875,58.10546875,15.13671875,25.87890625
1771544506.3576562,215.8203125,-948.2421875,57.12890625,81.54296875,27.34375
1771544506.3615625,-2.44140625,967.7734375,57.6171875,14.16015625,92.28515625
1771544506.3654687,-232.421875,431.15234375,52.734375,-58.59375,77.1484375
1771544506.369375,-30.76171875,317.87109375,49.8046875,-10.7421875,5.859375
1771544506.3732812,209.47265625,813.4765625,49.8046875,69.3359375,38.57421875
1771544506.3771875,88.37890625,-954.1015625,50.29296875,62.01171875,63.96484375
1771544506.3810937,-205.56640625,558.59375,50.29296875,-44.43359375,38.0859375
1771544506.382125,-128.90625,173.828125,46.875,-29.78515625,15.13671875
1771544506.3860312,156.25,705.56640625,48.828125,65.91796875,41.50390625
1771544506.3899374,160.15625,-905.2734375,46.875,66.40625,6.8359375
1771544506.3938437,-129.39453125,720.703125,46.38671875,-13.18359375,-6.34765625
1771544506.39775,-166.9921875,69.3359375,43.9453125,-39.0625,16.11328125
1771544506.4016562,119.140625,433.10546875,42.48046875,38.0859375,29.296875
1771544506.4055624,208.49609375,-953.125,44.43359375,76.66015625,53.7109375
1771544506.4094687,-49.31640625,908.203125,43.9453125,6.34765625,54.19921875
1771544506.413375,-207.03125,63.4765625,39.55078125,-53.22265625,81.54296875
1771544506.4172812,42.48046875,-75.1953125,34.1796875,18.06640625,78.125
1771544506.4211874,244.140625,856.93359375,38.57421875,92.28515625,1.46484375
1771544506.4250937,50.78125,-967.7734375,42.96875,39.0625,-16.6015625
1771544506.427125,-211.9140625,316.89453125,40.0390625,-57.12890625,33.69140625
1771544506.4310312,-45.8984375,291.9921875,37.109375,-13.18359375,42.48046875
1771544506.4349375,214.84375,935.05859375,35.64453125,85.44921875,18.5546875
1771544506.4388437,137.20703125,-941.40625,39.55078125,68.84765625,48.828125
1771544506.44275,-162.109375,549.31640625,41.015625,-31.25,122.0703125
1771544506.4466562,-122.55859375,85.44921875,35.15625,-24.4140625,120.60546875
1771544506.4505625,175.29296875,615.234375,36.62109375,71.77734375,38.0859375
1771544506.4544687,209.47265625,-860.83984375,34.66796875,95.703125,-20.01953125
1771544506.458375,-74.70703125,387.20703125,45.8984375,18.06640625,28.3203125
1771544506.4622812,-142.08984375,-293.9453125,50.29296875,-7.8125,52.24609375
1771544506.4661875,108.88671875,545.41015625,25.87890625,36.62109375,53.22265625
1771544506.4700937,225.5859375,-910.64453125,21.484375,65.4296875,76.66015625
1771544506.472125,20.01953125,865.72265625,30.2734375,43.45703125,28.80859375
1771544506.4760313,-168.45703125,280.2734375,26.3671875,-12.6953125,-16.11328125
1771544506.4799376,39.0625,457.03125,19.04296875,14.6484375,16.11328125
1771544506.4838438,240.72265625,-973.6328125,20.01953125,68.84765625,34.66796875
1771544506.48775,78.125,-980.95703125,25.390625,40.52734375,56.640625
1771544506.4916563,-188.96484375,293.45703125,26.3671875,-34.66796875,53.7109375
1771544506.4955626,-57.12890625,88.37890625,25.87890625,-11.71875,51.26953125
1771544506.4994688,217.7734375,780.76171875,22.94921875,78.61328125,27.34375
1771544506.503375,163.0859375,-978.02734375,22.4609375,79.58984375,-2.44140625
1771544506.5072813,-147.94921875,523.92578125,24.4140625,-26.3671875,16.11328125
1771544506.5111876,-134.27734375,54.6875,24.4140625,-23.4375,-9.27734375
1771544506.5150938,166.015625,576.66015625,21.97265625,71.2890625,-14.6484375
1771544506.517125,222.65625,-937.98828125,27.83203125,97.16796875,23.4375
1771544506.5210311,-50.29296875,784.66796875,30.76171875,18.06640625,12.20703125
1771544506.5249374,-171.875,100.5859375,25.87890625,-38.0859375,-15.625
1771544506.5288436,91.30859375,383.30078125,26.85546875,37.59765625,4.8828125
1771544506.53275,250.0,-948.73046875,28.3203125,97.65625,7.32421875
1771544506.5366561,-1.46484375,830.56640625,29.296875,22.94921875,12.6953125
1771544506.5405624,-207.51953125,58.59375,31.25,-54.6875,41.015625
1771544506.5444686,13.671875,-200.1953125,28.3203125,2.44140625,-8.7890625
1771544506.548375,227.05078125,583.49609375,30.2734375,85.44921875,13.18359375
1771544506.5522811,90.8203125,-890.13671875,35.64453125,70.3125,65.4296875
1771544506.5561874,-188.96484375,417.48046875,29.78515625,-24.4140625,99.12109375
1771544506.5600936,-76.66015625,-18.06640625,26.3671875,-12.6953125,86.42578125
1771544506.563125,202.1484375,657.71484375,29.296875,86.9140625,50.29296875
1771544506.5670311,175.29296875,-842.7734375,27.34375,102.05078125,62.5
1771544506.5709374,-118.65234375,455.56640625,25.87890625,-15.13671875,47.36328125
1771544506.5748436,-152.34375,-277.83203125,23.4375,-52.24609375,26.85546875
1771544506.57875,138.671875,494.140625,24.4140625,57.12890625,76.66015625
1771544506.5826561,230.95703125,-844.23828125,25.87890625,88.8671875,69.3359375
1771544506.5865624,-41.50390625,572.75390625,25.87890625,1.46484375,64.94140625
1771544506.5904686,-186.5234375,-394.04296875,27.34375,-24.4140625,90.8203125
1771544506.594375,64.453125,71.2890625,24.90234375,36.1328125,-30.76171875
1771544506.5982811,241.69921875,961.42578125,28.3203125,74.21875,-6.8359375
1771544506.6021874,24.90234375,872.0703125,29.78515625,20.5078125,77.63671875
1771544506.6060936,-216.796875,62.5,12.20703125,-64.453125,6.34765625
1771544506.608125,22.94921875,65.91796875,25.87890625,37.59765625,37.59765625
1771544506.6120312,239.2578125,845.21484375,45.41015625,91.30859375,77.63671875
1771544506.6159375,34.1796875,-984.86328125,31.25,-30.76171875,57.12890625
1771544506.6198437,-276.85546875,274.4140625,24.90234375,-159.66796875,19.04296875
1771544506.62375,-235.3515625,-179.6875,23.92578125,-172.8515625,2.9296875
1771544506.6276562,3.41796875,470.703125,25.390625,-123.53515625,51.26953125
1771544506.6315625,-39.55078125,679.6875,17.578125,-168.45703125,24.90234375
1771544506.6354687,-374.51171875,0.9765625,20.5078125,-302.24609375,-2.44140625
1771544506.639375,-468.26171875,-275.390625,21.97265625,-370.60546875,37.109375
1771544506.6432812,-212.40234375,255.859375,19.53125,-297.36328125,43.9453125
1771544506.6471875,-120.1171875,928.22265625,20.01953125,-281.73828125,12.20703125
1771544506.6510937,-378.90625,768.5546875,22.94921875,-364.2578125,6.8359375
1771544506.667125,-556.640625,-49.31640625,22.4609375,-418.45703125,38.57421875
1771544506.6710312,-328.125,0.9765625,17.08984375,-369.62890625,68.359375
1771544506.6749375,-108.88671875,770.99609375,22.94921875,-289.55078125,27.34375
1771544506.6788437,-274.90234375,948.73046875,26.85546875,-304.6875,-0.48828125
1771544506.68275,-523.92578125,111.328125,28.80859375,-378.41796875,50.29296875
1771544506.6866562,-341.796875,-446.77734375,29.296875,-322.265625,64.453125
1771544506.6905625,-47.36328125,287.109375,31.73828125,-199.70703125,68.359375
1771544506.6944687,-97.65625,-944.3359375,29.296875,-162.109375,38.57421875
1771544506.698375,-383.30078125,448.2421875,24.90234375,-250.0,15.13671875
1771544506.7022812,-339.35546875,-419.43359375,23.92578125,-267.578125,45.41015625
1771544506.7061875,-27.83203125,78.125,20.5078125,-151.85546875,13.671875
1771544506.7100937,38.57421875,-934.08203125,20.99609375,-100.09765625,17.578125
1771544506.712125,-231.4453125,686.5234375,28.3203125,-169.43359375,58.10546875
1771544506.7160313,-324.70703125,-231.4453125,29.78515625,-208.49609375,6.8359375
1771544506.7199376,-37.59765625,187.5,23.92578125,-113.76953125,-4.8828125
1771544506.7238438,117.67578125,-976.07421875,21.484375,-40.0390625,13.671875
1771544506.72775,-115.234375,879.8828125,20.01953125,-92.28515625,88.37890625
1771544506.7316563,-309.08203125,-95.21484375,16.6015625,-163.0859375,49.8046875
1771544506.7355626,-62.5,-229.98046875,15.13671875,-95.21484375,-33.203125
1771544506.7394688,168.9453125,724.12109375,21.97265625,-2.9296875,18.5546875
1771544506.743375,5.37109375,-998.046875,26.3671875,-33.69140625,6.34765625
1771544506.7472813,-269.53125,-164.55078125,17.578125,-130.37109375,15.625
1771544506.7511876,-143.5546875,-469.23828125,12.6953125,-97.16796875,58.59375
1771544506.7550938,128.90625,689.94140625,14.6484375,-0.48828125,50.78125
1771544506.757125,105.46875,-919.921875,17.578125,-3.90625,58.59375
1771544506.7610312,-184.5703125,522.4609375,21.484375,-92.7734375,77.63671875
1771544506.7649374,-198.2421875,44.43359375,16.11328125,-110.3515625,57.6171875
1771544506.7688437,108.3984375,593.75,14.16015625,-1.953125,23.4375
1771544506.77275,200.68359375,-885.25390625,19.04296875,64.453125,1.953125
1771544506.7766562,-69.3359375,663.0859375,19.53125,-12.20703125,50.29296875
1771544506.7805624,-201.171875,-89.35546875,19.53125,-62.01171875,46.875
1771544506.7844687,61.5234375,398.4375,20.99609375,26.3671875,85.9375
1771544506.788375,229.00390625,-924.8046875,19.53125,74.21875,103.02734375
1771544506.7922812,18.5546875,884.765625,17.08984375,6.34765625,100.09765625
1771544506.7961874,-204.1015625,216.796875,15.625,-57.6171875,88.37890625
1771544506.8000937,-18.5546875,293.9453125,13.18359375,-7.32421875,61.03515625
1771544506.805125,223.14453125,868.65234375,13.671875,53.22265625,83.49609375
1771544506.8090312,106.93359375,948.73046875,17.578125,30.76171875,51.26953125
1771544506.8129375,-181.15234375,491.2109375,21.97265625,-50.78125,49.8046875
1771544506.8168437,-100.5859375,156.25,18.06640625,-36.62109375,70.80078125
1771544506.82075,179.19921875,691.40625,14.6484375,67.87109375,53.7109375
1771544506.8246562,176.26953125,-906.25,13.671875,75.1953125,62.98828125
1771544506.8285625,-97.16796875,565.4296875,9.27734375,-20.01953125,41.015625
1771544506.8324687,-132.32421875,-112.79296875,8.30078125,-29.78515625,-22.94921875
1771544506.836375,121.09375,180.17578125,11.23046875,40.0390625,11.23046875
1771544506.8402812,211.9140625,899.4140625,17.08984375,75.1953125,35.15625
1771544506.8441875,-32.2265625,913.57421875,24.90234375,13.18359375,49.31640625
1771544506.8480937,-194.3359375,-24.4140625,30.76171875,-41.50390625,45.41015625
1771544506.847125,38.0859375,95.21484375,31.25,25.87890625,51.7578125
1771544506.8510313,228.02734375,993.1640625,29.78515625,87.40234375,24.4140625
1771544506.8549376,33.69140625,-974.12109375,31.73828125,21.97265625,12.6953125
1771544506.8588438,-211.9140625,277.83203125,32.71484375,-66.89453125,61.03515625
1771544506.86275,-44.921875,80.56640625,27.34375,-8.7890625,27.83203125
1771544506.8666563,209.47265625,781.73828125,23.4375,84.47265625,-5.37109375
1771544506.8705626,138.671875,-864.74609375,28.3203125,69.82421875,-2.44140625
1771544506.8744688,-142.08984375,344.23828125,29.296875,-16.6015625,27.34375
1771544506.878375,-113.76953125,-362.79296875,20.5078125,-19.53125,55.6640625
1771544506.8822813,154.78515625,580.56640625,20.99609375,51.7578125,65.4296875
1771544506.8861876,192.3828125,-858.88671875,26.85546875,88.37890625,3.90625
1771544506.8900938,-82.03125,594.7265625,28.3203125,8.7890625,-4.8828125
1771544506.893125,-162.59765625,14.16015625,26.85546875,-42.96875,25.390625
1771544506.8970313,116.69921875,515.13671875,26.85546875,51.26953125,47.8515625
1771544506.9009376,241.2109375,-928.22265625,26.3671875,110.83984375,46.875
1771544506.9048438,-8.30078125,769.04296875,23.4375,43.45703125,55.6640625
1771544506.90875,-180.17578125,76.171875,15.625,-25.87890625,34.66796875
1771544506.9126563,42.96875,151.85546875,14.6484375,24.4140625,15.625
1771544506.9165626,240.72265625,914.55078125,23.4375,92.28515625,96.19140625
1771544506.9204688,80.56640625,817.3828125,24.90234375,59.5703125,101.5625
1771544506.924375,-183.59375,28.80859375,22.94921875,-35.64453125,31.25
1771544506.9282813,-48.33984375,166.50390625,25.87890625,-16.11328125,48.33984375
1771544506.9321876,208.49609375,855.95703125,22.4609375,77.1484375,77.63671875
1771544506.9360938,164.55078125,-913.0859375,20.99609375,82.03125,31.25
1771544506.937125,-125.48828125,563.4765625,24.4140625,-20.5078125,-6.34765625
1771544506.9410312,-135.25390625,39.0625,20.99609375,-41.015625,-9.27734375
1771544506.9449375,151.3671875,559.08203125,22.4609375,62.98828125,22.4609375
1771544506.9488437,215.8203125,-916.50390625,25.390625,86.42578125,16.6015625
1771544506.95275,-66.40625,673.33984375,24.4140625,-4.8828125,51.7578125
1771544506.9566562,-186.03515625,-122.55859375,25.390625,-45.8984375,70.3125
1771544506.9605625,73.73046875,26.3671875,28.3203125,43.45703125,57.6171875
1771544506.9644687,227.5390625,617.1875,27.34375,101.07421875,40.0390625
1771544506.968375,4.8828125,806.640625,30.2734375,25.390625,54.19921875
1771544506.9722812,-217.28515625,207.51953125,29.296875,-56.640625,58.59375
1771544506.9761875,-20.01953125,142.578125,23.4375,-1.953125,38.0859375
1771544506.9800937,214.84375,860.83984375,23.92578125,92.7734375,82.03125
1771544506.982125,96.6796875,-946.77734375,30.76171875,48.33984375,69.82421875
1771544506.9860313,-192.87109375,370.60546875,32.2265625,-56.640625,44.921875
1771544506.9899375,-108.88671875,-116.69921875,29.78515625,-21.97265625,36.62109375
1771544506.9938438,172.36328125,583.0078125,31.25,56.15234375,11.23046875
1771544506.99775,177.24609375,-881.8359375,29.78515625,64.453125,33.203125
1771544507.0016563,-105.95703125,486.328125,37.109375,-1.46484375,57.6171875
1771544507.0055625,-130.859375,-556.640625,43.45703125,-22.94921875,47.36328125
1771544507.0094688,137.20703125,-24.90234375,29.296875,43.45703125,84.47265625
1771544507.013375,207.03125,-901.3671875,18.06640625,69.82421875,81.54296875
1771544507.0172813,-50.78125,691.40625,15.13671875,-13.671875,-36.1328125
1771544507.0211875,-191.40625,-124.0234375,19.04296875,-65.91796875,-15.13671875
1771544507.0250938,59.08203125,322.75390625,14.6484375,6.34765625,61.03515625
1771544507.042125,227.5390625,-956.0546875,10.25390625,71.77734375,51.26953125
1771544507.0460312,25.87890625,852.05078125,15.625,25.390625,25.390625
1771544507.0499375,-209.47265625,98.6328125,20.5078125,-58.59375,50.29296875
1771544507.0538437,-34.1796875,70.80078125,17.578125,-7.32421875,63.96484375
1771544507.05775,216.30859375,842.28515625,17.578125,78.61328125,9.27734375
1771544507.0616562,125.9765625,900.87890625,22.94921875,67.3828125,4.8828125
1771544507.0655625,-156.73828125,-119.140625,16.11328125,-27.83203125,-3.41796875
1771544507.0694687,-83.49609375,-258.30078125,9.765625,-29.296875,17.08984375
1771544507.073375,188.4765625,674.8046875,20.99609375,60.546875,108.3984375
1771544507.0772812,187.5,-977.05078125,24.4140625,70.80078125,85.44921875
1771544507.0811875,-95.21484375,501.46484375,20.01953125,-32.2265625,27.83203125
1771544507.0850937,-151.85546875,-123.53515625,20.5078125,-55.6640625,-37.59765625
1771544507.087125,125.9765625,330.56640625,20.01953125,44.43359375,-51.26953125
1771544507.0910313,236.328125,-955.078125,18.5546875,88.8671875,7.8125
1771544507.0949376,-12.20703125,804.6875,19.04296875,11.71875,13.671875
1771544507.0988438,-187.98828125,60.546875,22.4609375,-52.24609375,28.80859375
1771544507.10275,42.48046875,184.08203125,19.04296875,10.25390625,73.2421875
1771544507.1066563,243.1640625,905.76171875,18.06640625,84.47265625,99.12109375
1771544507.1105626,66.89453125,832.51953125,18.06640625,44.43359375,5.859375
1771544507.1144688,-192.87109375,102.05078125,15.625,-43.9453125,2.44140625
1771544507.118375,-41.50390625,-33.69140625,15.13671875,-11.71875,70.80078125
1771544507.1222813,216.30859375,409.66796875,17.578125,60.546875,52.734375
1771544507.1261876,156.25,908.69140625,19.04296875,48.33984375,32.71484375
1771544507.1300938,-136.71875,373.046875,19.04296875,-33.203125,-23.92578125
1771544507.132125,-118.1640625,-383.30078125,18.5546875,-29.78515625,-41.015625
1771544507.1360312,168.45703125,283.203125,18.5546875,63.96484375,45.41015625
1771544507.1399374,210.44921875,-911.1328125,20.99609375,77.63671875,16.6015625
1771544507.1438437,-72.75390625,725.5859375,21.97265625,-8.7890625,14.16015625
1771544507.14775,-175.29296875,-123.046875,18.06640625,-53.22265625,57.12890625
1771544507.1516562,93.26171875,83.0078125,17.08984375,24.4140625,54.6875
1771544507.1555624,241.2109375,886.23046875,23.4375,87.890625,41.50390625
1771544507.1594687,9.765625,916.50390625,29.78515625,22.94921875,37.59765625
1771544507.163375,-198.2421875,-133.7890625,25.390625,-58.59375,51.7578125
1771544507.1672812,5.859375,-411.62109375,16.6015625,-6.34765625,12.20703125
1771544507.1711874,225.5859375,706.54296875,16.11328125,75.1953125,-29.78515625
1771544507.1750937,91.30859375,-959.47265625,22.4609375,72.75390625,2.44140625
1771544507.178125,-175.29296875,198.2421875,25.390625,-25.87890625,33.203125
1771544507.1820312,-74.70703125,-146.484375,22.94921875,-22.4609375,71.77734375
1771544507.1859374,197.265625,608.88671875,25.87890625,61.5234375,93.26171875
1771544507.1898437,169.921875,-897.94921875,29.78515625,64.94140625,75.1953125
1771544507.19375,-134.27734375,372.0703125,26.85546875,-25.390625,57.12890625
1771544507.1976562,-147.94921875,-392.08984375,20.5078125,-39.55078125,39.0625
1771544507.2015624,137.20703125,262.20703125,18.5546875,49.31640625,54.19921875
1771544507.2054687,221.6796875,-932.6171875,25.87890625,93.75,40.52734375
1771544507.209375,-41.015625,387.6953125,26.3671875,11.23046875,-2.9296875
1771544507.2132812,-180.6640625,-403.3203125,20.99609375,-62.01171875,-12.6953125
1771544507.2171874,79.58984375,241.69921875,24.4140625,22.4609375,52.734375
1771544507.2210937,248.53515625,987.79296875,22.94921875,91.30859375,55.6640625
1771544507.222125,37.59765625,850.09765625,20.5078125,31.73828125,19.04296875
1771544507.2260313,-188.4765625,57.12890625,22.4609375,-42.48046875,3.90625
1771544507.2299376,-9.765625,-8.7890625,19.04296875,-0.9765625,-3.90625
1771544507.2338438,224.12109375,770.01953125,21.97265625,83.0078125,62.5
1771544507.23775,116.69921875,-985.83984375,26.3671875,52.734375,96.6796875
1771544507.2416563,-169.43359375,166.015625,19.53125,-46.38671875,62.5
1771544507.2455626,-89.35546875,-338.8671875,14.6484375,-33.69140625,33.203125
1771544507.2494688,194.82421875,280.76171875,15.625,72.75390625,59.5703125
1771544507.253375,203.125,632.32421875,16.6015625,96.19140625,62.01171875
1771544507.2572813,-108.3984375,283.203125,18.06640625,-29.78515625,-0.9765625
1771544507.2611876,-163.57421875,-188.96484375,20.99609375,-68.359375,-21.97265625
1771544507.2650938,127.44140625,210.44921875,22.94921875,34.66796875,-38.57421875
1771544507.267125,212.40234375,987.79296875,24.4140625,86.9140625,41.9921875
1771544507.2710311,-41.50390625,786.62109375,22.94921875,17.578125,63.4765625
1771544507.2749374,-205.078125,-107.91015625,18.5546875,-49.31640625,-19.53125
1771544507.2788436,28.80859375,-41.015625,20.99609375,10.7421875,6.8359375
1771544507.28275,225.09765625,821.2890625,24.4140625,98.14453125,1.46484375
1771544507.2866561,50.78125,839.84375,23.92578125,49.31640625,26.3671875
1771544507.2905624,-200.68359375,-173.828125,22.94921875,-52.24609375,11.23046875
1771544507.2944686,-49.8046875,-759.27734375,25.87890625,-6.34765625,-37.59765625
1771544507.298375,199.21875,94.23828125,26.3671875,82.03125,20.99609375
1771544507.3022811,116.2109375,-983.88671875,25.87890625,61.03515625,28.80859375
1771544507.3061874,-162.59765625,258.7890625,30.76171875,-37.59765625,35.64453125
1771544507.3100936,-124.0234375,-339.35546875,28.80859375,-41.015625,85.44921875
1771544507.312125,154.78515625,478.02734375,23.92578125,59.08203125,104.98046875
1771544507.3160312,195.80078125,-871.09375,25.390625,83.49609375,114.74609375
1771544507.3199375,-93.26171875,524.90234375,20.99609375,-12.20703125,126.46484375
1771544507.3238437,-184.5703125,-379.8828125,16.11328125,-46.38671875,47.36328125
1771544507.32775,88.37890625,31.25,20.01953125,41.015625,-5.37109375
1771544507.3316562,210.9375,821.2890625,19.04296875,75.1953125,31.25
1771544507.3355625,-15.625,358.88671875,20.01953125,21.97265625,45.8984375
1771544507.3394687,-196.2890625,-696.77734375,21.484375,-38.0859375,34.66796875
1771544507.343375,11.71875,-398.4375,23.4375,2.44140625,47.36328125
1771544507.3472812,226.07421875,615.72265625,23.4375,84.47265625,48.33984375
1771544507.3511875,63.96484375,700.68359375,22.94921875,37.59765625,48.828125
1771544507.3550937,-212.890625,-212.40234375,17.08984375,-58.10546875,46.38671875
1771544507.357125,-71.77734375,-395.01953125,14.16015625,-20.5078125,1.953125
1771544507.3610313,193.359375,417.48046875,21.484375,68.84765625,22.4609375
1771544507.3649375,144.53125,854.98046875,19.53125,66.40625,56.15234375
1771544507.3688438,-143.06640625,161.62109375,20.5078125,-27.34375,59.08203125
1771544507.37275,-140.625,-419.43359375,22.94921875,-45.41015625,74.70703125
1771544507.3766563,143.06640625,47.8515625,18.5546875,50.78125,79.58984375
1771544507.3805625,210.9375,378.41796875,19.53125,86.42578125,45.8984375
1771544507.3844688,-55.6640625,-17.08984375,22.94921875,11.23046875,13.671875
1771544507.388375,-176.26953125,-458.984375,20.5078125,-41.015625,42.96875
1771544507.3922813,94.7265625,-190.91796875,9.27734375,25.87890625,57.6171875
1771544507.3961875,270.99609375,577.1484375,9.765625,104.00390625,30.76171875
1771544507.4000938,32.2265625,479.98046875,31.73828125,41.9921875,14.16015625
1771544507.403125,-214.84375,-389.6484375,32.71484375,-73.2421875,3.41796875
1771544507.4070313,-10.25390625,-551.26953125,21.484375,-25.87890625,-5.859375
1771544507.4109375,231.4453125,201.66015625,27.34375,83.49609375,30.76171875
1771544507.4148438,84.9609375,697.265625,37.59765625,41.9921875,41.50390625
1771544507.41875,-202.1484375,-90.33203125,36.1328125,-67.87109375,0.48828125
1771544507.4226563,-97.65625,-777.83203125,32.2265625,-41.50390625,35.15625
1771544507.4265625,175.29296875,-269.04296875,34.1796875,51.26953125,41.9921875
1771544507.4304688,163.0859375,678.22265625,37.109375,77.63671875,45.41015625
1771544507.434375,-124.51171875,239.74609375,35.64453125,-20.5078125,40.52734375
1771544507.4382813,-160.15625,-633.7890625,31.25,-60.05859375,-13.671875
1771544507.4421875,126.953125,-49.8046875,27.34375,40.0390625,34.1796875
1771544507.4460938,215.8203125,894.53125,35.15625,95.21484375,77.63671875
1771544507.462125,-55.6640625,531.73828125,38.57421875,14.16015625,42.96875
1771544507.4660313,-195.3125,-563.4765625,32.71484375,-59.5703125,2.9296875
1771544507.4699376,60.05859375,-376.953125,35.15625,22.4609375,-13.18359375
1771544507.4738438,238.76953125,669.921875,33.203125,110.3515625,7.8125
1771544507.47775,37.59765625,725.09765625,33.203125,49.31640625,42.48046875
1771544507.4816563,-204.58984375,-508.30078125,33.203125,-54.19921875,32.71484375
1771544507.4855626,-33.203125,-841.30859375,32.2265625,0.0,-5.37109375
1771544507.4894688,206.0546875,358.3984375,34.66796875,91.796875,15.13671875
1771544507.493375,104.4921875,840.33203125,32.71484375,62.5,55.6640625
1771544507.4972813,-168.45703125,-173.828125,31.25,-35.64453125,26.3671875
1771544507.5011876,-102.5390625,-562.01171875,31.25,-26.3671875,34.66796875
1771544507.5050938,170.41015625,277.83203125,30.2734375,62.98828125,25.87890625
1771544507.507125,187.98828125,811.5234375,27.83203125,80.56640625,0.0
1771544507.5110312,-103.515625,169.43359375,28.3203125,-3.90625,-18.06640625
1771544507.5149374,-169.43359375,-535.64453125,28.3203125,-35.64453125,-37.59765625
1771544507.5188437,111.328125,-62.5,24.90234375,44.43359375,24.90234375
1771544507.52275,217.28515625,554.6875,27.34375,95.21484375,62.5
1771544507.5266562,-36.1328125,152.83203125,28.80859375,25.390625,17.08984375
1771544507.5305624,-210.44921875,-603.02734375,30.76171875,-49.31640625,13.671875
1771544507.5344687,21.484375,-259.765625,34.66796875,14.6484375,21.484375
1771544507.538375,219.23828125,405.76171875,31.25,96.6796875,15.625
1771544507.5422812,41.9921875,280.76171875,30.2734375,56.640625,23.4375
1771544507.5461874,-206.0546875,-284.1796875,31.25,-47.36328125,20.01953125
1771544507.5500937,-56.15234375,-396.97265625,23.92578125,-4.39453125,22.4609375
1771544507.552125,194.82421875,321.77734375,23.4375,83.0078125,31.73828125
1771544507.5560312,131.8359375,831.0546875,27.34375,51.26953125,63.4765625
1771544507.5599375,-158.69140625,180.17578125,24.90234375,-36.1328125,72.265625
1771544507.5638437,-128.90625,-477.5390625,22.94921875,-27.34375,64.94140625
1771544507.56775,160.15625,41.50390625,22.4609375,78.125,57.6171875
1771544507.5716562,208.984375,687.5,18.06640625,104.4921875,90.8203125
1771544507.5755625,-64.94140625,166.015625,19.04296875,-12.20703125,99.609375
1771544507.5794687,-176.7578125,-709.9609375,22.94921875,-71.2890625,8.30078125
1771544507.583375,77.63671875,-686.03515625,19.53125,19.53125,-20.5078125
1771544507.5872812,219.23828125,139.16015625,17.578125,76.171875,6.34765625
1771544507.5911875,-12.6953125,517.08984375,19.04296875,2.9296875,24.90234375
1771544507.5950937,-225.5859375,-429.19921875,20.5078125,-64.453125,-5.859375
1771544507.597125,-7.8125,-460.9375,20.5078125,10.7421875,32.71484375
1771544507.6010313,213.8671875,566.40625,17.578125,87.40234375,34.1796875
1771544507.6049376,65.91796875,813.96484375,21.97265625,32.2265625,16.6015625
1771544507.6088438,-195.3125,-124.51171875,24.90234375,-59.08203125,80.56640625
1771544507.61275,-82.51953125,-535.64453125,18.5546875,-37.59765625,76.171875
1771544507.6166563,187.98828125,185.546875,20.01953125,56.640625,65.4296875
1771544507.6205626,163.57421875,757.32421875,26.85546875,70.3125,66.40625
1771544507.6244688,-135.25390625,-3.90625,23.4375,-13.671875,57.12890625
1771544507.628375,-160.15625,-967.7734375,20.01953125,-29.296875,-3.41796875
1771544507.6322813,127.44140625,-125.0,26.3671875,57.12890625,-1.953125
1771544507.6361876,208.49609375,925.29296875,26.85546875,93.75,50.29296875
1771544507.6400938,-64.453125,406.25,27.34375,2.44140625,92.28515625
1771544507.642125,-196.2890625,-526.85546875,31.25,-54.6875,83.49609375
1771544507.6460311,67.87109375,-104.98046875,30.2734375,30.2734375,50.29296875
1771544507.6499374,235.3515625,771.97265625,30.76171875,95.703125,49.8046875
1771544507.6538436,20.5078125,685.05859375,29.296875,29.296875,81.0546875
1771544507.65775,-205.078125,-227.5390625,29.296875,-38.57421875,70.80078125
1771544507.6616561,-11.23046875,-391.11328125,29.296875,27.34375,104.00390625
1771544507.6655624,225.09765625,413.0859375,29.78515625,104.98046875,124.51171875
1771544507.6694686,108.3984375,449.70703125,28.3203125,72.75390625,52.24609375
1771544507.673375,-173.828125,-367.1875,25.390625,-41.9921875,4.8828125
1771544507.6772811,-90.8203125,-438.96484375,28.80859375,-34.1796875,3.90625
1771544507.6811874,187.5,232.421875,28.80859375,71.2890625,6.8359375
1771544507.6850936,178.22265625,747.55859375,28.80859375,77.63671875,41.9921875
1771544507.687125,-95.703125,290.52734375,29.296875,-7.8125,44.921875
1771544507.6910312,-146.97265625,-320.3125,24.4140625,-27.83203125,28.3203125
1771544507.6949375,105.95703125,-34.66796875,23.4375,36.62109375,39.0625
1771544507.6988437,215.33203125,651.85546875,26.85546875,82.51953125,73.73046875
1771544507.70275,-31.25,607.421875,28.3203125,12.6953125,83.49609375
1771544507.7066562,-208.0078125,-329.1015625,26.3671875,-52.734375,72.75390625
1771544507.7105625,30.76171875,-528.3203125,24.4140625,11.23046875,7.32421875
1771544507.7144687,221.19140625,164.0625,22.94921875,83.49609375,-19.04296875
1771544507.718375,37.59765625,605.46875,23.4375,36.1328125,17.578125
1771544507.7222812,-195.80078125,-113.76953125,22.94921875,-56.15234375,-22.94921875
1771544507.7261875,-41.9921875,-389.16015625,24.4140625,-22.4609375,10.7421875
1771544507.7300937,196.2890625,443.84765625,27.34375,71.77734375,38.0859375
1771544507.733125,123.046875,946.77734375,29.78515625,68.84765625,41.50390625
1771544507.7370312,-156.25,88.37890625,32.2265625,-37.109375,62.98828125
1771544507.7409375,-116.2109375,-645.5078125,27.34375,-48.33984375,63.96484375
1771544507.7448437,157.2265625,100.09765625,20.01953125,46.38671875,39.0625
1771544507.74875,211.9140625,905.2734375,9.765625,95.703125,19.04296875
1771544507.7526562,-58.10546875,320.80078125,18.06640625,5.859375,38.0859375
1771544507.7565625,-189.94140625,-768.06640625,38.0859375,-70.80078125,83.0078125
1771544507.7604687,68.84765625,-305.6640625,41.015625,26.85546875,84.47265625
1771544507.764375,200.68359375,904.296875,40.52734375,88.8671875,73.2421875
1771544507.7682812,-44.921875,686.03515625,38.57421875,6.34765625,76.66015625
1771544507.7721875,-217.28515625,-282.2265625,35.15625,-47.8515625,63.4765625
1771544507.7760937,-3.90625,-168.45703125,41.9921875,5.859375,12.20703125
1771544507.792125,202.63671875,748.046875,48.33984375,100.5859375,41.9921875
1771544507.7960312,59.08203125,802.24609375,49.31640625,68.359375,42.48046875
1771544507.7999375,-210.44921875,-109.86328125,41.015625,-69.3359375,4.39453125
1771544507.8038437,-85.44921875,-391.11328125,32.71484375,-24.90234375,20.99609375
1771544507.80775,186.5234375,334.47265625,40.52734375,82.03125,12.20703125
1771544507.8116562,150.87890625,661.62109375,39.55078125,67.87109375,-6.8359375
1771544507.8155625,-131.34765625,-429.19921875,32.71484375,-29.78515625,-45.8984375
1771544507.8194687,-144.04296875,-721.19140625,34.1796875,-44.921875,20.01953125
1771544507.823375,137.20703125,237.3046875,32.71484375,50.78125,9.765625
1771544507.8272812,203.125,863.28125,33.203125,82.51953125,-20.5078125
1771544507.8311875,-73.2421875,522.94921875,35.15625,2.9296875,40.0390625
1771544507.8350937,-183.10546875,-206.0546875,33.69140625,-39.55078125,27.83203125
1771544507.837125,64.453125,51.7578125,33.69140625,33.203125,19.53125
1771544507.8410313,212.40234375,770.5078125,34.1796875,83.984375,34.1796875
1771544507.8449376,3.90625,684.08203125,34.1796875,25.390625,12.6953125
1771544507.8488438,-203.125,-133.7890625,31.73828125,-42.96875,-19.53125
1771544507.85275,-2.44140625,-175.78125,31.73828125,8.30078125,28.80859375
1771544507.8566563,206.0546875,498.046875,27.34375,82.03125,56.15234375
1771544507.8605626,78.61328125,611.328125,23.4375,62.01171875,2.9296875
1771544507.8644688,-180.17578125,-106.93359375,23.92578125,-37.59765625,-15.13671875
1771544507.868375,-84.9609375,-335.44921875,24.4140625,-32.2265625,11.23046875
1771544507.8722813,173.33984375,2.9296875,26.85546875,75.68359375,42.48046875
1771544507.8761876,161.1328125,472.65625,30.2734375,87.40234375,52.24609375
1771544507.8800938,-116.69921875,377.44140625,31.73828125,-10.25390625,48.33984375
1771544507.882125,-153.80859375,-281.73828125,28.3203125,-23.4375,55.17578125
1771544507.8860312,115.234375,193.359375,26.3671875,53.7109375,100.09765625
1771544507.8899374,209.47265625,-993.65234375,28.80859375,84.9609375,60.546875
1771544507.8938437,-33.69140625,678.7109375,31.25,4.39453125,7.8125
1771544507.89775,-188.4765625,-214.84375,27.83203125,-58.59375,52.24609375
1771544507.9016562,45.8984375,-209.47265625,26.3671875,19.53125,22.94921875
1771544507.9055624,221.19140625,610.83984375,28.80859375,94.23828125,66.89453125
1771544507.9094687,31.73828125,795.41015625,33.203125,32.71484375,104.00390625
1771544507.913375,-190.4296875,-251.46484375,27.83203125,-51.26953125,36.1328125
1771544507.9172812,-21.97265625,-751.46484375,20.5078125,-3.90625,26.85546875
1771544507.9211874,210.44921875,369.140625,22.4609375,86.9140625,18.06640625
1771544507.9250937,118.65234375,-951.66015625,29.78515625,73.2421875,13.18359375
1771544507.927125,-151.3671875,192.3828125,28.3203125,-38.57421875,1.953125
1771544507.9310312,-91.30859375,-249.51171875,24.90234375,-36.62109375,17.578125
1771544507.9349375,175.78125,554.19921875,27.83203125,60.546875,87.40234375
1771544507.9388437,192.3828125,-903.3203125,24.90234375,82.03125,82.51953125
1771544507.94275,-88.8671875,471.19140625,20.5078125,-15.625,6.34765625
1771544507.9466562,-158.203125,-424.8046875,22.4609375,-50.29296875,-20.01953125
1771544507.9505625,93.75,68.84765625,24.90234375,38.0859375,73.73046875
1771544507.9544687,208.49609375,-975.5859375,23.92578125,83.984375,112.3046875
1771544507.958375,-8.30078125,431.640625,26.85546875,16.11328125,31.73828125
1771544507.9622812,-173.828125,-412.59765625,24.90234375,-45.41015625,10.25390625
1771544507.9661875,42.48046875,32.71484375,22.94921875,16.6015625,35.15625
1771544507.9700937,229.00390625,712.40234375,25.87890625,93.75,53.22265625
1771544507.972125,63.4765625,773.92578125,22.94921875,44.921875,20.01953125
1771544507.9760313,-175.29296875,107.421875,23.92578125,-46.875,-41.50390625
1771544507.9799376,-36.62109375,0.0,27.34375,-3.41796875,-6.8359375
1771544507.9838438,206.54296875,711.9140625,26.3671875,81.54296875,46.875
1771544507.98775,148.92578125,-932.12890625,27.83203125,76.171875,25.87890625
1771544507.9916563,-134.765625,393.06640625,29.296875,-5.859375,39.55078125
1771544507.9955626,-105.95703125,-62.98828125,28.3203125,-17.578125,67.87109375
1771544507.9994688,182.6171875,413.0859375,27.83203125,74.70703125,41.9921875
1771544508.003375,224.609375,821.2890625,32.2265625,100.09765625,21.484375
1771544508.0072813,-58.10546875,723.6328125,30.2734375,9.765625,29.296875
1771544508.0111876,-159.1796875,147.4609375,24.4140625,-27.34375,50.78125
1771544508.0150938,96.19140625,398.4375,27.34375,46.38671875,20.5078125
1771544508.018125,232.421875,991.2109375,31.73828125,89.84375,0.48828125
1771544508.0220313,19.04296875,904.78515625,35.64453125,33.69140625,32.2265625
1771544508.0259376,-176.7578125,243.65234375,36.1328125,-38.0859375,14.6484375
1771544508.0298438,25.390625,148.4375,33.69140625,31.25,2.9296875
1771544508.03375,238.28125,826.66015625,30.2734375,109.375,55.6640625
1771544508.0376563,95.703125,-951.171875,31.73828125,55.17578125,89.35546875
1771544508.0415626,-179.19921875,378.41796875,32.2265625,-30.2734375,38.57421875
1771544508.0454688,-72.75390625,-161.62109375,30.76171875,0.48828125,41.50390625
1771544508.049375,218.75,512.6953125,45.8984375,118.65234375,73.73046875
1771544508.0532813,187.98828125,-858.88671875,42.96875,112.79296875,86.9140625
1771544508.0571876,-126.953125,635.7421875,19.53125,-22.94921875,92.7734375
1771544508.0610938,-142.578125,147.94921875,12.6953125,-51.7578125,42.48046875
1771544508.061125,137.20703125,681.15234375,16.11328125,44.43359375,20.5078125
1771544508.0650313,227.05078125,-893.5546875,11.23046875,94.7265625,67.3828125
1771544508.0689375,-19.04296875,733.88671875,6.34765625,31.73828125,41.50390625
1771544508.0728438,-157.2265625,115.234375,6.34765625,-41.9921875,29.78515625
1771544508.07675,79.58984375,500.9765625,7.32421875,14.16015625,85.9375
1771544508.0806563,236.81640625,-899.4140625,11.23046875,89.84375,18.5546875
1771544508.0845625,35.64453125,788.57421875,14.16015625,35.15625,-21.484375
1771544508.0884688,-176.26953125,-197.265625,9.27734375,-36.62109375,40.0390625
1771544508.092375,1.46484375,69.82421875,4.8828125,9.765625,80.56640625
1771544508.0962813,229.00390625,977.5390625,9.765625,94.23828125,62.5
1771544508.1001875,125.0,-979.00390625,16.11328125,79.1015625,23.92578125
1771544508.1040938,-144.04296875,462.40234375,16.6015625,-39.0625,-0.48828125
1771544508.107125,-69.82421875,257.8125,12.20703125,-38.57421875,26.85546875
1771544508.1110313,180.17578125,811.03515625,13.671875,70.3125,28.3203125
1771544508.1149375,183.59375,-918.9453125,15.625,90.8203125,52.24609375
1771544508.1188438,-89.84375,747.55859375,12.20703125,-11.71875,58.59375
1771544508.12275,-155.76171875,239.74609375,10.7421875,-48.33984375,41.50390625
1771544508.1266563,107.421875,590.33203125,10.7421875,35.15625,70.3125
1771544508.1305625,219.23828125,948.2421875,12.6953125,87.40234375,63.96484375
1771544508.1344688,-28.80859375,616.2109375,18.06640625,18.5546875,33.203125
1771544508.138375,-189.453125,218.26171875,20.5078125,-54.19921875,27.34375
1771544508.1422813,45.8984375,425.78125,18.5546875,12.20703125,43.9453125
1771544508.1461875,223.6328125,925.29296875,18.5546875,85.44921875,41.50390625
1771544508.1500938,46.875,979.00390625,18.5546875,34.1796875,14.16015625
1771544508.167125,-188.96484375,425.29296875,16.6015625,-64.94140625,19.04296875
1771544508.1710312,-41.50390625,176.26953125,13.671875,-16.11328125,0.0
1771544508.1749375,200.1953125,732.421875,17.08984375,78.125,28.80859375
1771544508.1788437,123.53515625,-925.78125,21.97265625,46.875,101.5625
1771544508.18275,-142.08984375,573.2421875,22.94921875,-35.15625,47.36328125
1771544508.1866562,-96.6796875,-193.359375,18.5546875,-26.85546875,-8.7890625
1771544508.1905625,155.76171875,197.265625,18.06640625,51.26953125,43.45703125
1771544508.1944687,178.22265625,-939.94140625,24.4140625,57.12890625,66.40625
1771544508.198375,-93.75,649.90234375,27.34375,-23.92578125,-13.18359375
1771544508.2022812,-174.31640625,-212.890625,20.99609375,-59.08203125,-29.78515625
1771544508.2061875,86.9140625,237.79296875,19.04296875,16.11328125,13.18359375
1771544508.2100937,207.03125,-926.7578125,21.97265625,70.3125,65.4296875
1771544508.212125,-13.671875,845.21484375,15.13671875,4.8828125,30.2734375
1771544508.2160313,-196.2890625,-1.953125,12.6953125,-54.6875,-41.50390625
1771544508.2199376,9.765625,132.8125,10.7421875,7.8125,15.13671875
1771544508.2238438,225.5859375,949.70703125,12.6953125,88.37890625,61.03515625
1771544508.22775,71.2890625,975.09765625,18.5546875,42.48046875,24.90234375
1771544508.2316563,-189.453125,89.84375,20.5078125,-53.22265625,7.8125
1771544508.2355626,-59.5703125,-215.33203125,19.53125,-32.71484375,56.15234375
1771544508.2394688,195.80078125,664.0625,16.6015625,49.31640625,55.6640625
1771544508.243375,146.97265625,-933.10546875,20.01953125,60.05859375,17.08984375
1771544508.2472813,-142.08984375,83.984375,18.06640625,-34.66796875,-0.9765625
1771544508.2511876,-139.16015625,-502.44140625,16.11328125,-42.48046875,26.3671875
1771544508.2550938,144.04296875,392.578125,19.04296875,51.7578125,42.48046875
1771544508.257125,203.61328125,-958.0078125,19.04296875,69.82421875,76.66015625
1771544508.2610312,-57.12890625,563.96484375,19.04296875,-11.71875,52.734375
1771544508.2649374,-168.45703125,-65.4296875,15.625,-57.6171875,11.23046875
1771544508.2688437,71.77734375,331.0546875,13.671875,19.04296875,37.109375
1771544508.27275,213.8671875,-981.4453125,17.08984375,76.66015625,47.36328125
1771544508.2766562,-1.46484375,836.9140625,18.5546875,9.765625,75.68359375
1771544508.2805624,-207.03125,-91.30859375,18.06640625,-62.98828125,26.3671875
1771544508.2844687,-16.11328125,-29.78515625,15.13671875,-1.46484375,-15.625
1771544508.288375,200.1953125,681.640625,16.11328125,75.1953125,0.9765625
1771544508.2922812,80.078125,677.734375,20.99609375,43.45703125,-27.83203125
1771544508.2961874,-195.80078125,254.39453125,20.01953125,-52.24609375,33.69140625
1771544508.3000937,-103.02734375,75.68359375,20.99609375,-46.875,80.078125
1771544508.302125,172.8515625,620.1171875,26.85546875,45.41015625,76.171875
1771544508.3060312,162.109375,-936.5234375,28.3203125,60.546875,92.28515625
1771544508.3099375,-126.46484375,635.7421875,27.34375,-25.390625,71.2890625
1771544508.3138437,-156.25,-41.9921875,26.3671875,-41.015625,22.94921875
1771544508.31775,118.65234375,221.6796875,23.4375,34.66796875,-4.39453125
1771544508.3216562,200.68359375,943.84765625,25.390625,70.80078125,61.5234375
1771544508.3255625,-44.921875,625.9765625,28.3203125,11.23046875,18.06640625
1771544508.3294687,-194.82421875,-208.49609375,28.3203125,-50.29296875,1.953125
1771544508.333375,39.55078125,-183.10546875,25.87890625,27.34375,51.26953125
1771544508.3372812,224.12109375,626.953125,21.97265625,99.609375,37.109375
1771544508.3411875,55.6640625,-999.0234375,20.01953125,38.57421875,25.390625
1771544508.3450937,-165.52734375,154.78515625,22.4609375,-29.78515625,45.41015625
1771544508.347125,-32.71484375,-35.15625,30.2734375,13.671875,46.38671875
1771544508.3510313,187.98828125,760.7421875,35.64453125,76.171875,53.7109375
1771544508.3549376,111.81640625,-898.4375,32.2265625,67.87109375,65.4296875
1771544508.3588438,-166.015625,200.1953125,29.78515625,-27.34375,11.23046875
1771544508.36275,-117.1875,-416.9921875,36.62109375,-32.71484375,-2.44140625
1771544508.3666563,145.99609375,371.58203125,32.2265625,60.546875,28.3203125
1771544508.3705626,166.9921875,-905.2734375,30.76171875,84.47265625,37.109375
1771544508.3744688,-102.5390625,449.21875,32.2265625,-15.625,-1.46484375
1771544508.378375,-172.8515625,-519.04296875,24.90234375,-77.63671875,37.59765625
1771544508.3822813,90.33203125,272.94921875,24.4140625,32.2265625,74.21875
1771544508.3861876,211.42578125,-908.203125,25.87890625,104.4921875,61.03515625
1771544508.3900938,-11.71875,744.62890625,24.90234375,14.6484375,49.8046875
1771544508.392125,-181.640625,-17.578125,28.80859375,-52.734375,34.1796875
1771544508.3960311,29.78515625,206.54296875,30.76171875,20.5078125,56.15234375
1771544508.3999374,225.09765625,948.73046875,29.296875,101.07421875,76.171875
1771544508.4038436,59.5703125,916.9921875,32.71484375,57.12890625,37.109375
1771544508.40775,-192.87109375,148.92578125,26.85546875,-48.828125,4.8828125
1771544508.4116561,-48.828125,-205.56640625,24.4140625,-20.99609375,10.25390625
1771544508.4155624,207.51953125,521.97265625,27.34375,78.125,25.390625
1771544508.4194686,148.92578125,745.60546875,26.85546875,78.125,41.9921875
1771544508.423375,-144.53125,-26.85546875,31.73828125,-21.97265625,10.7421875
1771544508.4272811,-126.953125,-128.41796875,28.80859375,-29.296875,27.83203125
1771544508.4311874,155.2734375,532.71484375,24.90234375,63.4765625,54.6875
1771544508.4350936,207.51953125,995.60546875,30.76171875,87.40234375,53.7109375
1771544508.437125,-59.08203125,715.33203125,27.83203125,17.08984375,54.19921875
1771544508.4410312,-166.50390625,75.68359375,26.85546875,-31.25,70.3125
1771544508.4449375,88.8671875,324.21875,29.78515625,25.390625,98.14453125
1771544508.4488437,230.46875,945.80078125,29.78515625,92.7734375,48.33984375
1771544508.45275,6.34765625,881.8359375,35.64453125,42.96875,48.828125
1771544508.4566562,-196.77734375,-0.48828125,30.2734375,-45.8984375,22.94921875
1771544508.4605625,6.34765625,-284.1796875,24.90234375,3.41796875,-5.859375
1771544508.4644687,225.5859375,395.01953125,24.90234375,73.2421875,26.85546875
1771544508.468375,85.44921875,873.046875,24.4140625,41.50390625,11.71875
1771544508.4722812,-181.15234375,387.20703125,29.78515625,-42.48046875,58.59375
1771544508.4761875,-81.0546875,-61.03515625,27.83203125,-29.78515625,109.375
1771544508.4800937,180.6640625,538.57421875,21.97265625,73.73046875,63.96484375
1771544508.482125,157.2265625,-868.1640625,25.390625,81.54296875,34.66796875
1771544508.4860313,-124.0234375,556.640625,30.76171875,-17.578125,9.765625
1771544508.4899375,-142.08984375,-156.73828125,27.34375,-30.2734375,26.3671875
1771544508.4938438,124.0234375,428.22265625,28.3203125,64.94140625,57.12890625
1771544508.49775,208.49609375,-886.23046875,28.3203125,84.9609375,31.25
1771544508.5016563,-50.29296875,622.55859375,23.4375,-3.90625,18.06640625
1771544508.5055625,-189.453125,-521.97265625,22.4609375,-53.22265625,35.15625
1771544508.5094688,65.4296875,-190.4296875,22.4609375,15.13671875,57.12890625
1771544508.513375,231.4453125,938.4765625,22.4609375,90.33203125,-17.578125
1771544508.5172813,32.2265625,876.953125,25.87890625,41.50390625,-10.25390625
1771544508.5211875,-184.08203125,-111.81640625,25.390625,-44.43359375,-15.13671875
1771544508.5250938,-3.41796875,-202.63671875,26.85546875,8.7890625,-28.3203125
1771544508.542125,227.5390625,786.1328125,25.87890625,77.1484375,13.671875
1771544508.5460312,116.2109375,945.80078125,21.484375,57.6171875,0.9765625
1771544508.5499375,-166.50390625,93.75,24.90234375,-28.3203125,48.33984375
1771544508.5538437,-104.4921875,-145.01953125,26.85546875,-25.87890625,70.3125
1771544508.55775,160.64453125,663.57421875,25.390625,58.10546875,51.26953125
1771544508.5616562,177.24609375,936.5234375,25.390625,65.4296875,-0.9765625
1771544508.5655625,-101.5625,114.2578125,27.34375,-14.16015625,-4.8828125
1771544508.5694687,-163.57421875,-271.97265625,28.3203125,-53.22265625,38.57421875
1771544508.573375,115.72265625,405.76171875,25.87890625,28.3203125,53.22265625
1771544508.5772812,215.8203125,-956.54296875,23.92578125,85.44921875,16.11328125
1771544508.5811875,-47.8515625,775.87890625,26.85546875,6.34765625,43.45703125
1771544508.5850937,-215.8203125,16.6015625,25.87890625,-58.10546875,46.38671875
1771544508.587125,19.04296875,49.31640625,24.90234375,7.32421875,22.4609375
1771544508.5910313,210.9375,742.1875,26.3671875,80.078125,72.265625
1771544508.5949376,34.66796875,927.24609375,30.2734375,42.96875,80.078125
1771544508.5988438,-204.58984375,211.9140625,31.73828125,-44.43359375,62.5
1771544508.60275,-52.734375,-41.50390625,23.4375,-9.27734375,54.19921875
1771544508.6066563,200.1953125,606.4453125,21.97265625,76.171875,41.50390625
1771544508.6105626,133.30078125,920.41015625,27.83203125,65.4296875,28.80859375
1771544508.6144688,-170.8984375,243.65234375,26.85546875,-35.15625,7.8125
1771544508.618375,-133.7890625,-226.07421875,22.4609375,-36.62109375,3.41796875
1771544508.6222813,154.78515625,96.19140625,22.94921875,54.19921875,13.18359375
1771544508.6261876,186.5234375,827.1484375,24.4140625,68.359375,51.26953125
1771544508.6300938,-95.21484375,731.4453125,28.3203125,-9.765625,42.48046875
1771544508.632125,-187.98828125,-156.25,22.4609375,-55.6640625,27.83203125
1771544508.6360312,78.125,228.515625,15.13671875,29.78515625,89.35546875
1771544508.6399374,220.21484375,-984.375,24.4140625,102.5390625,69.3359375
1771544508.6438437,-8.30078125,790.0390625,27.34375,33.203125,14.6484375
1771544508.64775,-205.56640625,-172.8515625,24.4140625,-44.921875,15.625
1771544508.6516562,2.44140625,-327.63671875,24.4140625,13.671875,21.97265625
1771544508.6555624,207.03125,651.85546875,24.4140625,84.47265625,64.94140625
1771544508.6594687,66.89453125,-950.68359375,28.3203125,42.48046875,54.19921875
1771544508.663375,-189.94140625,7.32421875,25.87890625,-48.33984375,12.20703125
1771544508.6672812,-69.3359375,-580.078125,27.34375,-16.6015625,23.4375
1771544508.6711874,188.96484375,514.16015625,29.296875,74.21875,25.390625
1771544508.6750937,146.484375,-878.90625,27.34375,68.84765625,4.8828125
1771544508.677125,-152.83203125,395.01953125,28.3203125,-32.2265625,36.62109375
1771544508.6810312,-154.78515625,-249.0234375,24.4140625,-51.26953125,17.08984375
1771544508.6849375,123.046875,409.1796875,23.4375,35.64453125,29.78515625
1771544508.6888437,192.3828125,-921.38671875,26.85546875,74.70703125,55.6640625
1771544508.69275,-62.5,613.28125,31.25,-0.9765625,63.96484375
1771544508.6966562,-189.94140625,-301.7578125,25.390625,-52.734375,58.10546875
1771544508.7005625,67.3828125,-150.87890625,20.01953125,33.203125,18.5546875
1771544508.7044687,224.12109375,776.3671875,20.99609375,93.26171875,19.04296875
1771544508.708375,-0.48828125,469.7265625,20.5078125,10.25390625,57.6171875
1771544508.7122812,-213.8671875,-553.7109375,24.4140625,-77.1484375,59.08203125
1771544508.7161875,-5.859375,-206.0546875,21.484375,-13.671875,-0.9765625
1771544508.7200937,222.16796875,703.125,24.4140625,69.82421875,15.625
1771544508.722125,85.9375,923.828125,30.2734375,44.921875,15.13671875
1771544508.7260313,-186.03515625,209.9609375,25.390625,-48.828125,14.6484375
1771544508.7299376,-94.7265625,-145.99609375,24.90234375,-28.3203125,62.98828125
1771544508.7338438,176.7578125,456.0546875,29.296875,76.171875,42.48046875
1771544508.73775,169.921875,930.17578125,30.76171875,75.68359375,-29.296875
1771544508.7416563,-122.0703125,237.3046875,30.76171875,-13.18359375,-28.80859375
1771544508.7455626,-160.64453125,-472.16796875,27.83203125,-32.2265625,37.109375
1771544508.7494688,119.140625,28.3203125,23.4375,47.8515625,110.3515625
1771544508.753375,211.42578125,481.93359375,22.4609375,86.42578125,109.86328125
1771544508.7572813,-49.8046875,345.703125,27.34375,6.8359375,5.37109375
1771544508.7611876,-204.1015625,-157.2265625,30.2734375,-50.29296875,39.55078125
1771544508.7650938,41.50390625,-35.15625,23.92578125,37.109375,58.59375
1771544508.767125,223.14453125,765.13671875,24.90234375,102.5390625,39.55078125
1771544508.7710311,39.55078125,916.50390625,34.1796875,39.55078125,70.3125
1771544508.7749374,-195.80078125,-65.91796875,29.296875,-55.17578125,-18.06640625
1771544508.7788436,-38.57421875,-368.1640625,18.5546875,-4.39453125,-12.6953125
1771544508.78275,201.171875,575.68359375,20.99609375,85.44921875,90.8203125
1771544508.7866561,115.72265625,876.953125,27.34375,60.546875,74.70703125
1771544508.7905624,-175.78125,-21.97265625,24.4140625,-28.80859375,66.89453125
1771544508.7944686,-117.1875,-796.38671875,23.92578125,-25.390625,62.5
1771544508.798375,159.66796875,-51.26953125,27.83203125,53.7109375,83.49609375
1771544508.8022811,182.6171875,992.1875,26.3671875,64.94140625,69.3359375
1771544508.8061874,-89.84375,264.16015625,24.90234375,-13.18359375,20.01953125
1771544508.8100936,-166.9921875,-656.73828125,24.90234375,-47.36328125,26.3671875
1771544508.812125,103.515625,-4.8828125,24.4140625,38.0859375,24.90234375
1771544508.8160312,218.26171875,942.87109375,25.390625,85.44921875,62.98828125
1771544508.8199375,-24.90234375,645.99609375,28.3203125,18.06640625,100.5859375
1771544508.8238437,-204.58984375,-358.3984375,25.87890625,-45.41015625,20.99609375
1771544508.82775,12.6953125,-207.03125,21.484375,9.765625,6.8359375
1771544508.8316562,210.9375,595.21484375,26.3671875,77.1484375,44.921875
1771544508.8355625,53.22265625,423.828125,29.296875,43.9453125,-12.20703125
1771544508.8394687,-198.2421875,-620.60546875,20.99609375,-41.9921875,-23.92578125
1771544508.843375,-63.96484375,-565.4296875,20.01953125,-10.7421875,-8.30078125
1771544508.8472812,193.84765625,426.7578125,25.390625,83.0078125,-17.578125
1771544508.8511875,136.23046875,800.78125,27.34375,65.91796875,-16.11328125
1771544508.8550937,-154.78515625,84.9609375,27.83203125,-35.15625,-11.71875
1771544508.858125,-137.20703125,-492.1875,23.92578125,-36.1328125,25.87890625
1771544508.8620312,141.11328125,145.5078125,25.390625,49.8046875,52.734375
1771544508.8659375,194.82421875,720.21484375,26.3671875,72.265625,38.0859375
1771544508.8698437,-76.66015625,234.375,27.34375,-3.41796875,11.23046875
1771544508.87375,-198.2421875,-409.1796875,26.85546875,-62.01171875,30.76171875
1771544508.8776562,52.734375,-158.203125,27.34375,11.71875,61.03515625
1771544508.8815625,195.80078125,276.85546875,27.83203125,77.1484375,39.55078125
1771544508.8854687,-26.85546875,188.4765625,30.76171875,1.46484375,14.16015625
1771544508.889375,-234.375,-313.96484375,34.1796875,-72.75390625,8.7890625
1771544508.8932812,-26.3671875,-383.30078125,32.71484375,-4.39453125,5.37109375
1771544508.8971875,201.171875,355.95703125,30.76171875,73.73046875,-13.18359375
1771544508.9010937,64.94140625,714.84375,32.2265625,35.15625,10.7421875
1771544508.917125,-207.51953125,-44.921875,32.71484375,-49.8046875,61.5234375
1771544508.9210312,-96.19140625,-602.05078125,31.25,-27.34375,16.11328125
1771544508.9249375,176.26953125,-69.3359375,26.3671875,53.7109375,-23.4375
1771544508.9288437,156.25,594.7265625,24.90234375,61.5234375,45.41015625
1771544508.93275,-134.27734375,102.5390625,29.78515625,-26.85546875,86.42578125
1771544508.9366562,-154.78515625,-883.7890625,27.83203125,-42.48046875,52.734375
1771544508.9405625,130.859375,-833.984375,25.390625,50.29296875,45.41015625
1771544508.9444687,214.35546875,160.64453125,31.25,89.84375,64.94140625
1771544508.948375,-52.24609375,173.828125,35.15625,17.08984375,50.78125
1771544508.9522812,-197.75390625,-817.87109375,30.2734375,-40.52734375,12.6953125
1771544508.9561875,49.31640625,-617.67578125,26.85546875,24.90234375,48.33984375
1771544508.9600937,220.703125,279.296875,30.76171875,92.28515625,76.171875
1771544508.962125,25.87890625,254.8828125,32.2265625,43.45703125,58.10546875
1771544508.9660313,-206.54296875,-708.49609375,29.296875,-48.33984375,33.203125
1771544508.9699376,-26.3671875,-882.32421875,27.34375,-4.39453125,26.85546875
1771544508.9738438,207.51953125,10.7421875,27.83203125,84.9609375,73.73046875
1771544508.97775,104.00390625,287.109375,25.87890625,61.03515625,84.9609375
1771544508.9816563,-171.38671875,-594.23828125,20.99609375,-34.66796875,66.40625
1771544508.9855626,-97.65625,-1000.0,21.484375,-19.04296875,57.12890625
1771544508.9894688,177.734375,-556.640625,23.92578125,76.171875,16.6015625
1771544508.993375,180.6640625,-81.54296875,20.01953125,85.44921875,14.6484375
1771544508.9972813,-99.609375,-575.1953125,19.04296875,-13.18359375,38.0859375
1771544509.0011876,-153.3203125,-1000.0,22.94921875,-47.36328125,-4.8828125
1771544509.0050938,118.65234375,-602.5390625,21.97265625,43.9453125,24.90234375
1771544509.007125,226.5625,-20.5078125,22.4609375,100.09765625,57.6171875
1771544509.0110312,-20.01953125,-542.48046875,24.4140625,19.53125,78.61328125
1771544509.0149374,-189.94140625,-1000.0,25.87890625,-51.26953125,74.70703125
1771544509.0188437,40.0390625,-816.40625,26.85546875,22.4609375,31.25
1771544509.02275,231.4453125,-240.234375,28.3203125,90.33203125,55.17578125
1771544509.0266562,56.15234375,-391.6015625,32.2265625,45.8984375,25.390625
1771544509.0305624,-189.94140625,-978.515625,34.66796875,-36.1328125,19.04296875
1771544509.0344687,-41.015625,-958.984375,29.78515625,3.41796875,37.109375
1771544509.038375,213.37890625,-660.15625,29.78515625,88.8671875,9.27734375
1771544509.0422812,158.69140625,-730.95703125,32.71484375,75.1953125,-5.859375
1771544509.0461874,-115.234375,-958.0078125,38.57421875,-1.953125,-66.89453125
1771544509.0500937,-103.515625,-1000.0,36.62109375,-21.484375,-40.52734375
1771544509.052125,158.203125,-701.66015625,18.06640625,36.62109375,61.5234375
1771544509.0560312,215.33203125,-125.48828125,20.99609375,77.1484375,19.04296875
1771544509.0599375,-57.12890625,-504.39453125,28.3203125,5.37109375,16.6015625
1771544509.0638437,-169.43359375,-1000.0,20.99609375,-55.6640625,91.796875
1771544509.06775,99.609375,-842.28515625,29.296875,21.484375,49.31640625
1771544509.0716562,246.09375,-396.97265625,35.15625,101.07421875,12.6953125
1771544509.0755625,6.8359375,-568.359375,33.69140625,27.34375,45.41015625
1771544509.0794687,-191.40625,-979.00390625,35.15625,-52.24609375,68.84765625
1771544509.083375,29.78515625,-1000.0,31.25,5.37109375,61.5234375
1771544509.0872812,242.67578125,-612.3046875,27.34375,83.984375,50.29296875
1771544509.0911875,87.40234375,-388.18359375,30.2734375,53.22265625,41.9921875
1771544509.0950937,-176.26953125,-868.65234375,29.78515625,-39.0625,19.04296875
1771544509.097125,-50.78125,-1000.0,33.203125,1.46484375,40.0390625
1771544509.1010313,212.890625,-457.51953125,31.25,84.47265625,105.46875
1771544509.1049376,172.8515625,-73.73046875,30.2734375,81.0546875,105.95703125
1771544509.1088438,-123.53515625,-642.578125,35.64453125,-9.765625,10.25390625
1771544509.11275,-129.39453125,-1000.0,32.71484375,-20.99609375,-7.8125
1771544509.1166563,154.78515625,-872.55859375,28.80859375,62.01171875,52.24609375
1771544509.1205626,223.14453125,-440.91796875,30.2734375,85.44921875,49.31640625
1771544509.1244688,-44.43359375,-603.515625,27.83203125,16.6015625,45.41015625
1771544509.128375,-169.921875,-1000.0,26.3671875,-33.203125,62.98828125
1771544509.1322813,80.56640625,-876.46484375,26.3671875,36.62109375,42.48046875
1771544509.1361876,242.67578125,-335.44921875,28.80859375,97.65625,38.57421875
1771544509.1400938,24.4140625,-488.76953125,25.87890625,37.59765625,46.875
1771544509.142125,-200.68359375,-1000.0,23.92578125,-54.6875,-13.671875
1771544509.1460311,2.9296875,-979.98046875,26.3671875,0.9765625,3.41796875
1771544509.1499374,226.07421875,-507.32421875,24.4140625,86.9140625,83.984375
1771544509.1538436,106.93359375,-511.23046875,27.34375,70.80078125,94.7265625
1771544509.15775,-175.78125,-990.234375,25.390625,-35.15625,21.97265625
1771544509.1616561,-105.95703125,-990.234375,22.94921875,-27.83203125,0.9765625
1771544509.1655624,173.828125,-878.90625,19.53125,73.2421875,-20.01953125
1771544509.1694686,170.8984375,-857.91015625,20.5078125,84.9609375,35.15625
1771544509.173375,-119.62890625,-969.7265625,25.87890625,-14.16015625,73.73046875
1771544509.1772811,-159.66796875,-981.93359375,22.4609375,-55.6640625,29.78515625
1771544509.1811874,125.9765625,-915.52734375,24.90234375,42.96875,68.359375
1771544509.1850936,210.44921875,-575.68359375,20.99609375,77.1484375,43.9453125
1771544509.188125,-54.6875,-683.10546875,17.578125,-11.71875,27.34375
1771544509.1920311,-198.73046875,-987.3046875,22.4609375,-61.5234375,24.4140625
1771544509.1959374,41.9921875,-1000.0,22.94921875,14.16015625,55.6640625
1771544509.1998436,224.12109375,-721.6796875,21.97265625,89.35546875,119.62890625
1771544509.20375,38.57421875,-635.25390625,20.99609375,30.2734375,56.640625
1771544509.2076561,-209.47265625,-969.7265625,21.484375,-55.6640625,16.6015625
1771544509.2115624,-47.8515625,-1000.0,19.53125,-7.8125,44.43359375
1771544509.2154686,214.84375,-711.9140625,21.97265625,67.3828125,57.6171875
1771544509.219375,128.90625,-495.60546875,22.4609375,53.22265625,58.10546875
1771544509.2232811,-171.38671875,-883.30078125,22.4609375,-45.41015625,25.87890625
1771544509.2271874,-116.69921875,-1000.0,21.484375,-40.0390625,-18.5546875
1771544509.2310936,170.41015625,-812.98828125,21.484375,58.59375,-2.44140625
1771544509.232125,189.453125,-514.6484375,26.85546875,75.68359375,16.11328125
1771544509.2360313,-102.05078125,-779.296875,23.4375,-15.13671875,0.48828125
1771544509.2399375,-168.45703125,-1000.0,25.87890625,-53.22265625,23.4375
1771544509.2438438,112.3046875,-873.046875,24.90234375,30.2734375,57.12890625
1771544509.24775,229.98046875,-597.65625,22.4609375,84.9609375,72.265625
1771544509.2516563,-17.578125,-787.59765625,27.83203125,10.25390625,29.78515625
1771544509.2555625,-215.33203125,-999.51171875,27.83203125,-70.80078125,13.671875
1771544509.2594688,15.13671875,-974.12109375,24.4140625,-6.34765625,29.78515625
1771544509.263375,231.4453125,-610.83984375,20.01953125,77.1484375,31.73828125
1771544509.2672813,61.5234375,-569.3359375,26.85546875,39.0625,36.62109375
1771544509.2711875,-212.40234375,-962.40234375,26.3671875,-63.4765625,74.21875
1771544509.2750938,-69.3359375,-1000.0,17.578125,-28.80859375,83.49609375
1771544509.292125,195.80078125,-717.28515625,17.578125,70.80078125,46.875
1771544509.2960312,139.6484375,-539.0625,22.94921875,57.6171875,89.84375
1771544509.2999375,-152.83203125,-926.7578125,22.4609375,-35.64453125,16.11328125
1771544509.3038437,-132.8125,-1000.0,19.04296875,-42.96875,0.9765625
1771544509.30775,151.85546875,-814.94140625,20.99609375,40.52734375,64.94140625
1771544509.3116562,196.77734375,-722.65625,21.484375,68.359375,56.15234375
1771544509.3155625,-81.54296875,-946.2890625,19.53125,-18.06640625,14.6484375
1771544509.3194687,-199.70703125,-1000.0,18.06640625,-69.82421875,-15.13671875
1771544509.323375,67.3828125,-888.671875,21.97265625,13.671875,25.390625
1771544509.3272812,228.02734375,-791.9921875,20.99609375,81.0546875,21.484375
1771544509.3311875,5.859375,-952.63671875,18.5546875,21.97265625,6.8359375
1771544509.3350937,-211.9140625,-975.09765625,20.99609375,-59.08203125,24.90234375
1771544509.337125,-9.765625,-981.4453125,18.06640625,-6.8359375,14.16015625
1771544509.3410313,216.30859375,-719.7265625,18.5546875,70.3125,25.87890625
1771544509.3449376,70.3125,-640.13671875,19.53125,36.1328125,-1.46484375
1771544509.3488438,-210.44921875,-947.75390625,18.06640625,-55.6640625,38.57421875
1771544509.35275,-99.609375,-1000.0,15.625,-35.15625,28.80859375
1771544509.3566563,174.31640625,-858.3984375,18.5546875,54.6875,14.16015625
1771544509.3605626,156.25,-680.17578125,19.53125,58.59375,109.375
1771544509.3644688,-134.765625,-900.87890625,22.4609375,-25.87890625,67.87109375
1771544509.368375,-162.59765625,-987.79296875,27.83203125,-52.734375,19.04296875
1771544509.3722813,127.9296875,-981.4453125,26.3671875,34.1796875,20.01953125
1771544509.3761876,211.9140625,-851.5625,24.4140625,82.03125,36.1328125
1771544509.3800938,-65.91796875,-823.2421875,24.90234375,-1.46484375,62.98828125
1771544509.382125,-201.66015625,-1000.0,26.3671875,-51.7578125,17.578125
1771544509.3860312,62.01171875,-929.19921875,23.4375,19.04296875,28.3203125
1771544509.3899374,231.4453125,-539.0625,19.53125,77.1484375,81.54296875
1771544509.3938437,21.484375,-632.8125,23.92578125,28.80859375,28.80859375
1771544509.39775,-215.8203125,-986.81640625,25.390625,-47.36328125,38.57421875
1771544509.4016562,-37.109375,-1000.0,20.5078125,-7.8125,49.8046875
1771544509.4055624,214.35546875,-828.61328125,23.4375,74.21875,70.80078125
1771544509.4094687,108.88671875,-689.94140625,25.390625,56.15234375,79.58984375
1771544509.413375,-183.10546875,-926.26953125,20.99609375,-36.1328125,45.8984375
1771544509.4172812,-114.74609375,-1000.0,17.08984375,-27.34375,54.19921875
1771544509.4211874,155.2734375,-831.0546875,20.01953125,67.3828125,31.25
1771544509.4250937,171.38671875,-575.1953125,24.4140625,81.0546875,49.31640625
1771544509.427125,-108.3984375,-827.1484375,24.90234375,-17.578125,74.70703125
1771544509.4310312,-166.9921875,-1000.0,27.34375,-44.921875,72.75390625
1771544509.4349375,104.98046875,-877.44140625,24.4140625,40.0390625,117.1875
1771544509.4388437,213.8671875,-619.62890625,23.4375,86.42578125,71.2890625
1771544509.44275,-36.62109375,-804.19921875,27.83203125,14.6484375,44.43359375
1771544509.4466562,-208.984375,-1000.0,28.80859375,-54.19921875,35.64453125
1771544509.4505625,26.3671875,-960.9375,27.83203125,3.41796875,10.25390625
1771544509.4544687,213.37890625,-769.04296875,28.3203125,72.265625,51.26953125
1771544509.458375,40.52734375,-828.61328125,28.80859375,37.109375,49.31640625
1771544509.4622812,-212.40234375,-994.140625,26.85546875,-55.17578125,3.90625
1771544509.4661875,-61.5234375,-973.6328125,27.34375,-25.87890625,19.04296875
1771544509.4700937,194.3359375,-913.0859375,28.3203125,62.98828125,5.859375
1771544509.473125,110.3515625,-841.30859375,30.2734375,55.17578125,8.30078125
1771544509.4770312,-180.6640625,-942.87109375,33.69140625,-47.36328125,36.62109375
1771544509.4809375,-155.2734375,-980.46875,33.69140625,-57.6171875,45.41015625
1771544509.4848437,129.39453125,-975.09765625,32.2265625,45.41015625,26.3671875
1771544509.48875,170.41015625,-864.2578125,33.203125,55.17578125,29.296875
1771544509.4926562,-123.53515625,-892.08984375,37.109375,-42.48046875,65.4296875
1771544509.4965625,-228.515625,-982.91015625,39.55078125,-86.9140625,31.25
1771544509.5004687,47.8515625,-990.72265625,36.62109375,-11.23046875,-12.20703125
1771544509.504375,183.59375,-808.59375,38.0859375,35.15625,14.6484375
1771544509.5082812,-57.12890625,-787.109375,41.50390625,-37.59765625,36.62109375
1771544509.5121875,-263.18359375,-979.98046875,41.50390625,-102.5390625,30.2734375
1771544509.5160937,-53.7109375,-1000.0,40.0390625,-37.59765625,50.78125
1771544509.517125,159.66796875,-819.82421875,43.45703125,23.4375,32.71484375
1771544509.5210311,-7.8125,-756.34765625,48.33984375,-32.2265625,86.42578125
1771544509.5249374,-284.1796875,-977.5390625,45.8984375,-116.2109375,36.62109375
1771544509.5288436,-160.64453125,-977.5390625,42.48046875,-86.42578125,-18.5546875
1771544509.53275,113.76953125,-954.58984375,45.41015625,7.32421875,46.875
1771544509.5366561,89.84375,-954.58984375,46.38671875,21.484375,28.80859375
1771544509.5405624,-175.78125,-963.8671875,55.17578125,-32.71484375,-19.53125
1771544509.5444686,-142.08984375,-981.4453125,64.94140625,-18.06640625,-27.83203125
1771544509.548375,121.58203125,-946.77734375,45.41015625,20.5078125,0.0
1771544509.5522811,131.8359375,-824.21875,35.15625,-2.9296875,3.41796875
1771544509.5561874,-148.4375,-907.71484375,34.66796875,-75.1953125,10.7421875
1771544509.5600936,-236.81640625,-983.88671875,26.85546875,-87.40234375,55.17578125
1771544509.562125,47.8515625,-978.02734375,26.3671875,17.08984375,42.48046875
1771544509.5660312,195.3125,-850.09765625,26.3671875,68.359375,49.8046875
1771544509.5699375,-21.97265625,-850.09765625,18.06640625,-1.46484375,102.5390625
1771544509.5738437,-211.9140625,-986.328125,12.6953125,-61.5234375,56.640625
1771544509.57775,22.94921875,-967.28515625,18.5546875,9.27734375,-26.85546875
1771544509.5816562,259.765625,-968.26171875,16.11328125,94.7265625,32.71484375
1771544509.5855625,126.46484375,-971.19140625,16.6015625,69.3359375,97.65625
1771544509.5894687,-157.71484375,-967.7734375,4.8828125,-25.390625,64.94140625
1771544509.593375,-53.22265625,-976.07421875,-8.30078125,15.625,-10.25390625
1771544509.5972812,240.234375,-952.63671875,-10.25390625,102.5390625,-29.296875
1771544509.6011875,252.44140625,-933.59375,-15.13671875,126.953125,29.296875
1771544509.6050937,-5.37109375,-970.21484375,-22.4609375,66.40625,10.25390625
1771544509.607125,-36.1328125,-972.65625,-32.71484375,48.33984375,-10.25390625
1771544509.6110313,275.390625,-965.8203125,-35.64453125,168.45703125,20.99609375
1771544509.6149375,392.578125,-964.84375,-41.9921875,227.05078125,87.890625
1771544509.6188438,134.27734375,-970.703125,-42.96875,163.57421875,59.08203125
1771544509.62275,-8.30078125,-970.21484375,-41.015625,111.328125,-38.57421875
1771544509.6266563,260.7421875,-969.7265625,-42.48046875,212.890625,11.23046875
1771544509.6305625,465.33203125,-970.21484375,-48.33984375,285.64453125,72.265625
1771544509.6344688,289.0625,-970.703125,-50.78125,236.328125,13.671875
1771544509.638375,62.5,-968.26171875,-55.17578125,181.15234375,35.64453125
1771544509.6422813,238.28125,-974.609375,-62.01171875,234.86328125,73.2421875
1771544509.6461875,487.79296875,-958.0078125,-56.640625,325.1953125,27.34375
1771544509.6500938,399.90234375,-942.87109375,-42.96875,310.05859375,55.17578125
1771544509.652125,90.8203125,-964.84375,-30.2734375,204.1015625,75.68359375
1771544509.6560311,125.48828125,-980.95703125,-30.76171875,198.2421875,31.25
1771544509.6599374,412.109375,-946.2890625,-25.87890625,293.45703125,43.45703125
1771544509.6638436,432.12890625,-892.08984375,-22.94921875,301.7578125,86.9140625
1771544509.66775,125.0,-955.56640625,-18.5546875,191.89453125,36.1328125
1771544509.6716561,42.96875,-976.07421875,-15.625,150.87890625,-29.296875
1771544509.6755624,317.87109375,-973.6328125,-14.16015625,247.0703125,26.3671875
1771544509.6794686,423.33984375,-914.55078125,-14.16015625,284.1796875,34.1796875
1771544509.683375,168.45703125,-919.43359375,-7.8125,205.078125,68.359375
1771544509.6872811,-26.3671875,-977.5390625,-4.39453125,128.90625,60.546875
1771544509.6911874,188.96484375,-971.6796875,-6.34765625,149.90234375,25.390625
1771544509.6950936,396.97265625,-957.51953125,-2.44140625,227.05078125,79.58984375
1771544509.712125,227.05078125,-947.75390625,-1.953125,193.359375,29.78515625
1771544509.7160313,-57.12890625,-964.35546875,0.9765625,100.5859375,-35.15625
1771544509.7199376,77.1484375,-985.83984375,2.44140625,112.79296875,13.18359375
1771544509.7238438,349.609375,-917.48046875,1.953125,191.89453125,14.6484375
1771544509.72775,277.34375,-859.86328125,3.41796875,187.5,20.5078125
1771544509.7316563,-33.203125,-952.1484375,6.34765625,86.9140625,29.296875
1771544509.7355626,-16.6015625,-998.53515625,5.37109375,61.03515625,9.27734375
1771544509.7394688,273.92578125,-905.76171875,2.44140625,142.08984375,50.78125
1771544509.743375,315.91796875,-770.5078125,3.90625,170.41015625,118.65234375
1771544509.7472813,20.5078125,-920.41015625,5.859375,87.890625,58.10546875
1771544509.7511876,-103.02734375,-999.51171875,5.37109375,29.78515625,-17.08984375
1771544509.7550938,155.2734375,-936.03515625,9.765625,95.703125,17.578125
1771544509.758125,306.15234375,-878.90625,15.625,164.55078125,30.2734375
1771544509.7620313,82.51953125,-951.171875,16.6015625,97.16796875,-2.9296875
1771544509.7659376,-139.16015625,-980.95703125,16.11328125,12.20703125,7.8125
1771544509.7698438,64.94140625,-963.8671875,16.11328125,64.94140625,20.5078125
1771544509.77375,296.38671875,-949.70703125,16.6015625,138.18359375,55.17578125
1771544509.7776563,151.3671875,-962.40234375,17.578125,98.14453125,58.10546875
1771544509.7815626,-127.9296875,-973.14453125,20.99609375,14.16015625,29.78515625
1771544509.7854688,-7.32421875,-968.26171875,18.06640625,33.69140625,-1.953125
1771544509.789375,271.484375,-971.6796875,13.671875,118.1640625,-51.7578125
1771544509.7932813,247.55859375,-963.37890625,12.20703125,145.5078125,-6.8359375
1771544509.7971876,-70.3125,-952.1484375,26.3671875,38.57421875,96.19140625
1771544509.8010938,-116.2109375,-985.83984375,28.80859375,-13.671875,77.63671875
1771544509.802125,190.4296875,-937.5,18.06640625,100.09765625,34.66796875
1771544509.8060312,300.29296875,-613.28125,17.08984375,176.7578125,93.26171875
1771544509.8099375,37.59765625,-724.609375,19.53125,85.9375,94.7265625
1771544509.8138437,-124.0234375,-1000.0,21.97265625,11.71875,34.1796875
1771544509.81775,117.67578125,-964.84375,18.06640625,69.3359375,49.31640625
1771544509.8216562,281.73828125,-822.265625,18.5546875,124.51171875,70.3125
1771544509.8255625,62.98828125,-844.7265625,17.08984375,85.9375,57.6171875
1771544509.8294687,-159.66796875,-970.703125,20.01953125,11.23046875,40.0390625
1771544509.833375,24.4140625,-1000.0,19.04296875,45.41015625,-3.90625
1771544509.8372812,251.46484375,-812.5,19.04296875,115.72265625,13.18359375
1771544509.8411875,149.4140625,-626.953125,20.5078125,94.23828125,40.52734375
1771544509.8450937,-136.23046875,-901.3671875,17.578125,-2.44140625,52.24609375
1771544509.847125,-70.80078125,-1000.0,19.53125,8.30078125,25.87890625
1771544509.8510313,206.0546875,-825.68359375,18.06640625,100.09765625,-1.46484375
1771544509.8549376,214.84375,-505.37109375,19.53125,121.09375,28.80859375
1771544509.8588438,-72.265625,-768.5546875,23.4375,39.55078125,68.84765625
1771544509.86275,-138.671875,-1000.0,20.01953125,-1.953125,70.80078125
1771544509.8666563,158.69140625,-946.2890625,21.97265625,62.98828125,32.2265625
1771544509.8705626,274.4140625,-714.84375,27.34375,111.81640625,62.98828125
1771544509.8744688,6.8359375,-775.87890625,27.34375,42.48046875,58.59375
1771544509.878375,-167.96875,-1000.0,26.85546875,-23.4375,35.15625
1771544509.8822813,63.96484375,-955.078125,24.90234375,47.36328125,10.25390625
1771544509.8861876,257.32421875,-542.48046875,23.92578125,115.72265625,-5.37109375
1771544509.8900938,78.61328125,-582.51953125,27.83203125,72.75390625,-10.7421875
1771544509.892125,-164.55078125,-992.67578125,25.390625,-20.99609375,-23.92578125
1771544509.8960311,-11.71875,-998.53515625,21.97265625,18.5546875,-0.9765625
1771544509.8999374,236.81640625,-615.72265625,24.4140625,113.28125,58.59375
1771544509.9038436,166.50390625,-404.78515625,26.3671875,92.28515625,85.9375
1771544509.90775,-138.18359375,-830.078125,28.80859375,-8.30078125,70.80078125
1771544509.9116561,-91.796875,-1000.0,9.765625,-11.71875,44.43359375
1771544509.9155624,249.51171875,-821.77734375,-4.39453125,111.81640625,84.47265625
1771544509.9194686,283.203125,-744.62890625,25.390625,138.18359375,84.9609375
1771544509.923375,-47.8515625,-958.984375,48.33984375,24.4140625,31.25
1771544509.9272811,-164.0625,-978.02734375,47.8515625,-4.8828125,2.9296875
1771544509.9311874,85.9375,-910.64453125,43.45703125,71.2890625,51.7578125
1771544509.9350936,219.7265625,-520.01953125,50.78125,112.79296875,64.94140625
1771544509.937125,5.37109375,-526.3671875,66.89453125,62.01171875,51.26953125
1771544509.9410312,-195.3125,-974.12109375,80.078125,-3.90625,-34.1796875
1771544509.9449375,1.46484375,-1000.0,86.42578125,39.0625,-5.859375
1771544509.9488437,203.125,-487.3046875,93.26171875,104.00390625,102.5390625
1771544509.95275,38.57421875,-307.12890625,100.09765625,63.4765625,37.59765625
1771544509.9566562,-237.3046875,-877.9296875,104.4921875,-25.390625,31.73828125
1771544509.9605625,-116.69921875,-1000.0,118.65234375,5.859375,49.8046875
1771544509.9644687,144.04296875,-791.50390625,115.234375,90.33203125,40.52734375
1771544509.968375,103.02734375,-315.4296875,118.1640625,86.9140625,67.3828125
1771544509.9722812,-175.29296875,-622.0703125,125.9765625,2.9296875,33.203125
1771544509.9761875,-174.31640625,-1000.0,116.69921875,-13.18359375,22.94921875
1771544509.9800937,111.81640625,-829.58984375,118.1640625,72.265625,32.2265625
1771544509.982125,171.875,-235.83984375,113.76953125,104.00390625,38.0859375
1771544509.9860313,-93.75,-457.51953125,104.98046875,18.5546875,22.94921875
1771544509.9899375,-212.890625,-1000.0,101.07421875,-24.4140625,34.66796875
1771544509.9938438,33.69140625,-875.9765625,94.7265625,37.59765625,25.87890625
1771544509.99775,198.73046875,-260.7421875,94.23828125,106.93359375,16.6015625
1771544510.0016563,-2.9296875,-426.7578125,96.19140625,52.24609375,32.71484375
1771544510.0055625,-225.5859375,-1000.0,89.35546875,-37.109375,-9.27734375
1771544510.0094688,-45.8984375,-923.33984375,83.49609375,7.8125,-18.5546875
1771544510.013375,194.82421875,-312.01171875,83.49609375,81.54296875,37.109375
1771544510.0172813,88.8671875,-123.53515625,81.54296875,77.63671875,48.828125
1771544510.0211875,-185.546875,-810.05859375,78.61328125,-7.32421875,26.3671875
1771544510.0250938,-100.09765625,-1000.0,75.68359375,4.8828125,18.06640625
1771544510.028125,169.921875,-491.2109375,70.80078125,83.984375,36.62109375
1771544510.0320313,156.73828125,-125.0,71.2890625,87.890625,57.6171875
1771544510.0359375,-136.71875,-687.01171875,69.3359375,1.953125,24.90234375
1771544510.0398438,-173.828125,-1000.0,64.453125,-34.66796875,-11.71875
1771544510.04375,107.91015625,-732.421875,64.94140625,52.734375,-27.83203125
1771544510.0476563,211.42578125,-422.8515625,60.05859375,99.609375,-19.04296875
1771544510.0515625,-45.41015625,-777.83203125,55.6640625,23.92578125,58.59375
1771544510.0554688,-208.0078125,-1000.0,59.08203125,-41.015625,44.43359375
1771544510.059375,23.4375,-833.0078125,56.15234375,18.5546875,1.46484375
1771544510.0632813,212.890625,-234.375,50.29296875,101.07421875,81.54296875
1771544510.0671875,33.203125,-225.09765625,52.24609375,67.3828125,60.546875
1771544510.0710938,-212.890625,-871.09375,51.26953125,-32.2265625,43.45703125
1771544510.087125,-51.26953125,-962.890625,45.41015625,3.41796875,94.7265625
1771544510.0910313,197.265625,-417.96875,47.8515625,85.9375,107.421875
1771544510.0949376,123.046875,-50.29296875,50.29296875,58.10546875,125.9765625
1771544510.0988438,-169.43359375,-631.8359375,50.29296875,-36.62109375,57.12890625
1771544510.10275,-126.46484375,-1000.0,50.29296875,-38.57421875,7.32421875
1771544510.1066563,163.57421875,-974.609375,48.33984375,56.15234375,20.99609375
1771544510.1105626,201.171875,-683.59375,47.36328125,80.56640625,12.20703125
1771544510.1144688,-85.44921875,-638.671875,47.8515625,1.46484375,15.13671875
1771544510.118375,-187.98828125,-1000.0,47.36328125,-54.19921875,15.625
1771544510.1222813,92.28515625,-798.828125,44.43359375,33.69140625,16.11328125
1771544510.1261876,229.98046875,-77.63671875,42.96875,107.421875,45.8984375
1771544510.1300938,-20.99609375,-259.27734375,39.0625,15.13671875,48.33984375
1771544510.132125,-215.8203125,-969.7265625,33.69140625,-69.3359375,10.7421875
1771544510.1360312,10.25390625,-928.22265625,40.0390625,-1.953125,-34.1796875
1771544510.1399374,215.33203125,-276.3671875,46.38671875,98.14453125,21.484375
1771544510.1438437,50.29296875,-133.7890625,43.45703125,58.59375,62.5
1771544510.14775,-226.5625,-803.22265625,42.48046875,-59.5703125,42.96875
1771544510.1516562,-94.7265625,-1000.0,44.921875,-34.66796875,-8.7890625
1771544510.1555624,179.6875,-713.8671875,42.96875,61.03515625,-27.34375
1771544510.1594687,123.53515625,-398.92578125,45.8984375,45.41015625,17.578125
1771544510.163375,-177.24609375,-738.28125,43.45703125,-42.96875,-11.71875
1771544510.1672812,-160.15625,-1000.0,39.55078125,-51.26953125,5.37109375
1771544510.1711874,128.90625,-686.5234375,40.52734375,31.25,69.3359375
1771544510.1750937,193.84765625,-49.31640625,40.52734375,79.1015625,63.4765625
1771544510.177125,-80.078125,-430.6640625,41.015625,0.48828125,91.30859375
1771544510.1810312,-194.82421875,-1000.0,38.57421875,-49.31640625,67.87109375
1771544510.1849375,73.73046875,-814.94140625,31.73828125,26.3671875,41.9921875
1771544510.1888437,229.98046875,-152.34375,29.78515625,71.2890625,71.2890625
1771544510.19275,-3.41796875,-356.4453125,33.69140625,13.671875,77.1484375
1771544510.1966562,-221.6796875,-994.62890625,27.83203125,-48.828125,61.03515625
1771544510.2005625,31.73828125,-988.76953125,32.2265625,49.8046875,49.31640625
1771544510.2044687,250.9765625,-488.28125,43.9453125,114.74609375,56.15234375
1771544510.208375,38.0859375,-507.8125,39.0625,-18.06640625,70.80078125
1771544510.2122812,-291.015625,-997.0703125,34.66796875,-159.66796875,70.3125
1771544510.2161875,-238.76953125,-989.2578125,36.1328125,-177.24609375,33.69140625
1771544510.2200937,-5.37109375,-764.16015625,39.55078125,-127.44140625,-13.18359375
1771544510.222125,-71.2890625,-412.59765625,24.90234375,-176.7578125,18.06640625
1771544510.2260313,-415.52734375,-652.83203125,16.6015625,-318.84765625,16.6015625
1771544510.2299376,-485.83984375,-1000.0,22.4609375,-380.859375,6.8359375
1771544510.2338438,-237.3046875,-822.75390625,20.99609375,-324.21875,24.90234375
1771544510.23775,-185.05859375,-210.9375,14.6484375,-321.77734375,87.890625
1771544510.2416563,-462.40234375,-485.3515625,16.11328125,-432.12890625,59.5703125
1771544510.2455626,-619.62890625,-1000.0,23.92578125,-493.65234375,-25.87890625
1771544510.2494688,-382.8125,-1000.0,29.296875,-424.8046875,-5.37109375
1771544510.253375,-209.9609375,-733.3984375,25.390625,-368.65234375,19.04296875
1771544510.2572813,-392.578125,-448.73046875,21.484375,-401.3671875,45.41015625
1771544510.2611876,-605.46875,-895.5078125,25.390625,-460.9375,33.69140625
1771544510.2650938,-424.31640625,-1000.0,22.94921875,-404.296875,59.08203125
1771544510.267125,-157.71484375,-431.15234375,18.06640625,-288.0859375,52.24609375
1771544510.2710311,-217.7734375,-120.60546875,23.4375,-272.4609375,-2.44140625
1771544510.2749374,-465.33203125,-702.63671875,27.34375,-331.54296875,33.69140625
1771544510.2788436,-373.53515625,-1000.0,22.94921875,-303.22265625,69.3359375
1771544510.28275,-68.84765625,-580.078125,19.53125,-196.2890625,26.3671875
1771544510.2866561,-24.4140625,-154.296875,25.87890625,-149.90234375,8.7890625
1771544510.2905624,-283.69140625,-592.7734375,25.390625,-206.54296875,69.82421875
1771544510.2944686,-336.42578125,-1000.0,15.625,-221.6796875,72.265625
1771544510.298375,-52.734375,-717.28515625,11.71875,-128.90625,45.41015625
1771544510.3022811,81.54296875,109.86328125,17.08984375,-68.359375,42.48046875
1771544510.3061874,-139.6484375,-107.91015625,19.53125,-121.58203125,58.59375
1771544510.3100936,-300.29296875,-992.1875,12.6953125,-176.26953125,37.109375
1771544510.313125,-54.19921875,-799.8046875,13.18359375,-101.5625,9.765625
1771544510.3170311,149.4140625,63.96484375,20.01953125,-8.30078125,63.4765625
1771544510.3209374,-23.4375,17.08984375,20.5078125,-42.48046875,41.50390625
1771544510.3248436,-267.08984375,-866.69921875,21.484375,-126.953125,17.578125
1771544510.32875,-117.67578125,-921.875,23.92578125,-84.47265625,-20.5078125
1771544510.3326561,145.5078125,-142.578125,19.04296875,-0.9765625,22.94921875
1771544510.3365624,90.8203125,184.08203125,19.53125,3.90625,83.984375
1771544510.3404686,-195.80078125,-648.4375,19.04296875,-79.1015625,45.8984375
1771544510.344375,-170.41015625,-946.77734375,11.71875,-89.35546875,21.97265625
1771544510.3482811,112.3046875,-92.7734375,12.20703125,16.6015625,34.1796875
1771544510.3521874,176.7578125,604.98046875,18.5546875,48.828125,69.3359375
1771544510.3560936,-94.7265625,120.1171875,22.4609375,-39.0625,16.6015625
1771544510.357125,-208.0078125,-607.421875,18.5546875,-73.2421875,-0.9765625
1771544510.3610313,67.87109375,-195.3125,18.06640625,12.20703125,57.12890625
1771544510.3649375,217.7734375,613.28125,17.578125,76.66015625,83.984375
1771544510.3688438,-8.7890625,444.3359375,14.16015625,7.32421875,27.34375
1771544510.37275,-208.49609375,-503.41796875,14.16015625,-72.75390625,-5.37109375
1771544510.3766563,5.859375,-521.97265625,14.6484375,3.90625,42.96875
1771544510.3805625,226.07421875,21.97265625,14.6484375,86.42578125,26.3671875
1771544510.3844688,82.03125,168.45703125,14.6484375,33.203125,39.0625
1771544510.388375,-185.546875,-222.65625,13.18359375,-50.78125,39.55078125
1771544510.3922813,-67.87109375,-520.99609375,10.25390625,-18.06640625,-5.859375
1771544510.3961875,193.359375,217.7734375,7.32421875,60.05859375,50.29296875
1771544510.4000938,163.57421875,870.60546875,9.765625,66.40625,41.015625
1771544510.402125,-124.0234375,222.16796875,13.18359375,-21.484375,-8.30078125
1771544510.4060311,-140.13671875,-553.7109375,13.671875,-29.78515625,23.92578125
1771544510.4099374,146.484375,-20.5078125,14.6484375,63.4765625,74.21875
1771544510.4138436,217.28515625,880.859375,19.04296875,91.796875,98.6328125
1771544510.41775,-53.22265625,549.31640625,20.01953125,25.390625,71.2890625
1771544510.4216561,-172.36328125,-624.51171875,7.32421875,-27.34375,58.59375
1771544510.4255624,84.47265625,-715.33203125,1.46484375,35.64453125,41.50390625
1771544510.4294686,254.8828125,412.59765625,2.9296875,117.1875,39.55078125
1771544510.433375,64.453125,685.05859375,9.27734375,80.078125,20.01953125
1771544510.4372811,-175.29296875,-439.453125,20.99609375,-31.25,32.2265625
1771544510.4411874,-12.20703125,-668.45703125,18.06640625,2.9296875,75.68359375
1771544510.4450936,220.703125,511.71875,23.4375,84.9609375,110.3515625
1771544510.462125,120.1171875,922.36328125,28.80859375,51.26953125,97.65625
1771544510.4660313,-149.4140625,-72.265625,28.3203125,-26.3671875,16.6015625
1771544510.4699376,-66.89453125,-619.140625,27.34375,1.46484375,-30.2734375
1771544510.4738438,200.68359375,146.484375,21.97265625,90.33203125,-35.64453125
1771544510.47775,206.54296875,823.73046875,25.390625,105.46875,22.4609375
1771544510.4816563,-79.1015625,58.59375,27.83203125,7.8125,27.83203125
1771544510.4855626,-146.484375,-859.86328125,19.04296875,-39.55078125,-67.3828125
1771544510.4894688,132.32421875,-236.81640625,20.01953125,58.59375,-87.40234375
1771544510.493375,235.83984375,664.0625,23.4375,95.703125,20.5078125
1771544510.4972813,-17.08984375,0.48828125,18.06640625,16.6015625,60.05859375
1771544510.5011876,-173.33984375,-965.33203125,20.99609375,-33.69140625,27.34375
1771544510.5050938,55.6640625,-423.33984375,25.390625,36.62109375,-14.6484375
1771544510.507125,235.3515625,460.44921875,21.484375,107.91015625,43.45703125
1771544510.5110312,55.17578125,495.60546875,21.484375,52.24609375,72.265625
1771544510.5149374,-197.265625,-321.2890625,21.97265625,-41.015625,36.62109375
1771544510.5188437,-41.9921875,-496.09375,18.5546875,11.23046875,47.8515625
1771544510.52275,216.30859375,203.61328125,15.13671875,98.14453125,53.7109375
1771544510.5266562,140.13671875,479.00390625,20.01953125,70.80078125,81.0546875
1771544510.5305624,-146.97265625,-319.3359375,24.90234375,-22.94921875,64.453125
1771544510.5344687,-109.86328125,-721.6796875,24.90234375,-23.4375,50.29296875
1771544510.538375,164.55078125,-197.75390625,21.97265625,64.453125,59.08203125
1771544510.5422812,211.42578125,214.84375,24.4140625,91.30859375,64.453125
1771544510.5461874,-62.5,-18.5546875,23.92578125,6.8359375,72.75390625
1771544510.5500937,-163.0859375,-691.89453125,20.01953125,-31.25,88.37890625
1771544510.552125,108.88671875,-483.88671875,20.99609375,45.8984375,58.10546875
1771544510.5560312,254.39453125,296.875,20.99609375,96.6796875,-3.90625
1771544510.5599375,16.11328125,336.9140625,23.92578125,38.57421875,11.71875
1771544510.5638437,-190.91796875,-511.71875,24.4140625,-44.43359375,83.984375
1771544510.56775,26.85546875,-629.39453125,23.92578125,12.6953125,42.96875
1771544510.5716562,233.88671875,111.328125,19.53125,89.35546875,23.92578125
1771544510.5755625,71.2890625,292.96875,20.99609375,48.33984375,61.5234375
1771544510.5794687,-188.96484375,-458.49609375,24.90234375,-35.15625,110.3515625
1771544510.583375,-62.01171875,-1000.0,18.06640625,-15.13671875,119.140625
1771544510.5872812,193.359375,-300.78125,12.6953125,65.4296875,79.58984375
1771544510.5911875,159.66796875,629.8828125,15.13671875,78.125,84.9609375
1771544510.5950937,-122.0703125,-173.828125,15.625,-7.32421875,19.53125
1771544510.598125,-117.1875,-904.78515625,19.04296875,-17.578125,49.31640625
1771544510.6020312,184.08203125,-292.96875,23.92578125,90.33203125,78.125
1771544510.6059375,247.0703125,450.1953125,26.85546875,122.0703125,21.97265625
1771544510.6098437,-55.6640625,-68.84765625,14.16015625,3.41796875,-41.9921875
1771544510.61375,-189.94140625,-1000.0,0.48828125,-67.3828125,-45.41015625
1771544510.6176562,85.44921875,-668.9453125,6.34765625,28.80859375,26.3671875
1771544510.6215625,240.72265625,200.68359375,10.25390625,90.8203125,27.34375
1771544510.6254687,20.5078125,23.92578125,12.20703125,28.80859375,5.859375
1771544510.629375,-183.59375,-973.14453125,17.578125,-35.15625,-7.32421875
1771544510.6332812,20.99609375,-760.7421875,16.6015625,20.01953125,13.18359375
1771544510.6371875,256.8359375,158.203125,15.625,104.00390625,32.2265625
1771544510.6410937,129.8828125,315.4296875,17.08984375,86.42578125,13.671875
1771544510.642125,-154.296875,-486.328125,20.99609375,-15.13671875,25.390625
1771544510.6460311,-62.5,-810.546875,19.04296875,-8.7890625,33.203125
1771544510.6499374,198.2421875,-62.5,18.5546875,86.42578125,38.57421875
