timestamps,TP9,AF7,AF8,TP10,Right AUX
1771545893.082125,35.64453125,40.0390625,12.20703125,38.0859375,54.19921875
1771545893.0860312,6.8359375,27.83203125,1.46484375,0.9765625,9.27734375
1771545893.0899374,3.90625,27.34375,2.44140625,-2.44140625,-3.90625
1771545893.0938437,35.15625,33.69140625,13.18359375,35.15625,31.25
1771545893.09775,43.9453125,29.78515625,20.5078125,57.12890625,72.75390625
1771545893.1016562,20.01953125,28.80859375,9.27734375,22.94921875,74.70703125
1771545893.1055624,3.90625,27.34375,0.0,-8.30078125,29.78515625
1771545893.1094687,22.94921875,25.87890625,22.94921875,23.92578125,51.7578125
1771545893.113375,49.31640625,32.71484375,19.04296875,55.17578125,59.5703125
1771545893.1172812,29.78515625,35.15625,-3.90625,31.25,11.23046875
1771545893.1211874,3.90625,35.15625,-0.9765625,-4.8828125,-9.765625
1771545893.1250937,22.4609375,38.0859375,14.16015625,8.7890625,7.32421875
1771545893.143125,47.8515625,39.55078125,27.83203125,48.828125,44.43359375
1771545893.1470313,39.0625,40.0390625,20.99609375,35.15625,26.85546875
1771545893.1509376,4.8828125,22.4609375,2.9296875,-4.8828125,34.1796875
1771545893.1548438,3.90625,18.06640625,4.8828125,6.8359375,102.05078125
1771545893.15875,37.109375,39.55078125,22.94921875,43.45703125,77.1484375
1771545893.1626563,45.41015625,39.55078125,26.85546875,48.33984375,51.7578125
1771545893.1665626,11.71875,31.73828125,2.9296875,12.20703125,76.66015625
1771545893.1704688,-0.9765625,28.80859375,-4.39453125,0.9765625,59.5703125
1771545893.174375,33.203125,39.55078125,22.94921875,34.1796875,43.9453125
1771545893.1782813,62.5,53.22265625,36.1328125,48.828125,43.45703125
1771545893.1821876,38.57421875,40.52734375,13.671875,28.80859375,20.01953125
1771545893.1860938,6.34765625,21.484375,-6.8359375,-4.39453125,10.7421875
1771545893.172125,18.5546875,17.08984375,-0.48828125,4.8828125,16.6015625
1771545893.1760314,41.9921875,25.87890625,15.13671875,39.55078125,38.57421875
1771545893.1799376,27.83203125,29.296875,3.90625,24.4140625,32.2265625
1771545893.1838439,7.8125,31.73828125,-8.30078125,-9.765625,-51.26953125
1771545893.18775,32.71484375,35.15625,7.32421875,7.8125,-49.31640625
1771545893.1916564,61.5234375,37.59765625,23.92578125,44.43359375,43.9453125
1771545893.1955626,49.31640625,34.1796875,20.5078125,47.8515625,49.8046875
1771545893.1994689,15.625,21.484375,0.0,9.27734375,30.76171875
1771545893.203375,21.484375,23.92578125,8.30078125,11.23046875,73.2421875
1771545893.2072814,48.828125,35.64453125,28.80859375,55.17578125,85.9375
1771545893.2111876,49.31640625,39.0625,20.99609375,69.3359375,59.5703125
1771545893.2150939,20.5078125,35.64453125,-5.37109375,27.83203125,37.109375
1771545893.217125,13.671875,32.71484375,0.9765625,1.46484375,52.24609375
1771545893.2210312,45.41015625,34.66796875,30.2734375,44.921875,113.28125
1771545893.2249374,62.01171875,33.203125,25.390625,61.03515625,65.91796875
1771545893.2288437,31.73828125,31.25,4.39453125,29.296875,14.6484375
1771545893.23275,2.44140625,29.78515625,4.8828125,7.8125,17.08984375
1771545893.2366562,17.578125,31.25,16.6015625,15.13671875,-18.5546875
1771545893.2405624,48.33984375,41.50390625,16.11328125,38.57421875,11.71875
1771545893.2444687,31.73828125,41.015625,1.953125,19.53125,73.73046875
1771545893.248375,-1.953125,37.59765625,0.0,-15.625,52.734375
1771545893.2522812,15.13671875,37.109375,12.6953125,5.37109375,69.3359375
1771545893.2561874,47.8515625,38.0859375,16.6015625,47.36328125,55.6640625
1771545893.2600937,46.38671875,39.0625,14.6484375,45.8984375,71.77734375
1771545893.263125,15.625,35.15625,1.46484375,2.44140625,27.83203125
1771545893.2670312,12.6953125,35.15625,2.44140625,-6.8359375,-0.9765625
1771545893.2709374,44.921875,40.52734375,20.5078125,30.2734375,61.03515625
1771545893.2748437,53.7109375,43.9453125,19.04296875,42.96875,25.87890625
1771545893.27875,15.625,38.0859375,0.48828125,3.90625,17.578125
1771545893.2826562,13.18359375,32.71484375,-4.8828125,-5.37109375,-14.6484375
1771545893.2865624,46.875,37.59765625,7.8125,27.34375,3.41796875
1771545893.2904687,53.7109375,41.9921875,18.06640625,37.109375,25.87890625
1771545893.294375,29.296875,43.9453125,9.27734375,13.18359375,19.04296875
1771545893.2982812,1.46484375,46.38671875,-5.37109375,-0.9765625,34.1796875
1771545893.3021874,27.34375,49.8046875,8.30078125,24.90234375,18.06640625
1771545893.3060937,67.87109375,55.6640625,19.04296875,53.22265625,8.7890625
1771545893.307125,61.03515625,54.6875,0.9765625,44.921875,18.5546875
1771545893.3110313,28.3203125,38.0859375,4.8828125,9.765625,47.8515625
1771545893.3149376,23.4375,29.296875,26.85546875,-4.8828125,48.828125
1771545893.3188438,34.66796875,24.4140625,37.59765625,27.34375,38.57421875
1771545893.32275,33.69140625,22.4609375,28.80859375,39.55078125,22.94921875
1771545893.3266563,4.8828125,20.99609375,6.34765625,5.37109375,-17.08984375
1771545893.3305626,-8.30078125,8.7890625,11.23046875,-2.44140625,-17.08984375
1771545893.3344688,19.04296875,6.34765625,38.0859375,29.78515625,22.4609375
1771545893.338375,39.0625,4.39453125,49.31640625,61.03515625,34.1796875
1771545893.3422813,15.13671875,-8.30078125,24.90234375,32.2265625,16.6015625
1771545893.3461876,7.8125,-12.20703125,18.5546875,17.08984375,50.78125
1771545893.3500938,35.64453125,-2.44140625,44.921875,54.19921875,77.63671875
1771545893.367125,59.5703125,6.34765625,46.38671875,77.63671875,33.69140625
1771545893.3710313,49.8046875,6.34765625,27.83203125,61.03515625,32.71484375
1771545893.3749375,22.4609375,4.39453125,15.13671875,26.3671875,36.1328125
1771545893.3788438,42.48046875,5.37109375,26.3671875,47.36328125,9.27734375
1771545893.38275,79.58984375,12.6953125,37.59765625,83.49609375,31.73828125
1771545893.3866563,68.84765625,15.13671875,21.484375,67.87109375,23.92578125
1771545893.3905625,33.203125,9.27734375,5.859375,30.2734375,2.44140625
1771545893.3944688,37.59765625,10.25390625,17.578125,39.55078125,32.2265625
1771545893.398375,74.21875,17.578125,33.69140625,83.49609375,54.6875
1771545893.4022813,82.51953125,19.04296875,23.4375,84.9609375,92.28515625
1771545893.4061875,48.33984375,18.06640625,11.23046875,47.8515625,67.87109375
1771545893.4100938,38.57421875,19.04296875,22.4609375,45.41015625,26.85546875
1771545893.412125,67.87109375,23.4375,42.48046875,75.68359375,18.5546875
1771545893.4160314,82.03125,23.92578125,40.52734375,84.9609375,41.50390625
1771545893.4199376,49.8046875,24.4140625,18.06640625,48.828125,59.5703125
1771545893.4238439,27.34375,22.94921875,11.71875,21.97265625,20.99609375
1771545893.42775,59.5703125,24.4140625,21.97265625,57.12890625,13.18359375
1771545893.4316564,84.9609375,24.4140625,33.69140625,85.44921875,15.13671875
1771545893.4355626,56.15234375,26.3671875,24.90234375,61.03515625,13.671875
1771545893.4394689,17.08984375,26.85546875,14.16015625,26.3671875,82.03125
1771545893.443375,35.15625,24.4140625,22.4609375,41.50390625,96.6796875
1771545893.4472814,67.87109375,29.78515625,30.2734375,80.56640625,83.984375
1771545893.4511876,55.17578125,30.2734375,26.3671875,81.0546875,76.66015625
1771545893.4550939,24.4140625,27.34375,12.20703125,36.62109375,-3.90625
1771545893.457125,44.43359375,29.78515625,6.34765625,25.390625,20.5078125
1771545893.4610312,83.0078125,38.57421875,20.01953125,61.5234375,62.98828125
1771545893.4649374,74.70703125,43.45703125,24.4140625,68.359375,-11.71875
1771545893.4688437,37.59765625,38.57421875,8.7890625,35.15625,1.953125
1771545893.47275,29.78515625,30.76171875,3.90625,20.5078125,56.640625
1771545893.4766562,64.453125,34.66796875,14.6484375,50.78125,-9.765625
1771545893.4805624,79.58984375,45.8984375,20.01953125,82.03125,8.30078125
1771545893.4844687,40.52734375,40.0390625,5.859375,47.8515625,33.203125
1771545893.488375,20.01953125,30.2734375,-3.90625,16.6015625,5.37109375
1771545893.4922812,48.828125,36.1328125,18.06640625,43.45703125,62.5
1771545893.4961874,75.1953125,44.43359375,35.64453125,76.66015625,65.4296875
1771545893.5000937,53.7109375,41.9921875,19.53125,57.12890625,56.15234375
1771545893.503125,15.625,32.71484375,-0.48828125,7.8125,26.3671875
1771545893.5070312,27.34375,31.73828125,9.765625,25.390625,31.73828125
1771545893.5109375,54.19921875,28.3203125,32.71484375,73.2421875,66.89453125
1771545893.5148437,58.10546875,23.4375,26.3671875,75.68359375,98.6328125
1771545893.51875,35.15625,39.55078125,0.48828125,34.66796875,100.5859375
1771545893.5226562,14.16015625,43.45703125,-0.48828125,4.39453125,58.10546875
1771545893.5265625,40.52734375,49.31640625,20.01953125,31.25,68.359375
1771545893.5304687,60.05859375,70.3125,15.625,42.96875,58.59375
1771545893.534375,8.7890625,62.5,-8.7890625,-12.6953125,-7.32421875
1771545893.5382812,-33.69140625,55.17578125,-9.27734375,-34.1796875,-18.06640625
1771545893.5421875,-2.44140625,61.5234375,0.9765625,4.39453125,49.8046875
1771545893.5460937,29.78515625,69.82421875,-3.41796875,15.13671875,62.01171875
1771545893.547125,-0.9765625,70.80078125,-15.625,-23.92578125,47.36328125
1771545893.5510314,-31.25,69.82421875,-21.484375,-58.59375,35.15625
1771545893.5549376,-10.7421875,61.5234375,-19.04296875,-39.55078125,29.78515625
1771545893.5588439,19.04296875,59.08203125,-15.625,0.48828125,15.625
1771545893.56275,10.25390625,67.87109375,-21.97265625,3.90625,33.69140625
1771545893.5666564,-8.30078125,64.94140625,-25.87890625,-19.53125,15.625
1771545893.5705626,10.7421875,56.640625,-10.25390625,-10.25390625,50.78125
1771545893.5744689,46.38671875,51.26953125,-2.44140625,18.06640625,24.4140625
1771545893.578375,45.41015625,54.19921875,-10.7421875,12.6953125,18.5546875
1771545893.5822814,7.32421875,58.10546875,-18.06640625,-20.01953125,61.5234375
1771545893.5861876,10.25390625,52.24609375,-14.16015625,-17.578125,20.99609375
1771545893.5900939,51.7578125,53.22265625,9.27734375,28.80859375,0.48828125
1771545893.592125,58.10546875,58.59375,19.04296875,47.36328125,25.390625
1771545893.5960312,24.90234375,50.78125,-4.8828125,17.08984375,39.55078125
1771545893.5999374,24.4140625,49.8046875,-17.578125,3.41796875,75.68359375
1771545893.6038437,53.7109375,51.7578125,3.90625,39.0625,62.98828125
1771545893.60775,62.01171875,52.24609375,13.671875,64.453125,5.37109375
1771545893.6116562,36.1328125,48.33984375,-3.41796875,28.80859375,17.578125
1771545893.6155624,8.30078125,39.55078125,-9.765625,-12.20703125,46.38671875
1771545893.6194687,28.3203125,40.0390625,3.41796875,15.13671875,-4.39453125
1771545893.623375,64.94140625,50.29296875,18.06640625,63.96484375,-11.71875
1771545893.6272812,56.15234375,52.24609375,15.625,56.15234375,48.828125
1771545893.6311874,30.2734375,43.9453125,-7.8125,24.90234375,37.59765625
1771545893.6350937,44.43359375,45.8984375,-4.8828125,28.80859375,24.4140625
1771545893.637125,68.84765625,49.31640625,22.4609375,60.546875,24.90234375
1771545893.6410313,64.94140625,46.38671875,19.53125,61.03515625,40.0390625
1771545893.6449375,31.73828125,45.8984375,-4.8828125,17.578125,45.8984375
1771545893.6488438,31.73828125,50.29296875,0.48828125,7.8125,19.53125
1771545893.65275,66.40625,51.26953125,24.90234375,52.734375,29.78515625
1771545893.6566563,72.75390625,47.8515625,22.94921875,75.1953125,19.53125
1771545893.6605625,36.1328125,41.50390625,1.46484375,32.71484375,23.92578125
1771545893.6644688,12.20703125,34.1796875,-0.9765625,0.0,55.17578125
1771545893.668375,41.9921875,41.015625,18.5546875,33.203125,46.38671875
1771545893.6722813,66.89453125,44.43359375,23.4375,65.91796875,63.96484375
1771545893.6761875,44.43359375,37.59765625,11.23046875,45.8984375,18.5546875
1771545893.6800938,12.20703125,32.2265625,-1.953125,5.37109375,1.46484375
1771545893.682125,21.484375,34.1796875,5.37109375,18.06640625,9.27734375
1771545893.6860313,52.24609375,41.015625,19.53125,64.94140625,49.31640625
1771545893.6899376,55.17578125,35.64453125,14.6484375,73.2421875,36.1328125
1771545893.6938438,27.83203125,33.203125,0.48828125,38.57421875,-23.4375
1771545893.69775,21.484375,42.96875,0.48828125,14.6484375,-2.9296875
1771545893.7016563,47.36328125,48.33984375,12.6953125,34.1796875,-27.83203125
1771545893.7055626,64.453125,51.7578125,14.16015625,55.17578125,35.15625
1771545893.7094688,38.0859375,51.7578125,-1.46484375,15.13671875,40.52734375
1771545893.713375,24.90234375,49.31640625,-4.8828125,-1.46484375,26.85546875
1771545893.7172813,57.12890625,55.17578125,5.37109375,47.8515625,53.7109375
1771545893.7211876,82.51953125,63.96484375,8.7890625,73.2421875,57.6171875
1771545893.7250938,58.10546875,57.6171875,-2.44140625,42.96875,35.15625
1771545893.728125,32.2265625,46.875,-10.25390625,19.04296875,0.0
1771545893.7320313,50.29296875,50.29296875,2.9296875,40.0390625,16.6015625
1771545893.7359376,77.1484375,52.734375,15.625,69.82421875,-1.46484375
1771545893.7398438,62.5,47.8515625,6.34765625,54.6875,-30.2734375
1771545893.74375,26.3671875,44.43359375,-9.765625,12.20703125,23.4375
1771545893.7476563,41.015625,40.52734375,-4.39453125,28.80859375,54.6875
1771545893.7515626,75.1953125,46.875,12.20703125,72.75390625,55.6640625
1771545893.7554688,68.84765625,50.29296875,13.671875,65.91796875,32.2265625
1771545893.759375,39.55078125,42.96875,-2.9296875,22.4609375,40.0390625
1771545893.7632813,41.015625,41.50390625,-7.8125,15.625,48.828125
1771545893.7671876,75.1953125,47.36328125,6.34765625,57.6171875,12.20703125
1771545893.7710938,80.56640625,46.875,13.18359375,80.56640625,13.18359375
1771545893.788125,44.921875,36.62109375,-5.859375,45.8984375,-26.3671875
1771545893.7920313,26.85546875,32.71484375,-10.25390625,24.90234375,-39.0625
1771545893.7959375,54.6875,41.50390625,6.8359375,54.19921875,14.6484375
1771545893.7998438,81.54296875,51.26953125,23.4375,89.35546875,38.0859375
1771545893.80375,59.5703125,48.33984375,17.08984375,70.3125,34.66796875
1771545893.8076563,21.484375,32.2265625,-5.37109375,21.97265625,-1.46484375
1771545893.8115625,35.15625,28.3203125,5.37109375,29.296875,-12.6953125
1771545893.8154688,68.359375,36.1328125,28.3203125,67.87109375,30.2734375
1771545893.819375,53.7109375,36.1328125,19.53125,54.19921875,54.19921875
1771545893.8232813,18.06640625,29.296875,6.8359375,5.37109375,57.6171875
1771545893.8271875,30.2734375,30.76171875,19.04296875,20.5078125,48.828125
1771545893.8310938,58.10546875,38.57421875,28.3203125,63.4765625,74.21875
1771545893.832125,58.10546875,34.66796875,25.87890625,65.4296875,59.08203125
1771545893.8360312,21.484375,29.296875,11.23046875,34.1796875,-4.8828125
1771545893.8399374,17.08984375,39.0625,5.859375,34.1796875,30.2734375
1771545893.8438437,61.03515625,43.45703125,13.671875,64.453125,50.78125
1771545893.84775,70.3125,41.015625,17.578125,69.3359375,39.55078125
1771545893.8516562,37.59765625,31.73828125,6.34765625,29.78515625,64.453125
1771545893.8555624,21.484375,26.3671875,3.41796875,7.32421875,68.84765625
1771545893.8594687,48.33984375,37.109375,21.484375,40.0390625,38.0859375
1771545893.863375,75.68359375,38.0859375,24.4140625,75.1953125,44.921875
1771545893.8672812,52.734375,36.1328125,12.6953125,44.921875,90.33203125
1771545893.8711874,14.16015625,34.66796875,9.27734375,2.9296875,79.58984375
1771545893.8750937,36.1328125,44.921875,19.53125,32.2265625,67.87109375
1771545893.878125,73.2421875,55.17578125,30.2734375,66.40625,71.77734375
1771545893.8820312,47.36328125,44.43359375,18.06640625,39.55078125,14.16015625
1771545893.8859375,9.27734375,27.83203125,-0.9765625,-7.32421875,-25.390625
1771545893.8898437,19.04296875,20.99609375,3.90625,2.9296875,-26.85546875
1771545893.89375,51.26953125,26.3671875,22.94921875,47.8515625,33.203125
1771545893.8976562,58.10546875,33.203125,21.97265625,62.5,55.6640625
1771545893.9015625,20.5078125,35.15625,5.37109375,21.484375,45.8984375
1771545893.9054687,10.25390625,31.25,4.39453125,4.8828125,63.4765625
1771545893.909375,44.921875,31.25,17.578125,33.203125,22.4609375
1771545893.9132812,62.5,41.015625,30.2734375,50.29296875,12.20703125
1771545893.9171875,33.69140625,38.0859375,14.16015625,25.87890625,4.39453125
1771545893.9210937,7.8125,28.3203125,-2.9296875,-3.41796875,-5.859375
1771545893.923125,31.73828125,33.203125,15.625,25.390625,36.1328125
1771545893.9270313,60.05859375,38.0859375,30.2734375,65.91796875,46.875
1771545893.9309375,44.921875,39.55078125,19.53125,54.19921875,25.87890625
1771545893.9348438,24.90234375,39.55078125,7.32421875,9.765625,25.87890625
1771545893.93875,40.52734375,37.59765625,18.5546875,26.85546875,1.953125
1771545893.9426563,69.3359375,33.69140625,28.3203125,67.3828125,-12.20703125
1771545893.9465625,62.98828125,33.69140625,21.484375,52.734375,37.109375
1771545893.9504688,12.20703125,28.80859375,0.9765625,7.8125,60.05859375
1771545893.954375,8.30078125,24.4140625,8.7890625,6.8359375,45.41015625
1771545893.9582813,47.36328125,32.71484375,33.203125,51.26953125,52.734375
1771545893.9621875,57.6171875,38.57421875,29.78515625,70.3125,45.41015625
1771545893.9660938,26.3671875,31.25,1.953125,20.5078125,29.296875
1771545893.968125,12.20703125,25.87890625,0.48828125,0.9765625,40.52734375
1771545893.9720314,48.33984375,35.64453125,28.80859375,50.78125,24.90234375
1771545893.9759376,66.89453125,27.34375,32.2265625,69.82421875,30.76171875
1771545893.9798439,29.78515625,15.625,11.71875,36.1328125,48.828125
1771545893.98375,11.23046875,22.94921875,0.48828125,4.39453125,59.5703125
1771545893.9876564,53.22265625,36.1328125,7.8125,28.3203125,53.22265625
1771545893.9915626,84.9609375,45.41015625,16.6015625,69.82421875,18.5546875
1771545893.9954689,50.78125,36.62109375,12.6953125,49.8046875,9.765625
1771545893.999375,-3.41796875,24.4140625,3.90625,-3.41796875,-20.01953125
1771545894.0032814,8.30078125,28.3203125,9.27734375,12.6953125,-17.578125
1771545894.0071876,49.31640625,35.64453125,22.4609375,62.98828125,43.45703125
1771545894.0110939,52.734375,36.1328125,14.16015625,58.59375,63.96484375
1771545894.013125,18.5546875,34.1796875,-0.48828125,19.04296875,66.40625
1771545894.0170312,10.25390625,27.83203125,6.34765625,12.20703125,57.6171875
1771545894.0209374,47.36328125,29.78515625,20.01953125,45.8984375,75.1953125
1771545894.0248437,60.546875,37.59765625,23.4375,62.01171875,23.4375
1771545894.02875,26.3671875,34.1796875,12.6953125,32.2265625,-21.97265625
1771545894.0326562,3.41796875,28.80859375,7.32421875,6.8359375,39.0625
1771545894.0365624,33.203125,29.296875,20.01953125,40.52734375,85.44921875
1771545894.0404687,59.5703125,34.1796875,29.78515625,73.73046875,58.10546875
1771545894.044375,31.73828125,38.57421875,20.01953125,46.38671875,52.24609375
1771545894.0482812,8.7890625,32.2265625,8.7890625,9.27734375,4.39453125
1771545894.0521874,35.15625,33.69140625,26.3671875,32.2265625,3.90625
1771545894.0560937,72.75390625,42.48046875,40.52734375,81.0546875,33.203125
1771545894.057125,66.89453125,39.55078125,28.3203125,62.01171875,34.1796875
1771545894.0610313,30.2734375,34.1796875,5.37109375,5.859375,77.63671875
1771545894.0649376,37.59765625,41.015625,10.25390625,17.08984375,87.890625
1771545894.0688438,73.73046875,43.45703125,31.73828125,62.01171875,29.78515625
1771545894.07275,78.125,43.9453125,24.4140625,69.3359375,20.99609375
1771545894.0766563,33.69140625,41.015625,5.859375,25.390625,16.6015625
1771545894.0805626,15.625,29.78515625,-0.48828125,3.90625,19.04296875
1771545894.0844688,37.109375,28.3203125,20.5078125,40.0390625,33.203125
1771545894.088375,46.875,37.59765625,31.73828125,62.98828125,58.10546875
1771545894.0922813,20.01953125,37.59765625,4.8828125,24.90234375,24.4140625
1771545894.0961876,0.0,31.73828125,0.48828125,0.0,-5.37109375
1771545894.1000938,27.34375,36.62109375,19.53125,34.66796875,-16.6015625
1771545894.117125,62.01171875,42.48046875,26.3671875,60.05859375,-12.6953125
1771545894.1210313,35.64453125,41.9921875,9.27734375,27.34375,23.4375
1771545894.1249375,-3.90625,37.59765625,-5.859375,-7.8125,24.90234375
1771545894.1288438,28.80859375,39.55078125,15.13671875,14.16015625,38.0859375
1771545894.13275,67.87109375,45.8984375,33.69140625,54.6875,84.47265625
1771545894.1366563,49.31640625,40.52734375,14.16015625,33.203125,138.671875
1771545894.1405625,5.37109375,27.83203125,-4.39453125,-20.5078125,78.61328125
1771545894.1444688,10.25390625,28.3203125,11.71875,-13.671875,4.8828125
1771545894.148375,45.41015625,39.0625,32.2265625,39.55078125,12.20703125
1771545894.1522813,47.8515625,40.52734375,24.90234375,48.828125,99.609375
1771545894.1561875,7.32421875,32.71484375,4.39453125,-0.9765625,48.33984375
1771545894.1600938,-11.23046875,26.85546875,15.625,-11.71875,0.0
1771545894.162125,22.4609375,29.296875,30.2734375,30.76171875,76.171875
1771545894.1660314,53.22265625,37.59765625,29.296875,40.52734375,53.7109375
1771545894.1699376,23.4375,39.0625,17.578125,-0.9765625,63.96484375
1771545894.1738439,3.41796875,31.73828125,4.8828125,-18.06640625,67.87109375
1771545894.17775,42.96875,33.69140625,8.30078125,7.8125,51.26953125
1771545894.1816564,64.453125,38.0859375,17.578125,37.59765625,57.12890625
1771545894.1855626,35.15625,38.57421875,7.32421875,13.18359375,53.22265625
1771545894.1894689,-4.8828125,35.15625,-5.37109375,-28.3203125,87.890625
1771545894.193375,17.08984375,31.25,3.90625,-6.34765625,74.21875
1771545894.1972814,59.5703125,30.76171875,9.765625,36.1328125,5.37109375
1771545894.2011876,41.9921875,36.62109375,13.18359375,27.83203125,-1.953125
1771545894.2050939,1.46484375,35.64453125,1.953125,-12.20703125,25.390625
1771545894.207125,5.859375,30.76171875,-4.39453125,-13.671875,48.828125
1771545894.2110312,41.9921875,41.50390625,3.41796875,24.4140625,46.38671875
1771545894.2149374,59.5703125,49.8046875,5.859375,43.9453125,-11.23046875
1771545894.2188437,22.4609375,38.57421875,7.8125,15.13671875,15.625
1771545894.22275,-7.32421875,27.34375,12.6953125,-5.37109375,67.3828125
1771545894.2266562,18.5546875,29.78515625,22.94921875,17.578125,50.29296875
1771545894.2305624,44.921875,36.1328125,24.4140625,39.55078125,15.625
1771545894.2344687,17.578125,35.15625,15.625,15.13671875,9.765625
1771545894.238375,-13.671875,24.4140625,8.7890625,-22.4609375,7.32421875
1771545894.2422812,-0.9765625,20.99609375,18.06640625,-12.6953125,18.5546875
1771545894.2461874,24.4140625,24.4140625,29.78515625,21.97265625,32.71484375
1771545894.2500937,14.16015625,20.5078125,25.87890625,25.390625,14.6484375
1771545894.252125,-12.20703125,16.11328125,18.5546875,-15.13671875,0.9765625
1771545894.2560313,-0.9765625,16.6015625,31.73828125,-9.27734375,-12.6953125
1771545894.2599375,27.34375,18.5546875,53.7109375,36.1328125,0.0
1771545894.2638438,28.3203125,16.11328125,45.41015625,43.45703125,40.52734375
1771545894.26775,0.0,10.25390625,27.34375,4.39453125,35.15625
1771545894.2716563,1.953125,6.34765625,32.2265625,0.48828125,43.9453125
1771545894.2755625,42.48046875,8.30078125,46.38671875,46.875,67.3828125
1771545894.2794688,57.12890625,9.27734375,41.015625,60.05859375,44.43359375
1771545894.283375,31.25,3.41796875,33.69140625,29.78515625,16.6015625
1771545894.2872813,9.27734375,-2.9296875,44.921875,14.16015625,26.3671875
1771545894.2911875,38.0859375,-2.9296875,53.7109375,47.36328125,65.4296875
1771545894.2950938,70.3125,-3.90625,54.19921875,76.66015625,48.33984375
1771545894.297125,57.12890625,-11.23046875,52.24609375,69.82421875,29.296875
1771545894.3010314,50.78125,-11.71875,46.875,66.40625,18.06640625
1771545894.3049376,85.44921875,-4.8828125,46.38671875,86.9140625,68.84765625
1771545894.3088439,112.3046875,-1.953125,51.26953125,104.4921875,75.68359375
1771545894.31275,82.51953125,-3.90625,50.78125,100.09765625,46.38671875
1771545894.3166564,48.33984375,-12.20703125,37.109375,74.21875,64.453125
1771545894.3205626,72.75390625,-14.16015625,40.0390625,75.68359375,17.08984375
1771545894.3244689,125.9765625,-2.9296875,39.0625,112.79296875,18.06640625
1771545894.328375,125.9765625,2.44140625,30.76171875,107.91015625,26.85546875
1771545894.3322814,68.359375,-2.44140625,29.296875,65.91796875,-24.4140625
1771545894.3361876,50.29296875,0.48828125,24.90234375,56.640625,-8.7890625
1771545894.3400939,72.265625,7.32421875,38.0859375,90.8203125,52.24609375
1771545894.358125,94.23828125,13.671875,45.41015625,117.1875,37.109375
1771545894.3620312,94.7265625,20.5078125,31.73828125,89.84375,44.43359375
1771545894.3659375,64.94140625,15.625,22.94921875,62.01171875,36.1328125
1771545894.3698437,82.51953125,14.16015625,35.64453125,78.61328125,13.18359375
1771545894.37375,121.58203125,21.97265625,42.48046875,99.12109375,72.265625
1771545894.3776562,75.68359375,20.01953125,28.3203125,79.58984375,38.57421875
1771545894.3815625,17.578125,15.625,20.99609375,45.8984375,-14.6484375
1771545894.3854687,15.13671875,16.6015625,30.2734375,61.03515625,-15.13671875
1771545894.389375,53.22265625,23.92578125,44.921875,92.7734375,-3.90625
1771545894.3932812,61.5234375,32.2265625,40.0390625,84.47265625,35.15625
1771545894.3971875,21.97265625,29.296875,23.4375,46.38671875,53.7109375
1771545894.4010937,32.2265625,28.80859375,22.94921875,41.50390625,98.14453125
1771545894.387125,69.82421875,35.64453125,36.1328125,80.078125,38.57421875
1771545894.3910313,79.58984375,40.0390625,31.73828125,85.9375,5.37109375
1771545894.3949375,48.828125,37.59765625,15.625,39.0625,93.75
1771545894.3988438,22.94921875,33.203125,18.5546875,22.94921875,62.5
1771545894.40275,48.33984375,34.1796875,26.3671875,54.6875,0.9765625
1771545894.4066563,72.265625,37.59765625,21.484375,79.58984375,-8.30078125
1771545894.4105625,33.69140625,32.71484375,10.7421875,47.8515625,-14.6484375
1771545894.4144688,11.23046875,32.71484375,7.8125,5.37109375,13.671875
1771545894.418375,42.48046875,39.55078125,19.53125,35.64453125,51.7578125
1771545894.4222813,65.4296875,43.45703125,26.3671875,75.68359375,61.5234375
1771545894.4261875,61.5234375,39.0625,7.32421875,44.921875,34.66796875
1771545894.4300938,20.01953125,34.1796875,-5.859375,-6.8359375,19.53125
1771545894.433125,18.06640625,39.55078125,9.27734375,11.71875,16.11328125
1771545894.4370313,59.5703125,45.41015625,22.94921875,63.4765625,19.53125
1771545894.4409375,57.12890625,43.45703125,15.13671875,56.640625,-7.32421875
1771545894.4448438,19.04296875,40.0390625,1.46484375,10.25390625,33.203125
1771545894.44875,19.04296875,38.0859375,3.41796875,13.671875,41.50390625
1771545894.4526563,52.24609375,35.15625,7.8125,51.7578125,30.2734375
1771545894.4565625,58.59375,34.1796875,5.37109375,54.19921875,64.453125
1771545894.4604688,20.5078125,33.69140625,-2.44140625,15.625,-21.484375
1771545894.464375,-4.39453125,30.76171875,-1.46484375,-5.37109375,-37.109375
1771545894.4682813,28.3203125,32.2265625,5.859375,26.3671875,52.24609375
1771545894.4721875,51.7578125,34.1796875,10.25390625,52.24609375,72.75390625
1771545894.4760938,16.6015625,27.83203125,5.37109375,21.484375,55.6640625
1771545894.492125,-9.27734375,20.5078125,-4.8828125,-8.30078125,24.90234375
1771545894.4960313,18.5546875,20.5078125,6.34765625,25.390625,19.53125
1771545894.4999375,45.8984375,28.80859375,20.01953125,61.5234375,45.8984375
1771545894.5038438,24.4140625,28.3203125,13.18359375,35.15625,97.65625
1771545894.50775,-9.765625,22.4609375,1.46484375,-10.25390625,27.83203125
1771545894.5116563,0.9765625,24.90234375,3.90625,2.44140625,-40.52734375
1771545894.5155625,35.15625,29.296875,17.578125,42.96875,57.12890625
1771545894.5194688,41.9921875,36.62109375,19.04296875,42.96875,56.640625
1771545894.523375,-1.46484375,31.25,3.90625,-6.8359375,32.2265625
1771545894.5272813,-3.41796875,24.4140625,1.46484375,-16.6015625,77.63671875
1771545894.5311875,47.36328125,38.0859375,13.671875,27.34375,57.12890625
1771545894.5350938,71.77734375,40.0390625,17.578125,50.78125,33.69140625
1771545894.538125,45.41015625,22.4609375,9.27734375,28.80859375,8.30078125
1771545894.5420313,19.04296875,25.390625,-2.9296875,5.37109375,34.66796875
1771545894.5459375,20.5078125,41.50390625,1.953125,13.671875,59.08203125
1771545894.5498438,21.97265625,42.48046875,17.578125,22.94921875,14.6484375
1771545894.55375,-11.71875,41.50390625,8.30078125,-4.39453125,3.90625
1771545894.5576563,-57.6171875,39.0625,-8.30078125,-57.6171875,27.83203125
1771545894.5615625,-37.109375,50.78125,3.41796875,-50.29296875,1.46484375
1771545894.5654688,-6.34765625,67.87109375,12.20703125,-14.16015625,-4.39453125
1771545894.569375,-33.69140625,63.96484375,3.41796875,-33.69140625,42.48046875
1771545894.5732813,-91.30859375,47.36328125,-11.23046875,-100.5859375,67.87109375
1771545894.5771875,-93.75,48.828125,1.953125,-110.3515625,63.96484375
1771545894.5810938,-43.45703125,69.82421875,14.6484375,-62.98828125,46.875
1771545894.583125,-46.875,84.9609375,3.90625,-69.82421875,44.921875
1771545894.5870314,-96.19140625,69.3359375,-15.625,-126.953125,11.23046875
1771545894.5909376,-115.234375,60.05859375,-18.06640625,-145.99609375,-39.0625
1771545894.5948439,-101.07421875,68.359375,4.39453125,-117.1875,-27.34375
1771545894.59875,-77.63671875,68.359375,8.30078125,-93.75,34.66796875
1771545894.6026564,-102.5390625,63.4765625,-15.625,-123.046875,36.1328125
1771545894.6065626,-127.44140625,65.4296875,-20.99609375,-151.3671875,44.921875
1771545894.6104689,-94.7265625,61.03515625,-3.90625,-120.60546875,84.47265625
1771545894.614375,-64.453125,58.10546875,3.90625,-81.0546875,50.29296875
1771545894.6182814,-63.4765625,67.3828125,-3.41796875,-94.23828125,54.6875
1771545894.6221876,-88.37890625,60.05859375,-14.16015625,-121.58203125,36.1328125
1771545894.6260939,-76.171875,59.08203125,-9.27734375,-99.12109375,-1.953125
1771545894.643125,-33.203125,64.94140625,1.46484375,-49.31640625,19.53125
1771545894.6470313,-31.25,62.5,-7.32421875,-50.29296875,56.640625
1771545894.6509376,-68.359375,48.33984375,-19.53125,-87.40234375,58.59375
1771545894.6548438,-52.734375,41.9921875,-13.671875,-76.66015625,64.453125
1771545894.65875,2.44140625,53.7109375,0.0,-27.34375,85.9375
1771545894.6626563,14.16015625,62.98828125,0.9765625,-3.90625,64.453125
1771545894.6665626,-27.83203125,51.7578125,-7.32421875,-35.15625,20.99609375
1771545894.6704688,-23.92578125,42.48046875,-3.41796875,-33.69140625,21.97265625
1771545894.674375,23.4375,53.22265625,1.46484375,8.7890625,52.24609375
1771545894.6782813,31.73828125,52.24609375,5.859375,16.11328125,45.8984375
1771545894.6821876,0.9765625,33.69140625,-1.46484375,-23.92578125,19.53125
1771545894.6860938,-24.90234375,18.06640625,-13.671875,-49.8046875,21.484375
1771545894.672125,5.859375,20.5078125,-0.9765625,-8.7890625,25.87890625
1771545894.6760314,54.6875,28.3203125,10.25390625,20.5078125,16.11328125
1771545894.6799376,40.0390625,34.1796875,12.20703125,20.5078125,36.1328125
1771545894.6838439,0.0,30.76171875,7.8125,4.8828125,58.59375
1771545894.68775,8.30078125,18.5546875,1.953125,9.765625,8.30078125
1771545894.6916564,51.7578125,24.90234375,14.6484375,68.84765625,36.62109375
1771545894.6955626,62.98828125,37.59765625,23.4375,78.61328125,70.80078125
1771545894.6994689,6.34765625,28.80859375,10.7421875,9.27734375,21.97265625
1771545894.703375,-3.90625,24.90234375,14.16015625,8.7890625,18.5546875
1771545894.7072814,45.8984375,39.0625,29.78515625,61.03515625,5.37109375
1771545894.7111876,61.03515625,33.69140625,29.296875,64.453125,18.5546875
1771545894.7150939,26.85546875,19.53125,0.9765625,11.23046875,61.03515625
1771545894.717125,7.8125,27.34375,-3.90625,-8.30078125,42.48046875
1771545894.7210312,26.85546875,40.52734375,28.3203125,31.73828125,-5.859375
1771545894.7249374,41.9921875,40.0390625,30.76171875,67.3828125,-23.92578125
1771545894.7288437,18.06640625,34.1796875,6.8359375,31.25,37.109375
1771545894.73275,-1.46484375,28.3203125,-8.7890625,-13.18359375,62.01171875
1771545894.7366562,33.203125,23.4375,0.48828125,15.13671875,69.3359375
1771545894.7405624,66.89453125,30.76171875,15.13671875,45.41015625,89.84375
1771545894.7444687,57.6171875,36.62109375,8.30078125,40.0390625,5.859375
1771545894.748375,27.34375,30.76171875,3.90625,13.18359375,-37.59765625
1771545894.7522812,37.59765625,39.55078125,18.06640625,31.25,-6.34765625
1771545894.7561874,85.44921875,51.7578125,34.66796875,81.54296875,32.71484375
1771545894.7600937,70.3125,29.78515625,24.90234375,64.94140625,10.25390625
1771545894.792125,12.20703125,23.4375,8.30078125,4.8828125,5.859375
1771545894.7960312,14.6484375,28.80859375,15.625,2.44140625,43.9453125
1771545894.7999375,79.1015625,32.71484375,35.64453125,41.50390625,45.41015625
1771545894.8038437,93.26171875,55.17578125,45.41015625,63.96484375,48.828125
1771545894.80775,29.296875,45.8984375,22.4609375,22.4609375,66.40625
1771545894.8116562,-0.9765625,14.6484375,-2.9296875,-16.6015625,111.328125
1771545894.8155625,33.203125,8.7890625,5.859375,14.6484375,25.390625
1771545894.8194687,46.875,20.01953125,19.04296875,50.78125,-18.06640625
1771545894.823375,4.8828125,24.90234375,1.953125,20.99609375,24.90234375
1771545894.8272812,-19.53125,21.97265625,-12.6953125,-28.80859375,2.44140625
1771545894.8311875,21.97265625,29.78515625,9.765625,7.32421875,23.4375
1771545894.8350937,56.15234375,33.203125,33.69140625,56.15234375,64.453125
1771545894.807125,41.9921875,33.69140625,28.80859375,52.734375,69.3359375
1771545894.8110313,4.39453125,20.01953125,15.625,20.5078125,42.48046875
1771545894.8149376,6.34765625,6.34765625,17.08984375,21.484375,39.0625
1771545894.8188438,60.05859375,34.66796875,34.66796875,60.05859375,41.50390625
1771545894.82275,84.9609375,56.15234375,43.9453125,80.078125,9.765625
1771545894.8266563,28.80859375,22.94921875,5.37109375,27.34375,15.13671875
1771545894.8305626,4.39453125,-9.765625,-6.8359375,0.48828125,5.859375
1771545894.8344688,64.453125,25.390625,37.109375,61.03515625,-34.66796875
1771545894.838375,94.23828125,65.91796875,49.31640625,76.171875,4.39453125
1771545894.8422813,55.6640625,43.45703125,19.04296875,22.4609375,14.16015625
1771545894.8461876,10.25390625,12.6953125,9.27734375,0.0,23.4375
1771545894.8500938,37.109375,23.4375,21.97265625,15.13671875,73.2421875
1771545894.853125,68.359375,30.2734375,24.90234375,50.29296875,51.7578125
1771545894.8570313,62.01171875,27.83203125,25.390625,49.8046875,39.55078125
1771545894.8609376,22.4609375,9.765625,7.32421875,-0.9765625,35.15625
1771545894.8648438,-1.46484375,-8.7890625,-2.44140625,-18.06640625,12.20703125
1771545894.86875,36.62109375,-1.46484375,11.71875,19.04296875,32.2265625
1771545894.8726563,48.828125,13.671875,16.11328125,38.57421875,36.62109375
1771545894.8765626,12.20703125,19.53125,5.859375,5.37109375,10.25390625
1771545894.8804688,17.578125,16.6015625,13.671875,18.5546875,28.80859375
1771545894.884375,49.31640625,18.5546875,28.3203125,62.5,3.41796875
1771545894.8882813,63.4765625,27.34375,18.5546875,65.4296875,9.27734375
1771545894.8921876,26.85546875,33.203125,6.34765625,12.6953125,39.0625
1771545894.8960938,-1.46484375,41.50390625,11.71875,-18.06640625,-29.78515625
1771545894.913125,46.875,47.8515625,26.3671875,41.015625,30.76171875
1771545894.9170313,96.6796875,54.19921875,41.015625,82.51953125,80.078125
1771545894.9209375,58.59375,43.9453125,28.3203125,27.83203125,44.921875
1771545894.9248438,41.9921875,39.55078125,35.64453125,7.32421875,51.7578125
1771545894.92875,88.37890625,60.546875,58.10546875,78.125,55.6640625
1771545894.9326563,76.171875,42.96875,17.578125,80.078125,32.71484375
1771545894.9365625,26.85546875,14.6484375,-16.6015625,10.7421875,10.25390625
1771545894.9404688,-16.6015625,7.8125,-18.5546875,-21.97265625,-21.484375
1771545894.944375,0.48828125,12.20703125,-3.90625,0.9765625,63.4765625
1771545894.9482813,41.015625,25.87890625,16.11328125,40.52734375,130.37109375
1771545894.9521875,43.9453125,42.96875,19.04296875,55.17578125,115.234375
1771545894.9560938,23.92578125,41.50390625,-0.9765625,17.578125,21.484375
1771545894.957125,29.296875,43.45703125,0.0,21.484375,-6.8359375
1771545894.9610312,54.6875,42.96875,22.4609375,64.94140625,67.87109375
1771545894.9649374,66.89453125,34.66796875,25.87890625,69.82421875,71.77734375
1771545894.9688437,52.734375,46.38671875,23.92578125,43.45703125,15.625
1771545894.97275,47.36328125,51.26953125,20.99609375,30.2734375,19.04296875
1771545894.9766562,57.12890625,34.1796875,20.99609375,31.25,20.99609375
1771545894.9805624,56.640625,22.4609375,32.71484375,39.55078125,-19.04296875
1771545894.9844687,32.71484375,20.99609375,28.3203125,16.11328125,-0.9765625
1771545894.988375,3.41796875,14.6484375,8.7890625,-11.71875,9.27734375
1771545894.9922812,28.80859375,21.97265625,16.11328125,16.6015625,48.828125
1771545894.9961874,70.3125,35.15625,41.9921875,58.10546875,92.7734375
1771545895.0000937,47.8515625,23.92578125,38.57421875,44.43359375,70.80078125
1771545895.002125,10.7421875,20.01953125,15.13671875,1.953125,40.0390625
1771545895.0060313,21.484375,21.97265625,17.578125,9.27734375,13.18359375
1771545895.0099375,47.36328125,25.87890625,38.0859375,45.41015625,1.46484375
1771545895.0138438,62.98828125,23.4375,37.59765625,38.0859375,20.99609375
1771545895.01775,29.78515625,9.27734375,11.23046875,6.8359375,81.54296875
1771545895.0216563,4.8828125,22.94921875,0.9765625,-9.27734375,116.2109375
1771545895.0255625,41.015625,34.66796875,11.23046875,17.08984375,85.9375
1771545895.0294688,57.12890625,36.1328125,22.94921875,64.94140625,47.36328125
1771545895.033375,31.25,32.71484375,13.671875,28.80859375,15.13671875
1771545895.0372813,14.6484375,27.34375,4.8828125,-16.6015625,30.76171875
1771545895.0411875,39.0625,34.1796875,32.2265625,18.5546875,100.09765625
1771545895.0450938,63.4765625,17.578125,41.9921875,48.828125,28.80859375
1771545895.048125,33.203125,7.8125,24.4140625,24.90234375,31.25
1771545895.0520313,0.9765625,32.71484375,7.8125,-13.671875,62.01171875
1771545895.0559375,19.04296875,30.76171875,8.30078125,-8.30078125,-7.8125
1771545895.0598438,67.87109375,30.76171875,23.92578125,47.36328125,19.04296875
1771545895.06375,80.078125,43.9453125,31.25,68.84765625,29.78515625
1771545895.0676563,22.4609375,29.78515625,9.765625,6.8359375,25.87890625
1771545895.0715625,5.37109375,21.97265625,3.90625,-15.13671875,18.06640625
1771545895.0754688,54.6875,30.2734375,20.01953125,30.2734375,49.8046875
1771545895.079375,77.1484375,34.1796875,28.3203125,47.8515625,58.10546875
1771545895.0832813,56.640625,45.41015625,27.83203125,33.69140625,8.7890625
1771545895.0871875,36.1328125,32.2265625,9.765625,17.578125,27.34375
1771545895.0910938,40.52734375,24.90234375,6.8359375,35.15625,18.06640625
1771545895.092125,51.7578125,37.109375,21.97265625,62.01171875,42.96875
1771545895.0960312,32.71484375,27.34375,17.08984375,24.90234375,82.03125
1771545895.0999374,15.13671875,25.87890625,12.20703125,-4.8828125,28.80859375
1771545895.1038437,46.38671875,31.25,26.85546875,33.69140625,36.1328125
1771545895.10775,62.01171875,24.90234375,23.4375,57.12890625,44.921875
1771545895.1116562,44.921875,29.78515625,3.90625,30.2734375,36.62109375
1771545895.1155624,23.92578125,21.484375,-7.8125,3.90625,72.265625
1771545895.1194687,39.55078125,29.296875,12.20703125,36.1328125,67.3828125
1771545895.123375,66.40625,41.50390625,32.2265625,66.89453125,8.30078125
1771545895.1272812,49.8046875,27.34375,18.5546875,50.78125,9.765625
1771545895.1311874,23.4375,34.1796875,1.953125,19.04296875,35.15625
1771545895.1350937,29.78515625,34.66796875,3.90625,12.6953125,3.90625
1771545895.138125,60.05859375,28.3203125,19.53125,33.203125,31.25
1771545895.1420312,67.87109375,34.1796875,22.4609375,38.57421875,66.89453125
1771545895.1459374,26.85546875,25.87890625,4.39453125,8.7890625,39.0625
1771545895.1498437,17.08984375,22.94921875,0.0,-6.8359375,1.46484375
1771545895.15375,26.3671875,31.73828125,18.06640625,22.4609375,21.97265625
1771545895.1576562,44.921875,35.64453125,29.78515625,53.22265625,89.35546875
1771545895.1615624,46.38671875,33.69140625,6.8359375,29.296875,83.984375
1771545895.1654687,31.73828125,35.15625,3.90625,6.8359375,15.625
1771545895.169375,54.6875,39.55078125,26.3671875,38.57421875,44.43359375
1771545895.1732812,69.82421875,36.1328125,25.87890625,63.4765625,52.734375
1771545895.1771874,64.94140625,30.76171875,24.90234375,56.15234375,37.109375
1771545895.1810937,37.109375,27.83203125,25.390625,27.83203125,32.2265625
1771545895.183125,30.76171875,35.15625,20.01953125,16.6015625,45.41015625
1771545895.1870313,54.6875,38.0859375,18.5546875,49.31640625,93.26171875
1771545895.1909375,50.78125,26.85546875,13.671875,53.7109375,45.41015625
1771545895.1948438,16.11328125,12.6953125,6.8359375,-3.90625,-22.94921875
1771545895.19875,9.765625,18.5546875,7.8125,-18.06640625,10.7421875
1771545895.2026563,56.15234375,34.66796875,12.6953125,49.8046875,45.8984375
1771545895.2065625,80.56640625,33.203125,20.99609375,94.23828125,17.08984375
1771545895.2104688,48.828125,39.0625,24.90234375,45.41015625,-7.8125
1771545895.214375,19.53125,38.0859375,20.99609375,3.41796875,18.5546875
1771545895.2182813,17.578125,20.99609375,20.5078125,19.53125,6.34765625
1771545895.2221875,25.390625,26.85546875,26.85546875,44.43359375,4.8828125
1771545895.2260938,11.23046875,24.90234375,12.20703125,28.80859375,28.3203125
1771545895.243125,0.48828125,23.4375,1.953125,4.39453125,43.45703125
1771545895.2470312,30.76171875,33.69140625,11.23046875,33.69140625,60.546875
1771545895.2509375,72.265625,38.57421875,20.5078125,73.2421875,-12.6953125
1771545895.2548437,62.98828125,36.1328125,17.578125,55.6640625,-63.4765625
1771545895.25875,18.06640625,22.94921875,0.48828125,8.7890625,25.87890625
1771545895.2626562,27.34375,19.04296875,0.48828125,12.6953125,75.68359375
1771545895.2665625,73.73046875,45.8984375,26.85546875,60.05859375,48.828125
1771545895.2704687,84.47265625,40.0390625,42.96875,80.078125,79.58984375
1771545895.274375,46.875,19.04296875,21.97265625,37.59765625,53.7109375
1771545895.2782812,28.80859375,16.11328125,6.34765625,14.6484375,-1.46484375
1771545895.2821875,39.0625,18.5546875,12.20703125,43.9453125,-0.48828125
1771545895.2860937,53.22265625,41.9921875,19.04296875,62.98828125,2.44140625
1771545895.288125,22.94921875,36.62109375,8.30078125,26.85546875,26.85546875
1771545895.2920313,-6.8359375,20.99609375,-6.8359375,-6.34765625,31.73828125
1771545895.2959375,21.97265625,25.87890625,10.7421875,18.5546875,34.1796875
1771545895.2998438,47.8515625,31.73828125,28.80859375,48.33984375,54.6875
1771545895.30375,40.0390625,34.66796875,19.04296875,35.64453125,103.515625
1771545895.3076563,12.6953125,34.1796875,0.9765625,2.44140625,116.69921875
1771545895.3115625,41.015625,43.45703125,23.4375,30.76171875,9.27734375
1771545895.3154688,86.9140625,52.24609375,52.24609375,83.0078125,0.48828125
1771545895.319375,72.265625,44.921875,31.25,77.1484375,75.68359375
1771545895.3232813,20.5078125,23.4375,4.39453125,17.08984375,55.17578125
1771545895.3271875,1.46484375,6.8359375,9.27734375,-9.765625,15.13671875
1771545895.3310938,26.85546875,18.5546875,21.97265625,22.94921875,28.80859375
1771545895.333125,44.921875,33.69140625,24.4140625,48.828125,16.6015625
1771545895.3370314,32.71484375,41.9921875,23.92578125,36.62109375,42.48046875
1771545895.3409376,13.671875,34.1796875,19.04296875,19.04296875,65.4296875
1771545895.3448439,28.80859375,30.2734375,21.97265625,27.83203125,74.70703125
1771545895.34875,51.7578125,40.52734375,20.5078125,39.0625,41.9921875
1771545895.3526564,20.5078125,31.25,4.39453125,14.16015625,-12.20703125
1771545895.3565626,-4.39453125,29.78515625,-5.37109375,-6.34765625,38.57421875
1771545895.3604689,41.9921875,44.921875,1.953125,21.97265625,64.453125
1771545895.364375,75.1953125,47.8515625,16.6015625,58.59375,10.25390625
1771545895.3682814,41.50390625,34.66796875,26.3671875,31.73828125,45.41015625
1771545895.3721876,4.39453125,28.80859375,25.87890625,-14.6484375,86.9140625
1771545895.3760939,7.32421875,30.76171875,20.5078125,2.44140625,30.76171875
1771545895.377125,46.875,38.57421875,23.4375,40.52734375,16.6015625
1771545895.3810313,50.29296875,45.8984375,29.78515625,41.9921875,52.734375
1771545895.3849375,18.06640625,39.0625,17.08984375,18.06640625,-11.71875
1771545895.3888438,18.06640625,37.109375,14.6484375,16.6015625,-35.64453125
1771545895.39275,38.0859375,41.015625,27.83203125,53.7109375,71.77734375
1771545895.3966563,51.26953125,35.15625,24.90234375,64.453125,104.98046875
1771545895.4005625,23.92578125,35.64453125,7.8125,26.3671875,63.4765625
1771545895.4044688,-1.953125,37.109375,5.859375,9.27734375,19.53125
1771545895.408375,27.83203125,35.64453125,20.5078125,33.69140625,3.41796875
1771545895.4122813,58.10546875,42.96875,34.1796875,62.01171875,59.08203125
1771545895.4161875,29.296875,42.48046875,22.94921875,48.828125,75.68359375
1771545895.4200938,1.953125,31.25,3.41796875,11.23046875,58.59375
1771545895.422125,22.94921875,28.3203125,9.765625,28.80859375,67.3828125
1771545895.4260314,55.17578125,48.828125,25.390625,59.5703125,34.1796875
1771545895.4299376,45.8984375,51.26953125,21.97265625,50.29296875,6.8359375
1771545895.4338439,2.44140625,29.296875,1.46484375,19.53125,-48.828125
1771545895.43775,17.08984375,28.80859375,2.44140625,9.27734375,-20.99609375
1771545895.4416564,59.08203125,34.1796875,14.6484375,42.96875,19.53125
1771545895.4455626,49.8046875,37.59765625,6.8359375,62.5,38.57421875
1771545895.4494689,24.90234375,32.2265625,2.9296875,28.80859375,100.09765625
1771545895.453375,10.7421875,14.6484375,8.30078125,-3.41796875,56.640625
1771545895.4572814,33.203125,29.296875,27.83203125,21.484375,29.78515625
1771545895.4611876,56.640625,44.43359375,29.78515625,53.22265625,51.7578125
1771545895.4650939,28.80859375,30.2734375,11.23046875,28.3203125,30.2734375
1771545895.468125,4.39453125,21.97265625,1.953125,-1.953125,48.828125
1771545895.4720314,26.85546875,34.1796875,6.34765625,20.5078125,56.15234375
1771545895.4759376,52.734375,32.2265625,13.671875,51.7578125,20.01953125
1771545895.4798439,39.55078125,29.78515625,7.8125,38.0859375,8.7890625
1771545895.48375,6.34765625,28.80859375,2.9296875,7.32421875,28.3203125
1771545895.4876564,10.7421875,25.390625,5.37109375,3.90625,31.73828125
1771545895.4915626,37.59765625,32.2265625,11.71875,36.1328125,54.19921875
1771545895.4954689,37.59765625,34.1796875,4.8828125,41.50390625,92.28515625
1771545895.499375,-1.46484375,32.71484375,2.9296875,1.46484375,12.6953125
1771545895.5032814,-3.90625,33.203125,11.23046875,1.46484375,-22.4609375
1771545895.5071876,54.19921875,49.8046875,17.08984375,41.50390625,54.19921875
1771545895.5110939,67.87109375,50.29296875,17.578125,50.29296875,72.75390625
1771545895.512125,30.76171875,38.0859375,7.8125,15.13671875,74.70703125
1771545895.5160313,17.578125,45.8984375,4.39453125,3.90625,93.26171875
1771545895.5199375,36.62109375,42.48046875,11.71875,41.015625,71.77734375
1771545895.5238438,61.5234375,51.7578125,33.203125,65.4296875,54.6875
1771545895.52775,51.26953125,62.5,37.59765625,44.921875,-2.9296875
1771545895.5316563,35.64453125,49.8046875,21.97265625,12.6953125,-61.03515625
1771545895.5355625,56.640625,53.22265625,14.6484375,26.3671875,-2.44140625
1771545895.5394688,62.98828125,54.6875,20.5078125,53.7109375,12.20703125
1771545895.543375,38.57421875,37.109375,28.80859375,41.9921875,-24.4140625
1771545895.5472813,10.7421875,27.34375,9.765625,-0.9765625,-5.37109375
1771545895.5511875,14.6484375,41.9921875,3.41796875,13.18359375,7.32421875
1771545895.5550938,50.78125,45.41015625,16.11328125,48.33984375,32.71484375
1771545895.557125,39.0625,31.73828125,8.30078125,29.78515625,69.82421875
1771545895.5610313,8.30078125,27.83203125,-11.23046875,2.9296875,19.04296875
1771545895.5649376,18.06640625,23.4375,-12.20703125,-3.90625,22.4609375
1771545895.5688438,37.109375,29.296875,13.18359375,28.80859375,57.6171875
1771545895.57275,48.33984375,46.38671875,20.5078125,67.87109375,19.53125
1771545895.5766563,40.0390625,50.78125,5.859375,37.59765625,55.17578125
1771545895.5805626,21.484375,24.4140625,-6.34765625,-2.9296875,20.5078125
1771545895.5844688,35.64453125,29.78515625,7.8125,16.6015625,-26.85546875
1771545895.588375,59.08203125,48.33984375,26.85546875,46.38671875,38.57421875
1771545895.5922813,36.1328125,46.38671875,10.25390625,31.73828125,63.96484375
1771545895.5961876,11.71875,39.55078125,-6.34765625,-10.25390625,53.7109375
1771545895.6000938,36.1328125,36.62109375,6.8359375,4.39453125,-6.34765625
1771545895.617125,55.6640625,42.48046875,21.97265625,47.36328125,3.41796875
1771545895.6210313,47.36328125,45.8984375,16.11328125,41.50390625,51.7578125
1771545895.6249375,25.87890625,42.48046875,3.41796875,6.34765625,31.25
1771545895.6288438,39.55078125,37.109375,10.25390625,7.32421875,-0.9765625
1771545895.63275,76.66015625,40.0390625,22.4609375,38.0859375,29.78515625
1771545895.6366563,63.4765625,44.921875,19.53125,52.24609375,84.47265625
1771545895.6405625,20.5078125,38.0859375,11.71875,19.53125,53.22265625
1771545895.6444688,5.859375,36.62109375,9.27734375,1.46484375,27.34375
1771545895.648375,39.55078125,41.015625,20.01953125,46.38671875,31.25
1771545895.6522813,77.1484375,53.7109375,35.15625,77.63671875,62.5
1771545895.6561875,56.640625,50.78125,20.01953125,44.921875,11.71875
1771545895.6600938,16.6015625,31.73828125,-1.46484375,6.8359375,-34.66796875
1771545895.662125,38.57421875,22.94921875,-0.48828125,24.4140625,26.3671875
1771545895.6660314,55.17578125,31.25,20.99609375,51.26953125,31.73828125
1771545895.6699376,28.3203125,44.921875,22.4609375,41.9921875,31.25
1771545895.6738439,17.08984375,46.38671875,14.6484375,20.5078125,55.6640625
1771545895.67775,40.52734375,36.1328125,24.4140625,37.109375,17.08984375
1771545895.6816564,67.3828125,38.0859375,27.83203125,63.4765625,54.19921875
1771545895.6855626,54.19921875,46.875,15.13671875,38.0859375,67.87109375
1771545895.6894689,15.13671875,32.71484375,0.0,-4.39453125,-18.06640625
1771545895.693375,9.765625,20.5078125,0.9765625,-2.9296875,40.0390625
1771545895.6972814,49.8046875,26.85546875,13.671875,30.2734375,37.109375
1771545895.7011876,42.48046875,27.34375,24.4140625,31.73828125,40.0390625
1771545895.7050939,8.7890625,27.34375,13.671875,4.8828125,56.15234375
1771545895.708125,15.13671875,29.78515625,5.859375,2.9296875,20.5078125
1771545895.7120314,46.875,28.3203125,17.08984375,24.90234375,23.92578125
1771545895.7159376,68.84765625,33.69140625,25.390625,56.15234375,80.078125
1771545895.7198439,54.6875,36.62109375,11.23046875,41.015625,48.828125
1771545895.72375,25.87890625,25.87890625,1.46484375,4.39453125,3.90625
1771545895.7276564,60.546875,35.64453125,25.390625,54.19921875,20.99609375
1771545895.7315626,99.12109375,61.03515625,52.24609375,107.421875,32.2265625
1771545895.7354689,41.015625,38.57421875,27.34375,61.03515625,25.87890625
1771545895.739375,-7.8125,6.34765625,-9.27734375,-5.859375,38.0859375
1771545895.7432814,20.99609375,17.578125,8.7890625,7.32421875,65.4296875
1771545895.7471876,49.31640625,33.203125,30.76171875,39.55078125,59.5703125
1771545895.7510939,34.66796875,33.203125,17.08984375,37.109375,59.5703125
1771545895.753125,15.13671875,34.66796875,1.46484375,5.859375,54.19921875
1771545895.7570312,4.8828125,27.34375,-2.44140625,-7.32421875,44.921875
1771545895.7609375,23.4375,28.80859375,8.7890625,25.87890625,79.1015625
1771545895.7648437,54.19921875,42.48046875,22.94921875,44.921875,55.6640625
1771545895.76875,34.66796875,34.66796875,11.71875,17.08984375,35.64453125
1771545895.7726562,11.23046875,7.8125,4.8828125,6.8359375,5.859375
1771545895.7765625,31.73828125,9.765625,17.08984375,21.97265625,-35.64453125
1771545895.7804687,50.29296875,19.53125,23.92578125,29.296875,-11.71875
1771545895.784375,28.80859375,12.6953125,13.18359375,4.8828125,29.78515625
1771545895.7882812,-5.859375,26.3671875,4.39453125,-13.18359375,46.875
1771545895.7921875,27.83203125,41.015625,16.11328125,25.390625,52.734375
1771545895.7960937,75.68359375,59.08203125,33.69140625,63.4765625,54.6875
1771545895.812125,49.8046875,63.96484375,28.80859375,52.24609375,52.24609375
1771545895.8160312,4.39453125,36.1328125,12.20703125,10.25390625,51.26953125
1771545895.8199375,16.11328125,21.484375,5.859375,-5.37109375,62.98828125
1771545895.8238437,43.45703125,20.99609375,11.71875,21.484375,50.78125
1771545895.82775,30.76171875,23.4375,12.20703125,30.2734375,9.765625
1771545895.8316562,6.8359375,23.4375,0.0,-10.7421875,41.015625
1771545895.8355625,26.3671875,31.73828125,7.8125,0.0,37.109375
1771545895.8394687,60.546875,38.0859375,20.99609375,43.9453125,7.32421875
1771545895.843375,57.12890625,37.59765625,24.4140625,47.8515625,5.37109375
1771545895.8472812,38.57421875,42.48046875,28.80859375,4.39453125,0.0
1771545895.8511875,39.0625,46.875,19.53125,3.41796875,46.875
1771545895.8550937,40.52734375,37.59765625,17.578125,43.9453125,73.2421875
1771545895.842125,35.64453125,36.62109375,36.62109375,52.24609375,29.296875
1771545895.8460312,20.99609375,34.66796875,22.4609375,25.87890625,18.5546875
1771545895.8499374,0.0,22.4609375,-8.7890625,-13.671875,-18.5546875
1771545895.8538437,12.6953125,24.4140625,2.9296875,2.44140625,-16.6015625
1771545895.85775,40.52734375,40.52734375,25.87890625,31.73828125,39.0625
1771545895.8616562,25.390625,42.96875,21.484375,29.296875,30.76171875
1771545895.8655624,14.16015625,38.57421875,12.6953125,8.7890625,-2.9296875
1771545895.8694687,21.484375,41.015625,14.6484375,7.8125,18.06640625
1771545895.873375,45.8984375,33.69140625,31.73828125,36.62109375,72.75390625
1771545895.8772812,54.6875,26.3671875,30.2734375,48.828125,94.23828125
1771545895.8811874,17.08984375,35.64453125,6.8359375,9.765625,35.64453125
1771545895.8850937,9.765625,38.57421875,7.8125,-8.30078125,-56.15234375
1771545895.888125,20.99609375,36.62109375,28.3203125,19.04296875,-43.45703125
1771545895.8920312,41.9921875,41.9921875,35.15625,48.828125,8.7890625
1771545895.8959374,44.921875,37.109375,10.7421875,14.16015625,67.3828125
1771545895.8998437,23.92578125,34.66796875,3.90625,-20.5078125,107.421875
1771545895.90375,40.0390625,41.015625,21.97265625,20.5078125,89.84375
1771545895.9076562,68.359375,43.45703125,26.3671875,46.38671875,70.80078125
1771545895.9115624,55.17578125,46.875,17.578125,34.1796875,21.97265625
1771545895.9154687,14.6484375,35.64453125,1.953125,1.953125,-5.37109375
1771545895.919375,16.6015625,41.50390625,16.11328125,12.20703125,-31.25
1771545895.9232812,71.77734375,57.6171875,38.0859375,67.3828125,-0.9765625
1771545895.9271874,79.58984375,45.8984375,17.08984375,42.48046875,15.13671875
1771545895.9310937,24.4140625,53.7109375,-2.44140625,-0.9765625,-8.30078125
1771545895.933125,19.04296875,48.828125,6.8359375,7.8125,31.73828125
1771545895.9370313,46.38671875,27.83203125,11.23046875,41.50390625,22.4609375
1771545895.9409375,39.55078125,19.04296875,16.11328125,50.29296875,44.921875
1771545895.9448438,11.23046875,15.13671875,5.859375,6.34765625,60.05859375
1771545895.94875,8.7890625,24.4140625,0.48828125,-0.9765625,21.97265625
1771545895.9526563,44.43359375,33.203125,20.99609375,41.9921875,27.83203125
1771545895.9565625,68.359375,35.64453125,17.08984375,49.8046875,60.546875
1771545895.9604688,32.71484375,28.3203125,8.30078125,21.97265625,70.80078125
1771545895.964375,6.34765625,24.4140625,6.34765625,0.0,5.859375
1771545895.9682813,44.43359375,30.2734375,5.37109375,24.4140625,-21.484375
1771545895.9721875,78.125,46.875,20.5078125,56.15234375,0.48828125
1771545895.9760938,61.5234375,48.33984375,22.94921875,31.73828125,-16.11328125
1771545895.992125,40.52734375,41.9921875,26.85546875,19.53125,8.30078125
1771545895.9960313,65.4296875,38.0859375,33.203125,44.43359375,44.43359375
1771545895.9999375,61.03515625,21.97265625,18.06640625,47.36328125,60.05859375
1771545896.0038438,26.85546875,17.08984375,13.18359375,38.57421875,37.109375
1771545896.00775,0.9765625,25.390625,5.859375,-1.46484375,10.7421875
1771545896.0116563,11.23046875,37.59765625,16.11328125,-2.9296875,37.109375
1771545896.0155625,47.8515625,40.52734375,38.57421875,46.875,74.21875
1771545896.0194688,49.8046875,39.55078125,26.3671875,47.8515625,90.33203125
1771545896.023375,20.5078125,38.57421875,4.8828125,12.20703125,65.91796875
1771545896.0272813,18.06640625,34.1796875,6.34765625,7.8125,61.03515625
1771545896.0311875,41.50390625,35.15625,21.97265625,40.0390625,64.94140625
1771545896.0350938,58.10546875,35.64453125,29.78515625,43.9453125,30.76171875
1771545896.037125,57.6171875,50.29296875,36.62109375,33.69140625,17.578125
1771545896.0410314,39.0625,55.6640625,32.71484375,29.78515625,42.48046875
1771545896.0449376,39.55078125,55.17578125,25.390625,38.0859375,42.96875
1771545896.0488439,45.8984375,55.17578125,22.4609375,51.26953125,65.4296875
1771545896.05275,28.3203125,32.71484375,9.27734375,34.66796875,78.61328125
1771545896.0566564,-1.953125,22.4609375,3.41796875,2.44140625,53.22265625
1771545896.0605626,17.578125,32.71484375,18.5546875,12.20703125,7.32421875
1771545896.0644689,67.3828125,47.8515625,41.50390625,52.734375,-10.25390625
1771545896.068375,50.29296875,28.80859375,28.3203125,48.828125,19.04296875
1771545896.0722814,1.46484375,14.16015625,-0.9765625,6.34765625,26.85546875
1771545896.0761876,9.27734375,29.78515625,4.39453125,5.859375,0.48828125
1771545896.0800939,41.015625,39.55078125,26.3671875,43.45703125,10.25390625
1771545896.082125,50.78125,43.45703125,30.2734375,44.921875,35.64453125
1771545896.0860312,37.59765625,34.66796875,16.11328125,12.20703125,10.25390625
1771545896.0899374,27.83203125,31.25,14.16015625,13.18359375,-20.99609375
1771545896.0938437,62.5,40.0390625,27.83203125,44.43359375,-35.64453125
1771545896.09775,69.82421875,44.43359375,22.94921875,49.31640625,-1.46484375
1771545896.1016562,29.78515625,40.0390625,7.32421875,21.97265625,1.46484375
1771545896.1055624,1.953125,27.83203125,7.8125,-7.32421875,26.85546875
1771545896.1094687,14.6484375,24.90234375,19.53125,14.6484375,62.01171875
1771545896.113375,52.734375,27.34375,19.53125,42.96875,98.6328125
1771545896.1172812,50.78125,29.78515625,12.20703125,42.96875,80.56640625
1771545896.1211874,20.99609375,41.50390625,16.6015625,21.97265625,11.71875
1771545896.1250937,22.94921875,35.15625,17.08984375,13.18359375,45.8984375
1771545896.127125,59.5703125,30.76171875,21.484375,55.17578125,64.453125
1771545896.1310313,73.2421875,37.109375,29.78515625,74.21875,47.8515625
1771545896.1349375,34.66796875,49.8046875,19.53125,39.0625,51.7578125
1771545896.1388438,8.7890625,58.59375,9.27734375,9.27734375,1.46484375
1771545896.14275,18.5546875,44.921875,16.6015625,11.71875,-4.39453125
1771545896.1466563,32.2265625,41.9921875,20.5078125,21.484375,35.64453125
1771545896.1505625,18.06640625,47.8515625,14.6484375,3.90625,56.640625
1771545896.1544688,5.859375,36.1328125,9.27734375,-3.90625,42.96875
1771545896.158375,47.8515625,41.50390625,11.23046875,32.2265625,7.32421875
1771545896.1622813,65.4296875,57.6171875,25.390625,55.6640625,81.54296875
1771545896.1661875,50.29296875,46.38671875,23.92578125,41.9921875,52.24609375
1771545896.1700938,13.18359375,28.80859375,3.90625,13.18359375,20.01953125
1771545896.173125,18.06640625,29.78515625,7.8125,5.859375,66.89453125
1771545896.1770313,63.96484375,40.52734375,26.85546875,60.546875,44.43359375
1771545896.1809375,55.6640625,45.41015625,20.01953125,53.22265625,21.484375
1771545896.1848438,14.16015625,30.76171875,-5.859375,-20.99609375,36.1328125
1771545896.18875,19.04296875,44.43359375,8.30078125,-11.23046875,12.20703125
1771545896.1926563,58.10546875,65.91796875,30.76171875,39.0625,26.3671875
1771545896.1965625,43.9453125,50.29296875,20.01953125,46.38671875,63.96484375
1771545896.2004688,14.16015625,36.62109375,0.0,24.90234375,56.640625
1771545896.204375,35.64453125,20.5078125,4.8828125,30.76171875,52.24609375
1771545896.2082813,36.62109375,20.99609375,25.87890625,49.31640625,31.73828125
1771545896.2121875,35.64453125,41.9921875,28.3203125,53.22265625,8.7890625
1771545896.2160938,26.3671875,38.57421875,12.6953125,13.18359375,23.92578125
1771545896.217125,-0.48828125,26.85546875,1.953125,-19.04296875,44.921875
1771545896.2210312,34.66796875,39.0625,19.53125,17.08984375,55.17578125
1771545896.2249374,48.828125,48.33984375,30.2734375,53.7109375,46.38671875
1771545896.2288437,28.3203125,36.1328125,18.5546875,27.83203125,57.6171875
1771545896.23275,18.06640625,23.92578125,12.6953125,-0.48828125,38.0859375
1771545896.2366562,35.64453125,35.64453125,21.97265625,21.97265625,-15.13671875
1771545896.2405624,56.15234375,50.78125,29.78515625,52.24609375,28.80859375
1771545896.2444687,40.52734375,42.48046875,26.3671875,53.7109375,79.58984375
1771545896.248375,15.13671875,38.0859375,26.3671875,18.06640625,30.76171875
1771545896.2522812,20.01953125,39.55078125,27.34375,30.2734375,17.578125
1771545896.2561874,43.9453125,36.62109375,29.78515625,62.98828125,12.6953125
1771545896.2600937,39.55078125,42.48046875,28.3203125,39.0625,-7.8125
1771545896.262125,18.06640625,45.8984375,20.01953125,14.16015625,37.109375
1771545896.2660313,35.15625,24.90234375,16.11328125,20.5078125,49.31640625
1771545896.2699375,60.05859375,18.06640625,27.34375,42.96875,16.6015625
1771545896.2738438,67.87109375,42.48046875,31.73828125,55.6640625,64.453125
1771545896.27775,43.9453125,45.8984375,12.20703125,34.1796875,69.82421875
1771545896.2816563,25.87890625,38.0859375,7.8125,17.08984375,36.62109375
1771545896.2855625,33.69140625,40.0390625,13.18359375,18.5546875,19.53125
1771545896.2894688,40.0390625,41.015625,26.85546875,47.36328125,-21.97265625
1771545896.293375,34.66796875,31.73828125,33.203125,64.453125,-17.08984375
1771545896.2972813,30.76171875,15.625,20.01953125,17.08984375,32.71484375
1771545896.3011875,35.15625,19.53125,5.37109375,1.953125,30.2734375
1771545896.3050938,35.15625,36.1328125,10.25390625,33.69140625,62.98828125
1771545896.308125,27.83203125,41.9921875,13.671875,32.2265625,96.6796875
1771545896.3120313,9.765625,38.0859375,6.8359375,4.39453125,50.29296875
1771545896.3159375,17.08984375,31.25,10.25390625,10.25390625,5.37109375
1771545896.3198438,46.875,34.66796875,28.80859375,41.015625,60.05859375
1771545896.32375,59.5703125,40.0390625,30.76171875,52.24609375,79.1015625
1771545896.3276563,24.90234375,25.390625,3.41796875,17.578125,10.25390625
1771545896.3315625,1.46484375,18.06640625,-2.9296875,-18.5546875,22.94921875
1771545896.3354688,26.3671875,33.203125,17.08984375,9.765625,21.97265625
1771545896.339375,60.05859375,40.52734375,23.92578125,57.6171875,44.921875
1771545896.3432813,40.52734375,39.0625,9.27734375,35.15625,50.29296875
1771545896.3471875,6.8359375,39.55078125,16.11328125,5.37109375,16.11328125
1771545896.3510938,36.62109375,41.50390625,28.80859375,29.78515625,24.90234375
1771545896.367125,69.3359375,45.41015625,21.484375,56.15234375,37.59765625
1771545896.3710313,55.6640625,46.38671875,24.4140625,52.734375,66.89453125
1771545896.3749375,8.30078125,28.3203125,11.23046875,6.8359375,85.44921875
1771545896.3788438,6.34765625,26.3671875,7.32421875,-2.9296875,42.48046875
1771545896.38275,43.9453125,41.50390625,25.390625,45.41015625,-24.90234375
1771545896.3866563,53.22265625,25.390625,26.3671875,50.29296875,21.97265625
1771545896.3905625,41.015625,15.625,17.578125,10.25390625,34.1796875
1771545896.3944688,25.390625,27.34375,17.578125,-6.8359375,14.16015625
1771545896.398375,32.71484375,41.015625,19.53125,31.25,4.39453125
1771545896.4022813,66.40625,50.29296875,29.78515625,54.6875,10.25390625
1771545896.4061875,60.05859375,48.33984375,14.16015625,29.296875,55.17578125
1771545896.4100938,45.41015625,43.9453125,9.27734375,15.13671875,55.17578125
1771545896.412125,51.7578125,59.5703125,33.69140625,51.26953125,14.6484375
1771545896.4160314,52.24609375,54.6875,41.50390625,80.56640625,15.13671875
1771545896.4199376,41.50390625,38.0859375,30.2734375,45.8984375,-6.34765625
1771545896.4238439,12.6953125,35.15625,5.859375,-0.9765625,-32.2265625
1771545896.42775,29.296875,35.15625,4.8828125,6.34765625,15.625
1771545896.4316564,49.31640625,37.59765625,21.97265625,40.0390625,24.4140625
1771545896.4355626,40.52734375,38.57421875,28.80859375,47.36328125,44.921875
1771545896.4394689,17.578125,37.59765625,12.20703125,10.7421875,31.25
1771545896.443375,21.484375,33.69140625,5.859375,7.8125,-7.32421875
1771545896.4472814,50.78125,30.76171875,17.08984375,45.41015625,67.87109375
1771545896.4511876,56.640625,42.96875,24.90234375,43.9453125,45.41015625
1771545896.4550939,38.57421875,53.22265625,16.6015625,4.8828125,-21.97265625
1771545896.457125,32.71484375,39.55078125,10.25390625,8.7890625,24.4140625
1771545896.4610312,66.89453125,34.1796875,19.53125,40.0390625,41.9921875
1771545896.4649374,88.37890625,39.0625,30.2734375,46.38671875,61.03515625
1771545896.4688437,57.6171875,44.921875,20.99609375,31.25,77.1484375
1771545896.47275,22.4609375,44.43359375,11.71875,10.25390625,-10.25390625
1771545896.4766562,45.8984375,31.73828125,22.94921875,35.15625,-24.4140625
1771545896.4805624,76.66015625,29.296875,24.90234375,65.91796875,66.40625
1771545896.4844687,62.01171875,44.921875,19.04296875,46.875,40.52734375
1771545896.488375,41.50390625,47.36328125,16.6015625,15.13671875,9.27734375
1771545896.4922812,24.4140625,35.64453125,20.5078125,15.625,-9.765625
1771545896.4961874,32.2265625,39.0625,30.76171875,45.8984375,-12.20703125
1771545896.5000937,46.875,46.875,26.85546875,60.546875,32.71484375
1771545896.502125,27.83203125,42.96875,10.25390625,19.04296875,3.90625
1771545896.5060313,40.52734375,40.0390625,10.25390625,12.20703125,29.296875
1771545896.5099375,57.12890625,43.9453125,23.4375,53.22265625,51.26953125
1771545896.5138438,44.921875,43.9453125,24.90234375,56.640625,17.08984375
1771545896.51775,44.921875,38.0859375,11.71875,22.94921875,36.62109375
1771545896.5216563,39.55078125,36.1328125,7.32421875,0.48828125,11.71875
1771545896.5255625,53.22265625,40.0390625,23.4375,36.1328125,37.109375
1771545896.5294688,73.73046875,43.9453125,26.85546875,66.89453125,72.75390625
1771545896.533375,49.8046875,43.45703125,13.671875,49.8046875,30.76171875
1771545896.5372813,19.04296875,40.0390625,16.11328125,20.99609375,-26.85546875
1771545896.5411875,40.0390625,37.59765625,24.90234375,32.71484375,-36.62109375
1771545896.5450938,79.1015625,43.45703125,24.90234375,63.4765625,43.9453125
1771545896.547125,70.80078125,46.38671875,19.04296875,42.48046875,81.54296875
1771545896.5510314,44.43359375,43.45703125,11.23046875,0.9765625,59.08203125
1771545896.5549376,44.43359375,43.9453125,9.765625,21.484375,-17.08984375
1771545896.5588439,53.22265625,51.7578125,24.4140625,53.22265625,21.484375
1771545896.56275,55.17578125,44.43359375,24.90234375,40.0390625,93.75
1771545896.5666564,45.8984375,31.73828125,16.6015625,12.20703125,35.15625
1771545896.5705626,35.64453125,40.52734375,22.94921875,8.30078125,21.97265625
1771545896.5744689,52.734375,41.015625,25.87890625,33.69140625,15.13671875
1771545896.578375,63.96484375,36.62109375,26.3671875,51.7578125,31.25
1771545896.5822814,42.96875,35.15625,19.04296875,24.90234375,46.875
1771545896.5861876,32.2265625,29.296875,10.7421875,4.39453125,2.44140625
1771545896.5900939,67.87109375,31.73828125,24.90234375,39.0625,-1.46484375
1771545896.593125,106.4453125,49.8046875,45.41015625,75.68359375,25.87890625
1771545896.5970314,75.1953125,48.33984375,38.0859375,63.4765625,-14.16015625
1771545896.6009376,21.484375,27.34375,11.71875,25.390625,55.17578125
1771545896.6048439,38.0859375,24.90234375,9.27734375,26.85546875,89.35546875
1771545896.60875,64.94140625,31.73828125,25.390625,43.9453125,22.4609375
1771545896.6126564,52.734375,34.1796875,24.90234375,31.73828125,69.3359375
1771545896.6165626,26.3671875,32.2265625,10.7421875,1.953125,92.28515625
1771545896.6204689,33.69140625,31.73828125,18.06640625,12.20703125,67.3828125
1771545896.624375,75.1953125,37.109375,41.50390625,33.203125,63.4765625
1771545896.6282814,80.078125,43.9453125,41.9921875,41.50390625,15.13671875
1771545896.6321876,50.78125,42.48046875,24.90234375,37.109375,6.34765625
1771545896.6360939,45.8984375,29.296875,27.34375,25.390625,21.97265625
1771545896.653125,62.01171875,24.4140625,37.109375,44.43359375,34.1796875
1771545896.6570313,72.75390625,37.59765625,26.85546875,61.5234375,4.39453125
1771545896.6609375,66.89453125,38.57421875,15.625,40.0390625,15.13671875
1771545896.6648438,47.8515625,44.43359375,15.13671875,15.13671875,77.63671875
1771545896.66875,56.15234375,54.6875,19.53125,29.296875,41.50390625
1771545896.6726563,66.40625,48.33984375,27.83203125,51.26953125,20.5078125
1771545896.6765625,46.38671875,32.71484375,12.20703125,28.3203125,49.8046875
1771545896.6804688,29.78515625,33.203125,0.48828125,-0.9765625,59.08203125
1771545896.684375,45.41015625,40.52734375,22.4609375,15.625,41.50390625
1771545896.6882813,65.4296875,43.9453125,33.69140625,56.15234375,34.66796875
1771545896.6921875,60.546875,36.62109375,27.83203125,50.78125,28.3203125
1771545896.6960938,27.34375,30.2734375,15.13671875,3.41796875,34.1796875
1771545896.682125,24.4140625,35.15625,19.53125,9.27734375,44.921875
1771545896.6860313,69.3359375,36.1328125,26.85546875,49.8046875,-1.953125
1771545896.6899376,71.2890625,33.69140625,20.99609375,52.734375,34.66796875
1771545896.6938438,38.0859375,32.2265625,10.7421875,20.99609375,48.33984375
1771545896.69775,18.06640625,36.62109375,15.625,13.671875,42.96875
1771545896.7016563,37.109375,36.1328125,29.78515625,37.59765625,59.08203125
1771545896.7055626,62.01171875,37.109375,33.203125,49.31640625,49.8046875
1771545896.7094688,44.43359375,36.1328125,23.4375,30.76171875,41.50390625
1771545896.713375,23.4375,37.59765625,13.671875,9.765625,54.19921875
1771545896.7172813,50.78125,40.0390625,16.11328125,31.73828125,85.44921875
1771545896.7211876,73.2421875,36.1328125,18.5546875,52.734375,33.69140625
1771545896.7250938,42.96875,43.9453125,25.87890625,39.55078125,29.296875
1771545896.742125,28.3203125,42.48046875,24.4140625,11.23046875,15.13671875
1771545896.7460313,35.15625,22.4609375,15.625,10.25390625,38.57421875
1771545896.7499375,41.50390625,24.90234375,20.5078125,48.33984375,103.515625
1771545896.7538438,40.52734375,24.90234375,15.625,52.24609375,46.38671875
1771545896.75775,22.94921875,21.97265625,6.8359375,9.27734375,41.015625
1771545896.7616563,13.671875,19.04296875,6.34765625,10.25390625,27.34375
1771545896.7655625,39.55078125,21.97265625,23.92578125,48.33984375,33.203125
1771545896.7694688,69.3359375,47.8515625,42.48046875,65.91796875,61.5234375
1771545896.773375,26.85546875,41.015625,24.90234375,24.90234375,32.2265625
1771545896.7772813,0.0,17.08984375,2.9296875,-10.7421875,68.359375
1771545896.7811875,32.2265625,17.578125,14.6484375,34.1796875,54.6875
1771545896.7850938,57.12890625,30.76171875,26.85546875,57.12890625,56.640625
1771545896.787125,31.73828125,19.04296875,11.23046875,26.85546875,50.78125
1771545896.7910314,4.8828125,16.11328125,5.859375,-2.44140625,-7.32421875
1771545896.7949376,20.5078125,36.1328125,20.01953125,12.20703125,9.765625
1771545896.7988439,48.33984375,41.50390625,22.94921875,55.17578125,80.078125
1771545896.80275,37.59765625,37.59765625,4.39453125,43.9453125,97.65625
1771545896.8066564,16.6015625,31.73828125,0.0,7.32421875,52.24609375
1771545896.8105626,27.34375,34.1796875,21.97265625,25.87890625,41.9921875
1771545896.8144689,62.98828125,32.71484375,28.3203125,72.75390625,13.18359375
1771545896.818375,79.1015625,28.3203125,13.671875,74.21875,-5.37109375
1771545896.8222814,45.8984375,34.1796875,-5.37109375,21.484375,10.25390625
1771545896.8261876,18.06640625,41.9921875,6.34765625,-8.30078125,39.0625
1771545896.8300939,19.53125,46.875,33.69140625,22.94921875,70.3125
1771545896.833125,39.55078125,50.29296875,27.83203125,45.8984375,36.62109375
1771545896.8370314,38.0859375,45.41015625,7.8125,7.8125,43.9453125
1771545896.8409376,50.78125,39.55078125,4.8828125,-26.3671875,61.5234375
1771545896.8448439,70.80078125,41.9921875,17.578125,15.625,7.32421875
1771545896.84875,66.40625,52.734375,22.4609375,57.6171875,39.55078125
1771545896.8526564,47.36328125,61.03515625,6.8359375,24.90234375,60.05859375
1771545896.8565626,5.37109375,46.38671875,0.0,-6.34765625,6.34765625
1771545896.8604689,-25.87890625,30.76171875,19.04296875,26.85546875,17.08984375
1771545896.864375,-22.94921875,30.2734375,31.73828125,56.15234375,30.76171875
1771545896.8682814,-3.90625,29.78515625,20.99609375,41.9921875,-8.7890625
1771545896.8721876,-5.37109375,24.4140625,15.13671875,8.7890625,19.04296875
1771545896.8760939,14.6484375,31.73828125,24.90234375,20.99609375,73.2421875
1771545896.877125,57.6171875,37.109375,26.85546875,59.5703125,37.109375
1771545896.8810313,44.43359375,32.71484375,20.99609375,58.10546875,12.6953125
1771545896.8849375,-2.44140625,29.296875,12.6953125,21.484375,25.87890625
1771545896.8888438,10.7421875,24.90234375,18.06640625,12.6953125,20.5078125
1771545896.89275,42.48046875,21.484375,22.4609375,38.57421875,39.0625
1771545896.8966563,48.33984375,29.296875,25.87890625,74.21875,74.21875
1771545896.9005625,31.73828125,29.296875,15.625,48.33984375,5.859375
1771545896.9044688,5.859375,22.94921875,3.41796875,11.71875,-48.828125
1771545896.908375,46.38671875,30.2734375,16.6015625,39.0625,22.94921875
1771545896.9122813,81.54296875,40.0390625,33.69140625,68.359375,72.75390625
1771545896.9161875,56.640625,35.64453125,23.92578125,59.08203125,38.0859375
1771545896.9200938,27.83203125,22.4609375,-1.46484375,24.90234375,-12.6953125
1771545896.923125,50.29296875,24.90234375,10.25390625,28.80859375,0.9765625
1771545896.9270313,76.171875,32.2265625,41.015625,56.15234375,83.0078125
1771545896.9309375,55.6640625,30.2734375,39.55078125,56.15234375,76.171875
1771545896.9348438,10.25390625,21.484375,21.97265625,20.99609375,45.8984375
1771545896.93875,25.390625,20.99609375,36.62109375,13.671875,8.30078125
1771545896.9426563,62.01171875,25.390625,37.59765625,52.734375,17.578125
1771545896.9465625,69.82421875,35.15625,20.99609375,68.359375,57.12890625
1771545896.9504688,27.83203125,36.1328125,23.4375,33.203125,41.9921875
1771545896.954375,5.37109375,20.5078125,21.484375,0.48828125,16.6015625
1771545896.9582813,48.828125,18.06640625,21.484375,31.25,0.9765625
1771545896.9621875,60.05859375,18.5546875,25.87890625,52.734375,35.15625
1771545896.9660938,36.1328125,16.6015625,24.4140625,27.34375,25.390625
1771545896.967125,21.484375,21.484375,16.6015625,3.41796875,21.97265625
1771545896.9710312,51.26953125,22.94921875,24.90234375,19.53125,44.921875
1771545896.9749374,60.05859375,23.92578125,37.109375,56.640625,47.36328125
1771545896.9788437,41.50390625,28.80859375,25.87890625,41.50390625,36.1328125
1771545896.98275,31.73828125,25.390625,12.20703125,2.9296875,-26.3671875
1771545896.9866562,41.9921875,25.390625,23.4375,17.578125,-44.921875
1771545896.9905624,59.08203125,31.25,34.66796875,53.22265625,19.04296875
1771545896.9944687,52.734375,29.78515625,18.06640625,50.29296875,9.27734375
1771545896.998375,33.203125,20.99609375,22.94921875,11.23046875,10.7421875
1771545897.0022812,31.73828125,18.06640625,36.1328125,4.39453125,46.38671875
1771545897.0061874,60.05859375,25.390625,35.15625,39.0625,13.18359375
1771545897.0100937,75.68359375,30.76171875,40.0390625,62.5,49.31640625
1771545897.012125,48.33984375,26.3671875,30.2734375,37.109375,41.015625
1771545897.0160313,33.69140625,19.53125,22.94921875,14.6484375,43.9453125
1771545897.0199375,44.921875,18.06640625,34.1796875,37.59765625,63.4765625
1771545897.0238438,64.453125,23.92578125,38.0859375,56.15234375,36.62109375
1771545897.02775,41.50390625,23.4375,25.390625,42.48046875,-2.44140625
1771545897.0316563,9.27734375,20.01953125,21.484375,11.23046875,-1.953125
1771545897.0355625,32.71484375,26.85546875,31.25,25.390625,9.765625
1771545897.0394688,62.98828125,30.76171875,20.5078125,56.15234375,20.99609375
1771545897.043375,62.98828125,41.9921875,26.3671875,39.55078125,63.4765625
1771545897.0472813,35.64453125,47.36328125,23.92578125,16.6015625,86.9140625
1771545897.0511875,38.57421875,35.15625,25.390625,24.4140625,58.10546875
1771545897.0550938,64.453125,28.80859375,39.0625,55.17578125,29.78515625
1771545897.058125,59.5703125,30.2734375,42.96875,73.73046875,42.96875
1771545897.0620313,23.92578125,33.69140625,27.34375,36.62109375,22.4609375
1771545897.0659375,17.08984375,21.484375,9.765625,14.16015625,4.8828125
1771545897.0698438,40.0390625,19.53125,16.11328125,37.109375,30.76171875
1771545897.07375,44.921875,18.06640625,20.99609375,56.15234375,73.73046875
1771545897.0776563,14.16015625,16.11328125,6.8359375,28.80859375,75.68359375
1771545897.0815625,6.34765625,20.5078125,3.41796875,0.9765625,48.828125
1771545897.0854688,40.0390625,26.3671875,20.01953125,20.5078125,17.578125
1771545897.089375,57.6171875,30.76171875,28.3203125,53.7109375,7.8125
1771545897.0932813,41.015625,22.4609375,15.625,50.29296875,38.57421875
1771545897.0971875,28.3203125,13.671875,8.7890625,22.4609375,29.78515625
1771545897.1010938,49.31640625,25.390625,24.90234375,45.41015625,7.8125
1771545897.118125,65.4296875,45.8984375,25.87890625,62.5,13.671875
1771545897.1220312,51.7578125,48.828125,11.71875,36.1328125,54.19921875
1771545897.1259375,19.04296875,40.52734375,4.8828125,18.06640625,24.4140625
1771545897.1298437,15.13671875,41.50390625,7.8125,18.5546875,5.37109375
1771545897.13375,48.33984375,41.50390625,20.01953125,39.55078125,9.765625
1771545897.1376562,52.24609375,35.15625,21.484375,46.38671875,23.92578125
1771545897.1415625,15.13671875,31.73828125,6.8359375,8.30078125,64.94140625
1771545897.1454687,-6.8359375,23.4375,5.859375,-5.37109375,82.03125
1771545897.149375,25.390625,24.4140625,14.16015625,27.83203125,57.6171875
1771545897.1532812,53.7109375,33.69140625,24.4140625,54.19921875,6.34765625
1771545897.1571875,23.4375,39.55078125,20.5078125,33.203125,-11.23046875
1771545897.1610937,-0.48828125,32.71484375,8.30078125,8.7890625,20.5078125
1771545897.162125,21.97265625,26.85546875,13.671875,24.4140625,45.41015625
1771545897.1660314,50.78125,28.80859375,22.4609375,49.31640625,40.0390625
1771545897.1699376,31.73828125,25.390625,12.20703125,35.15625,23.4375
1771545897.1738439,-0.9765625,30.2734375,0.48828125,-5.859375,24.4140625
1771545897.17775,25.87890625,34.1796875,11.23046875,8.30078125,11.71875
1771545897.1816564,50.29296875,34.66796875,19.53125,39.55078125,34.66796875
1771545897.1855626,40.52734375,40.52734375,12.20703125,34.66796875,47.8515625
1771545897.1894689,17.578125,43.9453125,8.30078125,26.3671875,0.0
1771545897.193375,36.1328125,42.96875,16.11328125,26.85546875,53.7109375
1771545897.1972814,75.1953125,32.71484375,18.06640625,52.24609375,39.55078125
1771545897.2011876,68.84765625,34.1796875,16.6015625,67.3828125,63.4765625
1771545897.2050939,34.1796875,41.015625,0.9765625,33.69140625,41.9921875
1771545897.209125,15.625,33.203125,-6.34765625,15.625,26.3671875
1771545897.2130313,36.1328125,30.76171875,18.06640625,42.96875,109.375
1771545897.2169375,51.7578125,33.69140625,37.109375,69.82421875,94.7265625
1771545897.2208438,20.99609375,26.85546875,26.85546875,41.50390625,-12.20703125
1771545897.22475,5.37109375,20.01953125,10.7421875,4.8828125,-21.97265625
1771545897.2286563,35.15625,19.53125,12.6953125,12.20703125,45.41015625
1771545897.2325625,59.08203125,27.34375,21.484375,45.8984375,39.55078125
1771545897.2364688,39.55078125,34.66796875,16.6015625,51.7578125,68.84765625
1771545897.240375,11.23046875,34.66796875,1.46484375,20.99609375,70.80078125
1771545897.2442813,20.5078125,29.78515625,6.34765625,20.5078125,45.41015625
1771545897.2481875,39.0625,23.92578125,24.90234375,47.8515625,45.8984375
1771545897.2520938,35.15625,23.4375,16.11328125,49.31640625,91.30859375
1771545897.252125,20.99609375,27.34375,1.46484375,15.13671875,58.59375
1771545897.2560313,22.4609375,32.71484375,3.41796875,7.32421875,7.8125
1771545897.2599375,45.41015625,38.0859375,6.8359375,41.015625,41.9921875
1771545897.2638438,66.40625,47.8515625,4.8828125,52.734375,97.16796875
1771545897.26775,55.17578125,41.50390625,-6.34765625,23.4375,97.16796875
1771545897.2716563,37.59765625,26.85546875,-14.6484375,2.9296875,12.6953125
1771545897.2755625,54.19921875,38.57421875,5.859375,17.08984375,10.25390625
1771545897.2794688,77.1484375,38.0859375,16.6015625,49.31640625,17.08984375
1771545897.283375,45.8984375,26.85546875,3.41796875,40.0390625,32.2265625
1771545897.2872813,14.16015625,27.83203125,5.859375,-9.765625,44.921875
1771545897.2911875,13.18359375,24.90234375,10.25390625,-8.30078125,17.578125
1771545897.2950938,23.4375,28.3203125,1.953125,28.3203125,35.64453125
1771545897.297125,17.08984375,32.2265625,-4.8828125,17.08984375,21.97265625
1771545897.3010314,-24.90234375,30.76171875,-9.27734375,-7.32421875,43.9453125
1771545897.3049376,-28.80859375,30.76171875,5.37109375,16.6015625,61.5234375
1771545897.3088439,26.3671875,30.2734375,34.1796875,62.98828125,7.8125
1771545897.31275,43.45703125,38.0859375,35.64453125,70.3125,-29.296875
1771545897.3166564,2.9296875,34.1796875,9.765625,23.4375,-30.76171875
1771545897.3205626,14.6484375,33.69140625,9.27734375,11.23046875,20.5078125
1771545897.3244689,56.15234375,48.33984375,19.04296875,50.78125,40.0390625
1771545897.328375,54.6875,40.0390625,21.97265625,61.5234375,39.0625
1771545897.3322814,15.625,34.1796875,20.5078125,39.0625,90.8203125
1771545897.3361876,-12.20703125,34.66796875,6.8359375,19.53125,41.9921875
1771545897.3400939,25.87890625,34.1796875,20.5078125,27.34375,-40.0390625
1771545897.343125,43.45703125,40.0390625,34.66796875,46.875,6.8359375
1771545897.3470314,23.4375,47.36328125,22.4609375,23.4375,65.4296875
1771545897.3509376,13.18359375,41.50390625,9.27734375,-9.27734375,58.10546875
1771545897.3548439,32.2265625,41.015625,20.5078125,11.71875,28.3203125
1771545897.35875,60.546875,47.8515625,35.15625,42.48046875,27.34375
1771545897.3626564,42.48046875,43.9453125,18.5546875,33.203125,61.5234375
1771545897.3665626,8.30078125,39.0625,2.44140625,-2.44140625,52.734375
1771545897.3704689,15.625,40.0390625,14.16015625,-7.32421875,-10.7421875
1771545897.374375,39.55078125,45.8984375,32.2265625,24.4140625,60.546875
1771545897.3782814,53.7109375,44.921875,34.1796875,39.0625,93.26171875
1771545897.3821876,32.2265625,37.59765625,20.99609375,16.11328125,54.19921875
1771545897.3860939,17.08984375,46.875,18.06640625,9.765625,30.76171875
1771545897.387125,49.31640625,56.640625,35.15625,30.76171875,48.33984375
1771545897.3910313,70.80078125,43.45703125,35.15625,47.8515625,65.91796875
1771545897.3949375,38.0859375,40.0390625,12.6953125,25.390625,36.62109375
1771545897.3988438,13.18359375,38.57421875,6.34765625,-0.48828125,17.578125
1771545897.40275,29.296875,32.2265625,27.34375,18.06640625,4.8828125
1771545897.4066563,45.41015625,35.15625,37.59765625,30.2734375,-6.8359375
1771545897.4105625,23.92578125,40.52734375,23.92578125,15.625,1.46484375
1771545897.4144688,-1.46484375,45.41015625,21.97265625,-9.27734375,83.49609375
1771545897.418375,34.66796875,62.01171875,36.62109375,2.44140625,19.04296875
1771545897.4222813,59.08203125,60.546875,36.1328125,38.0859375,-49.31640625
1771545897.4261875,51.26953125,45.41015625,29.296875,46.875,1.46484375
1771545897.4300938,20.5078125,35.15625,20.01953125,-4.8828125,22.4609375
1771545897.433125,2.9296875,21.97265625,26.85546875,-27.83203125,13.671875
1771545897.4370313,38.0859375,30.2734375,49.8046875,10.25390625,40.0390625
1771545897.4409375,53.7109375,35.64453125,53.7109375,38.0859375,52.734375
1771545897.4448438,20.01953125,23.4375,25.87890625,-0.48828125,25.390625
1771545897.44875,0.48828125,23.92578125,15.13671875,-26.3671875,41.9921875
1771545897.4526563,35.15625,31.25,22.94921875,8.7890625,52.734375
1771545897.4565625,57.6171875,35.15625,27.83203125,37.109375,26.3671875
1771545897.4604688,26.3671875,36.1328125,34.66796875,11.71875,28.80859375
1771545897.464375,-0.48828125,37.109375,29.78515625,-15.13671875,62.01171875
1771545897.4682813,22.4609375,41.015625,28.80859375,11.71875,92.7734375
1771545897.4721875,67.3828125,41.9921875,33.203125,36.62109375,82.51953125
1771545897.4760938,56.640625,41.50390625,24.4140625,21.484375,41.50390625
1771545897.478125,5.37109375,37.109375,18.5546875,-5.859375,49.31640625
1771545897.4820313,17.578125,32.71484375,28.3203125,-3.90625,44.921875
1771545897.4859376,54.6875,39.0625,39.0625,30.76171875,48.828125
1771545897.4898438,50.78125,38.57421875,37.59765625,34.1796875,62.01171875
1771545897.49375,37.59765625,31.25,24.4140625,-4.39453125,34.1796875
1771545897.4976563,23.4375,25.87890625,16.11328125,-4.8828125,-1.953125
1771545897.5015626,34.66796875,29.296875,26.85546875,32.71484375,-15.625
1771545897.5054688,50.78125,38.57421875,39.55078125,41.015625,8.7890625
1771545897.509375,26.3671875,31.73828125,25.390625,23.4375,17.08984375
1771545897.5132813,-4.39453125,32.71484375,16.6015625,5.859375,8.7890625
1771545897.5171876,18.5546875,38.0859375,26.85546875,30.76171875,13.671875
1771545897.5210938,37.109375,36.1328125,31.73828125,51.26953125,29.78515625
1771545897.537125,19.53125,46.875,30.2734375,19.53125,18.5546875
1771545897.5410314,3.41796875,49.31640625,24.4140625,-15.625,-4.8828125
1771545897.5449376,27.34375,35.15625,37.109375,5.859375,41.50390625
1771545897.5488439,78.61328125,32.2265625,56.15234375,71.2890625,119.140625
1771545897.55275,83.0078125,31.73828125,34.66796875,72.265625,41.50390625
1771545897.5566564,48.828125,29.78515625,1.953125,11.23046875,10.7421875
1771545897.5605626,1.46484375,35.15625,16.11328125,-3.90625,34.1796875
1771545897.5644689,20.01953125,48.828125,34.1796875,40.52734375,30.76171875
1771545897.568375,61.03515625,52.24609375,13.671875,49.8046875,7.32421875
1771545897.5722814,41.50390625,54.6875,-0.9765625,16.11328125,0.48828125
1771545897.5761876,30.76171875,60.05859375,3.41796875,7.32421875,29.78515625
1771545897.5800939,40.52734375,63.96484375,11.23046875,56.15234375,36.62109375
1771545897.582125,39.55078125,63.96484375,13.18359375,84.9609375,2.44140625
1771545897.5860312,35.15625,64.453125,-1.953125,41.9921875,5.37109375
1771545897.5899374,28.3203125,64.453125,-9.765625,2.44140625,5.37109375
1771545897.5938437,47.36328125,67.3828125,-1.46484375,27.34375,6.8359375
1771545897.59775,72.265625,73.2421875,-2.9296875,57.6171875,69.82421875
1771545897.6016562,60.05859375,71.2890625,-16.6015625,43.9453125,61.5234375
1771545897.6055624,52.734375,72.75390625,-28.80859375,14.16015625,42.48046875
1771545897.6094687,74.21875,77.63671875,-20.99609375,23.92578125,21.97265625
1771545897.613375,126.953125,77.63671875,-19.53125,57.12890625,15.13671875
1771545897.6172812,142.578125,69.3359375,-23.4375,61.03515625,6.8359375
1771545897.6211874,87.40234375,62.5,-19.53125,39.0625,3.41796875
1771545897.6250937,61.03515625,55.17578125,-15.13671875,55.17578125,23.4375
1771545897.627125,94.7265625,55.17578125,-0.48828125,101.07421875,42.48046875
1771545897.6310313,109.375,59.08203125,2.9296875,104.4921875,95.703125
1771545897.6349375,76.66015625,52.24609375,-3.41796875,69.82421875,92.28515625
1771545897.6388438,72.265625,41.015625,-5.37109375,55.6640625,27.83203125
1771545897.64275,104.98046875,39.0625,2.9296875,81.0546875,12.6953125
1771545897.6466563,104.00390625,45.8984375,11.71875,104.98046875,34.1796875
1771545897.6505625,92.28515625,45.41015625,3.90625,82.51953125,26.85546875
1771545897.6544688,91.796875,36.62109375,-5.859375,53.22265625,19.04296875
1771545897.658375,109.86328125,33.69140625,-2.44140625,64.94140625,23.92578125
1771545897.6622813,125.0,40.0390625,14.6484375,94.7265625,22.4609375
1771545897.6661875,100.5859375,42.96875,13.671875,96.6796875,96.6796875
1771545897.6700938,88.8671875,29.78515625,0.48828125,59.5703125,58.10546875
1771545897.672125,128.90625,40.52734375,19.53125,72.75390625,41.50390625
1771545897.6760314,144.04296875,57.12890625,24.4140625,99.609375,88.37890625
1771545897.6799376,119.140625,44.43359375,12.20703125,78.61328125,63.4765625
1771545897.6838439,61.5234375,28.3203125,6.34765625,44.43359375,52.24609375
1771545897.68775,35.15625,22.94921875,1.46484375,44.43359375,22.94921875
1771545897.6916564,70.80078125,31.73828125,16.11328125,75.1953125,34.66796875
1771545897.6955626,93.26171875,32.2265625,21.484375,85.44921875,92.28515625
1771545897.6994689,50.29296875,25.390625,3.90625,57.12890625,15.625
1771545897.703375,28.3203125,29.296875,1.46484375,30.76171875,-3.41796875
1771545897.7072814,66.40625,38.57421875,14.6484375,56.15234375,35.15625
1771545897.7111876,83.984375,40.52734375,23.4375,75.68359375,37.59765625
1771545897.7150939,50.78125,36.1328125,13.671875,55.6640625,42.48046875
1771545897.718125,35.64453125,34.66796875,6.8359375,29.78515625,42.96875
1771545897.7220314,66.40625,34.1796875,18.5546875,53.22265625,36.62109375
1771545897.7259376,87.40234375,32.2265625,28.3203125,70.3125,15.625
1771545897.7298439,77.1484375,29.296875,22.4609375,44.43359375,-11.71875
1771545897.73375,50.78125,25.390625,12.6953125,29.296875,-20.5078125
1771545897.7376564,65.91796875,26.3671875,13.18359375,40.52734375,65.91796875
1771545897.7415626,98.14453125,41.015625,20.99609375,65.4296875,92.28515625
1771545897.7454689,92.28515625,41.50390625,27.34375,67.3828125,49.8046875
1771545897.749375,46.38671875,30.2734375,21.97265625,36.1328125,17.578125
1771545897.7532814,20.5078125,26.3671875,19.04296875,24.4140625,38.0859375
1771545897.7571876,55.6640625,23.92578125,25.390625,50.29296875,63.96484375
1771545897.7610939,69.3359375,19.04296875,27.83203125,64.453125,9.765625
1771545897.763125,31.73828125,26.85546875,16.11328125,41.9921875,19.04296875
1771545897.7670312,11.71875,30.76171875,6.8359375,25.87890625,18.06640625
1771545897.7709374,36.1328125,30.76171875,15.13671875,43.9453125,6.8359375
1771545897.7748437,68.359375,38.0859375,26.85546875,63.4765625,94.23828125
1771545897.77875,39.0625,39.55078125,22.94921875,53.7109375,75.68359375
1771545897.7826562,3.41796875,27.34375,6.34765625,17.578125,13.18359375
1771545897.7865624,34.66796875,18.5546875,2.9296875,15.625,18.5546875
1771545897.7904687,46.38671875,20.5078125,14.16015625,46.38671875,19.04296875
1771545897.794375,43.45703125,36.62109375,23.4375,38.0859375,-29.78515625
1771545897.7982812,26.3671875,43.45703125,15.13671875,0.0,4.8828125
1771545897.8021874,23.4375,29.78515625,18.5546875,2.9296875,43.45703125
1771545897.8060937,47.36328125,24.90234375,29.296875,35.64453125,62.5
1771545897.807125,48.828125,24.4140625,27.34375,33.69140625,90.33203125
1771545897.8110313,20.99609375,21.484375,14.6484375,18.5546875,50.29296875
1771545897.8149376,31.73828125,20.5078125,10.25390625,22.94921875,44.43359375
1771545897.8188438,68.84765625,23.4375,28.3203125,43.9453125,73.73046875
1771545897.82275,86.9140625,22.4609375,38.0859375,63.4765625,57.6171875
1771545897.8266563,59.5703125,29.296875,22.4609375,45.8984375,93.26171875
1771545897.8305626,19.04296875,32.2265625,9.765625,3.41796875,102.05078125
1771545897.8344688,20.99609375,30.2734375,23.92578125,9.765625,50.29296875
1771545897.838375,40.0390625,40.52734375,33.203125,46.875,9.27734375
1771545897.8422813,37.59765625,43.9453125,17.08984375,29.296875,15.625
1771545897.8461876,23.92578125,40.52734375,1.46484375,-5.859375,11.71875
1771545897.8500938,47.36328125,52.734375,3.41796875,5.37109375,-26.3671875
1771545897.867125,60.546875,61.03515625,7.8125,31.25,57.12890625
1771545897.8710313,37.109375,55.17578125,3.41796875,37.109375,75.1953125
1771545897.8749375,9.27734375,47.8515625,0.0,16.6015625,44.921875
1771545897.8788438,-1.46484375,43.9453125,0.9765625,3.90625,77.1484375
1771545897.88275,20.5078125,45.8984375,9.765625,28.3203125,7.32421875
1771545897.8866563,50.29296875,47.36328125,7.8125,41.015625,24.4140625
1771545897.8905625,24.90234375,42.48046875,-3.90625,18.5546875,64.94140625
1771545897.8944688,27.83203125,42.48046875,0.48828125,16.6015625,10.25390625
1771545897.898375,58.59375,49.8046875,14.16015625,37.59765625,20.5078125
1771545897.9022813,63.4765625,48.828125,6.8359375,49.8046875,50.78125
1771545897.9061875,32.71484375,47.8515625,-6.34765625,30.76171875,89.84375
1771545897.9100938,20.5078125,43.9453125,0.48828125,7.8125,67.3828125
1771545897.912125,47.36328125,35.15625,5.859375,32.2265625,21.484375
1771545897.9160314,62.98828125,39.0625,7.8125,72.265625,79.58984375
1771545897.9199376,49.8046875,44.921875,6.8359375,56.15234375,61.03515625
1771545897.9238439,13.671875,35.64453125,-2.9296875,6.34765625,13.671875
1771545897.92775,29.78515625,27.83203125,-7.8125,1.46484375,-18.5546875
1771545897.9316564,67.3828125,40.52734375,1.953125,34.66796875,-11.71875
1771545897.9355626,70.3125,53.7109375,15.625,45.41015625,60.05859375
1771545897.9394689,23.92578125,45.8984375,9.765625,6.8359375,63.4765625
1771545897.943375,16.11328125,31.73828125,1.953125,-1.953125,27.83203125
1771545897.9472814,52.24609375,39.55078125,8.30078125,34.66796875,-1.953125
1771545897.9511876,48.828125,53.22265625,17.08984375,48.33984375,30.76171875
1771545897.9550939,30.76171875,43.9453125,10.25390625,19.53125,44.921875
1771545897.957125,31.73828125,26.3671875,3.41796875,-3.41796875,41.50390625
1771545897.9610312,58.10546875,32.71484375,16.11328125,32.2265625,-0.9765625
1771545897.9649374,75.68359375,41.50390625,26.3671875,56.640625,28.80859375
1771545897.9688437,48.828125,34.66796875,13.671875,36.1328125,0.48828125
1771545897.97275,26.3671875,30.2734375,1.46484375,33.203125,-78.125
1771545897.9766562,52.734375,17.578125,12.20703125,67.87109375,12.6953125
1771545897.9805624,79.1015625,24.4140625,24.90234375,103.515625,80.078125
1771545897.9844687,44.43359375,32.71484375,13.671875,80.078125,6.8359375
1771545897.988375,14.6484375,22.4609375,-0.48828125,48.828125,-4.8828125
1771545897.9922812,56.640625,28.3203125,20.01953125,64.453125,26.85546875
1771545897.9961874,71.77734375,36.1328125,49.31640625,64.94140625,23.4375
1771545898.0000937,28.80859375,6.34765625,35.15625,5.37109375,75.1953125
1771545898.003125,-17.08984375,-3.90625,17.578125,-39.55078125,108.88671875
1771545898.0070312,-3.41796875,25.87890625,23.92578125,-15.13671875,39.0625
1771545898.0109375,26.3671875,14.6484375,48.33984375,-1.953125,25.390625
1771545898.0148437,18.06640625,21.97265625,51.26953125,-12.6953125,45.41015625
1771545898.01875,-33.203125,5.37109375,33.69140625,-49.8046875,36.1328125
1771545898.0226562,-91.30859375,-4.39453125,40.52734375,-96.6796875,15.625
1771545898.0265625,-84.47265625,55.6640625,49.8046875,-90.33203125,29.296875
1771545898.0304687,-76.171875,20.99609375,52.24609375,-78.125,52.24609375
1771545898.034375,-73.2421875,25.390625,98.14453125,-71.77734375,35.64453125
1771545898.0382812,-82.03125,56.640625,115.234375,-74.70703125,34.1796875
1771545898.0421875,-127.44140625,13.671875,49.31640625,-108.88671875,28.3203125
1771545898.0460937,-150.87890625,-7.32421875,11.23046875,-149.4140625,35.64453125
1771545898.048125,-169.921875,-1.953125,15.625,-165.52734375,22.94921875
1771545898.0520313,-176.7578125,0.9765625,29.78515625,-147.94921875,54.19921875
1771545898.0559375,-124.51171875,17.08984375,62.98828125,-114.74609375,102.05078125
1771545898.0598438,-84.9609375,-3.41796875,74.21875,-72.265625,85.44921875
1771545898.06375,-119.140625,-21.97265625,57.6171875,-75.1953125,63.96484375
1771545898.0676563,-190.91796875,-12.6953125,16.6015625,-151.3671875,75.68359375
1771545898.0715625,-183.59375,-10.7421875,20.5078125,-150.87890625,8.7890625
1771545898.0754688,-116.2109375,25.87890625,55.6640625,-93.75,-36.62109375
1771545898.079375,-100.09765625,21.97265625,53.22265625,-79.1015625,18.5546875
1771545898.0832813,-103.02734375,23.92578125,52.24609375,-82.03125,32.2265625
1771545898.0871875,-90.8203125,30.2734375,51.26953125,-81.0546875,14.6484375
1771545898.0910938,-70.3125,6.8359375,35.15625,-58.59375,45.41015625
1771545898.093125,-29.78515625,10.7421875,40.0390625,-17.578125,51.7578125
1771545898.0970314,-18.5546875,41.9921875,47.8515625,4.39453125,27.34375
1771545898.1009376,-42.48046875,61.5234375,28.80859375,-13.671875,11.71875
1771545898.1048439,-35.15625,62.01171875,16.11328125,-13.18359375,62.98828125
1771545898.10875,-2.9296875,59.08203125,22.94921875,29.78515625,79.1015625
1771545898.1126564,17.08984375,61.03515625,24.4140625,49.8046875,1.953125
1771545898.1165626,-3.41796875,50.29296875,25.87890625,19.53125,31.73828125
1771545898.1204689,-10.25390625,43.45703125,22.4609375,11.23046875,30.76171875
1771545898.124375,14.16015625,43.45703125,24.4140625,30.76171875,42.48046875
1771545898.1282814,25.390625,45.41015625,22.4609375,38.0859375,56.640625
1771545898.1321876,12.6953125,56.640625,18.06640625,27.83203125,14.16015625
1771545898.1360939,31.73828125,68.359375,41.50390625,44.921875,24.90234375
1771545898.137125,76.66015625,75.1953125,71.2890625,78.125,9.765625
1771545898.1410313,51.7578125,56.640625,40.52734375,62.01171875,59.08203125
1771545898.1449375,13.18359375,28.80859375,0.0,19.53125,59.5703125
1771545898.1488438,18.06640625,48.33984375,-5.37109375,-0.48828125,1.953125
1771545898.15275,42.96875,76.171875,8.30078125,25.87890625,-9.765625
1771545898.1566563,53.22265625,77.63671875,18.06640625,63.4765625,8.30078125
1771545898.1605625,44.43359375,64.453125,24.4140625,58.59375,-4.39453125
1771545898.1644688,11.23046875,45.8984375,15.625,9.765625,-21.484375
1771545898.168375,7.8125,56.640625,9.765625,9.765625,-2.9296875
1771545898.1722813,39.55078125,67.87109375,29.78515625,45.8984375,16.6015625
1771545898.1761875,52.734375,67.87109375,38.57421875,43.9453125,37.59765625
1771545898.1800938,34.1796875,62.5,31.73828125,33.69140625,15.625
1771545898.182125,39.0625,63.96484375,40.0390625,47.36328125,13.671875
1771545898.1860313,92.7734375,75.1953125,56.640625,95.21484375,46.38671875
1771545898.1899376,103.02734375,82.51953125,45.41015625,108.3984375,51.7578125
1771545898.1938438,28.3203125,54.19921875,10.25390625,33.203125,43.45703125
1771545898.19775,-3.41796875,38.0859375,6.34765625,-14.6484375,16.6015625
1771545898.2016563,40.0390625,42.48046875,20.99609375,20.01953125,2.9296875
1771545898.2055626,75.68359375,38.57421875,26.3671875,44.43359375,37.109375
1771545898.2094688,48.828125,55.6640625,31.25,29.78515625,76.171875
1771545898.213375,16.11328125,60.05859375,22.94921875,8.7890625,46.875
1771545898.2172813,39.55078125,52.734375,23.4375,28.80859375,22.4609375
1771545898.2211876,56.640625,52.734375,24.90234375,46.875,-9.27734375
1771545898.2250938,35.15625,59.08203125,23.4375,34.1796875,9.27734375
1771545898.257125,15.625,59.08203125,25.87890625,3.90625,76.171875
1771545898.2610312,37.109375,60.05859375,30.2734375,13.18359375,50.29296875
1771545898.2649374,67.87109375,58.59375,42.48046875,60.546875,30.76171875
1771545898.2688437,62.5,55.6640625,39.0625,76.171875,32.2265625
1771545898.27275,34.66796875,56.640625,13.18359375,48.33984375,2.9296875
1771545898.2766562,26.85546875,52.734375,9.765625,25.87890625,29.78515625
1771545898.2805624,51.26953125,46.875,17.08984375,40.52734375,66.89453125
1771545898.2844687,67.3828125,42.48046875,30.2734375,58.10546875,68.84765625
1771545898.288375,26.3671875,34.1796875,28.3203125,35.64453125,88.8671875
1771545898.2922812,-0.48828125,31.73828125,13.671875,2.9296875,61.03515625
1771545898.2961874,42.48046875,68.359375,28.80859375,33.69140625,-14.16015625
1771545898.3000937,52.734375,61.03515625,40.0390625,62.5,39.55078125
1771545898.287125,13.18359375,26.3671875,29.78515625,30.76171875,78.61328125
1771545898.2910314,4.39453125,28.3203125,13.18359375,-6.8359375,3.41796875
1771545898.2949376,19.53125,34.66796875,15.625,2.9296875,12.6953125
1771545898.2988439,54.6875,44.921875,39.0625,50.78125,25.390625
1771545898.30275,74.21875,81.54296875,47.36328125,61.5234375,32.2265625
1771545898.3066564,44.921875,66.40625,36.1328125,19.04296875,59.08203125
1771545898.3105626,33.203125,16.11328125,25.390625,3.41796875,4.39453125
1771545898.3144689,56.15234375,19.53125,25.390625,37.109375,30.2734375
1771545898.318375,61.03515625,21.484375,27.34375,56.15234375,29.296875
1771545898.3222814,32.2265625,27.34375,18.06640625,25.87890625,-0.9765625
1771545898.3261876,27.34375,41.50390625,14.16015625,21.484375,30.2734375
1771545898.3300939,81.54296875,62.98828125,37.59765625,69.82421875,20.5078125
1771545898.332125,113.28125,95.21484375,57.6171875,95.21484375,5.37109375
1771545898.3360312,57.12890625,67.3828125,26.3671875,40.52734375,-4.39453125
1771545898.3399374,-5.37109375,19.04296875,6.8359375,-20.5078125,18.06640625
1771545898.3438437,-1.953125,13.671875,2.44140625,-13.18359375,26.85546875
1771545898.34775,34.1796875,35.15625,4.39453125,21.97265625,34.66796875
1771545898.3516562,28.80859375,40.0390625,9.27734375,20.01953125,82.03125
1771545898.3555624,6.8359375,48.33984375,12.6953125,0.9765625,40.0390625
1771545898.3594687,30.2734375,52.734375,21.484375,20.01953125,-17.08984375
1771545898.363375,52.24609375,38.57421875,20.5078125,35.64453125,-3.41796875
1771545898.3672812,39.55078125,38.57421875,26.3671875,38.0859375,-8.7890625
1771545898.3711874,19.04296875,41.9921875,36.1328125,18.5546875,15.625
1771545898.3750937,28.3203125,48.828125,46.38671875,23.4375,23.92578125
1771545898.377125,53.7109375,43.9453125,50.29296875,65.4296875,15.625
1771545898.3810313,50.78125,37.109375,42.48046875,79.1015625,44.43359375
1771545898.3849375,19.04296875,35.15625,28.80859375,50.78125,1.46484375
1771545898.3888438,-3.90625,24.90234375,29.296875,20.5078125,3.90625
1771545898.39275,14.16015625,34.66796875,45.41015625,41.50390625,103.02734375
1771545898.3966563,40.52734375,50.78125,51.26953125,75.1953125,130.859375
1771545898.4005625,13.671875,52.24609375,40.0390625,45.41015625,94.7265625
1771545898.4044688,-11.71875,41.50390625,27.83203125,16.11328125,96.19140625
1771545898.408375,24.90234375,44.43359375,36.62109375,42.48046875,63.4765625
1771545898.4122813,67.87109375,53.22265625,52.24609375,68.359375,21.484375
1771545898.4161875,47.8515625,45.41015625,35.64453125,52.734375,3.90625
1771545898.4200938,11.71875,31.25,8.30078125,7.32421875,-43.9453125
1771545898.422125,39.0625,37.59765625,0.9765625,7.32421875,-23.92578125
1771545898.4260314,76.171875,48.828125,31.73828125,56.640625,66.89453125
1771545898.4299376,50.78125,39.55078125,51.7578125,45.41015625,50.78125
1771545898.4338439,12.20703125,22.4609375,33.203125,1.46484375,22.4609375
1771545898.43775,15.625,22.4609375,34.1796875,3.90625,105.46875
1771545898.4416564,43.45703125,30.76171875,38.57421875,35.15625,87.40234375
1771545898.4455626,59.5703125,28.3203125,42.96875,59.5703125,18.5546875
1771545898.4494689,26.85546875,25.390625,33.69140625,29.296875,62.98828125
1771545898.453375,10.7421875,32.2265625,27.83203125,6.34765625,67.87109375
1771545898.4572814,29.78515625,42.96875,36.62109375,38.57421875,47.36328125
1771545898.4611876,50.29296875,42.96875,36.1328125,60.05859375,91.30859375
1771545898.4650939,47.36328125,41.015625,30.2734375,45.41015625,88.37890625
1771545898.467125,22.4609375,44.921875,28.3203125,24.4140625,-14.16015625
1771545898.4710312,38.57421875,42.48046875,38.57421875,45.41015625,38.57421875
1771545898.4749374,74.21875,41.9921875,40.0390625,84.47265625,78.125
1771545898.4788437,69.3359375,56.15234375,34.1796875,83.0078125,42.48046875
1771545898.48275,44.43359375,52.734375,27.83203125,42.96875,55.6640625
1771545898.4866562,42.96875,31.73828125,22.4609375,34.1796875,0.0
1771545898.4905624,64.453125,29.78515625,29.296875,67.87109375,13.18359375
1771545898.4944687,67.87109375,31.25,31.73828125,71.77734375,61.03515625
1771545898.498375,21.484375,27.34375,27.34375,24.90234375,32.2265625
1771545898.5022812,8.30078125,31.25,33.203125,15.13671875,-32.2265625
1771545898.5061874,50.78125,32.2265625,44.921875,49.8046875,-15.13671875
1771545898.5100937,56.640625,31.73828125,38.57421875,62.5,35.15625
1771545898.512125,18.06640625,33.69140625,30.76171875,40.0390625,2.44140625
1771545898.5160313,15.13671875,44.921875,30.76171875,13.18359375,20.5078125
1771545898.5199375,50.29296875,37.59765625,40.52734375,43.45703125,21.484375
1771545898.5238438,70.80078125,12.6953125,44.43359375,66.89453125,-11.23046875
1771545898.52775,42.48046875,41.9921875,23.92578125,41.9921875,10.25390625
1771545898.5316563,22.94921875,62.98828125,20.01953125,22.94921875,-1.46484375
1771545898.5355625,45.41015625,56.15234375,35.64453125,42.48046875,54.19921875
1771545898.5394688,63.4765625,51.26953125,39.55078125,65.4296875,47.36328125
1771545898.543375,51.26953125,53.22265625,29.78515625,50.78125,-12.20703125
1771545898.5472813,24.4140625,42.48046875,21.484375,19.53125,27.83203125
1771545898.5511875,38.0859375,39.0625,39.55078125,31.73828125,63.96484375
1771545898.5550938,64.453125,50.29296875,58.59375,64.94140625,36.62109375
1771545898.573125,46.38671875,41.9921875,39.55078125,57.12890625,30.76171875
1771545898.5770311,1.46484375,25.390625,12.6953125,15.13671875,-9.27734375
1771545898.5809374,2.44140625,22.94921875,12.20703125,-1.953125,0.9765625
1771545898.5848436,42.48046875,48.828125,43.9453125,44.43359375,65.4296875
1771545898.58875,61.03515625,55.6640625,52.24609375,67.3828125,36.1328125
1771545898.5926561,31.73828125,45.41015625,14.6484375,27.34375,16.11328125
1771545898.5965624,6.34765625,46.875,0.0,-1.46484375,15.13671875
1771545898.6004686,28.80859375,50.29296875,20.5078125,11.23046875,-14.16015625
1771545898.604375,46.875,36.1328125,25.390625,33.69140625,2.9296875
1771545898.6082811,32.2265625,26.85546875,20.01953125,33.69140625,23.4375
1771545898.6121874,4.39453125,41.50390625,17.578125,10.25390625,60.546875
1771545898.6160936,13.671875,36.1328125,20.01953125,8.30078125,71.77734375
1771545898.603125,38.0859375,34.66796875,31.25,40.0390625,46.38671875
1771545898.6070313,40.0390625,43.9453125,35.64453125,53.22265625,33.203125
1771545898.6109376,16.6015625,34.66796875,29.78515625,25.87890625,41.50390625
1771545898.6148438,27.34375,40.52734375,31.25,17.578125,86.9140625
1771545898.61875,47.36328125,50.78125,39.0625,45.8984375,83.49609375
1771545898.6226563,43.9453125,44.921875,38.57421875,53.7109375,45.41015625
1771545898.6265626,14.16015625,34.1796875,16.11328125,26.3671875,-0.48828125
1771545898.6304688,0.0,27.34375,13.18359375,1.953125,-42.96875
1771545898.634375,33.69140625,37.109375,32.2265625,25.87890625,-32.2265625
1771545898.6382813,62.01171875,41.9921875,39.55078125,58.59375,18.5546875
1771545898.6421876,36.62109375,34.66796875,32.71484375,32.2265625,20.01953125
1771545898.6460938,14.6484375,38.57421875,24.4140625,8.30078125,1.46484375
1771545898.662125,31.73828125,48.33984375,31.73828125,31.25,41.50390625
1771545898.6660314,48.33984375,47.36328125,35.64453125,57.6171875,62.01171875
1771545898.6699376,51.26953125,43.9453125,31.25,43.9453125,77.63671875
1771545898.6738439,25.390625,45.8984375,19.53125,7.8125,38.0859375
1771545898.67775,30.76171875,50.29296875,11.23046875,14.16015625,24.4140625
1771545898.6816564,62.98828125,43.45703125,10.25390625,44.43359375,77.1484375
1771545898.6855626,66.40625,49.8046875,28.3203125,58.10546875,66.40625
1771545898.6894689,29.78515625,52.24609375,34.1796875,21.484375,19.04296875
1771545898.693375,20.5078125,28.3203125,22.94921875,-1.953125,40.0390625
1771545898.6972814,45.8984375,27.34375,30.76171875,28.80859375,56.640625
1771545898.7011876,57.6171875,39.0625,42.48046875,45.41015625,25.87890625
1771545898.7050939,36.1328125,40.52734375,25.390625,22.94921875,-0.9765625
1771545898.707125,20.5078125,47.8515625,11.23046875,6.8359375,14.6484375
1771545898.7110312,51.26953125,54.6875,24.90234375,32.2265625,9.765625
1771545898.7149374,70.3125,54.6875,30.76171875,52.734375,2.44140625
1771545898.7188437,34.1796875,48.828125,24.90234375,25.390625,46.38671875
1771545898.72275,0.48828125,39.0625,18.06640625,-3.41796875,93.75
1771545898.7266562,23.4375,43.45703125,17.578125,15.625,53.7109375
1771545898.7305624,50.78125,53.7109375,25.390625,46.875,8.7890625
1771545898.7344687,37.59765625,50.29296875,23.92578125,44.43359375,38.57421875
1771545898.738375,21.97265625,50.78125,9.765625,20.5078125,34.1796875
1771545898.7422812,23.92578125,38.57421875,12.20703125,15.625,49.31640625
1771545898.7461874,33.203125,36.62109375,35.64453125,40.0390625,73.2421875
1771545898.7500937,34.1796875,36.62109375,41.015625,49.31640625,55.17578125
1771545898.753125,12.6953125,32.2265625,21.97265625,8.30078125,20.5078125
1771545898.7570312,17.578125,44.43359375,20.99609375,-1.46484375,7.32421875
1771545898.7609375,46.38671875,42.96875,44.43359375,38.0859375,46.38671875
1771545898.7648437,48.828125,40.0390625,45.41015625,50.78125,37.59765625
1771545898.76875,25.390625,36.62109375,19.04296875,15.625,-5.37109375
1771545898.7726562,-0.9765625,19.04296875,8.30078125,-23.4375,27.34375
1771545898.7765625,17.08984375,21.97265625,24.90234375,-1.46484375,87.890625
1771545898.7804687,51.26953125,34.66796875,34.66796875,35.64453125,115.234375
1771545898.784375,39.55078125,44.921875,26.85546875,32.2265625,92.7734375
1771545898.7882812,26.3671875,37.109375,31.73828125,9.765625,70.80078125
1771545898.7921875,40.52734375,33.203125,30.2734375,11.23046875,37.59765625
1771545898.7960937,46.38671875,39.55078125,26.3671875,28.3203125,49.8046875
1771545898.797125,30.2734375,34.66796875,20.99609375,22.4609375,19.04296875
1771545898.8010314,8.7890625,35.64453125,14.16015625,-3.41796875,-39.55078125
1771545898.8049376,28.80859375,51.26953125,27.34375,18.06640625,0.9765625
1771545898.8088439,56.640625,47.8515625,37.109375,60.546875,26.85546875
1771545898.81275,44.43359375,46.875,23.4375,56.15234375,93.75
1771545898.8166564,1.46484375,38.57421875,10.25390625,12.6953125,57.6171875
1771545898.8205626,-9.765625,26.85546875,15.625,-4.39453125,17.08984375
1771545898.8244689,27.34375,36.62109375,31.25,29.78515625,26.85546875
1771545898.828375,51.7578125,41.50390625,38.0859375,41.9921875,1.46484375
1771545898.8322814,30.2734375,41.9921875,36.62109375,18.06640625,-12.20703125
1771545898.8361876,16.6015625,44.43359375,33.203125,6.8359375,10.25390625
1771545898.8400939,28.3203125,41.9921875,38.0859375,21.97265625,0.0
1771545898.842125,42.96875,40.52734375,39.55078125,37.109375,30.76171875
1771545898.8460312,46.38671875,56.15234375,31.25,48.33984375,18.06640625
1771545898.8499374,20.01953125,62.5,23.92578125,23.4375,-11.71875
1771545898.8538437,27.34375,46.38671875,26.3671875,14.6484375,18.5546875
1771545898.85775,47.8515625,40.52734375,39.0625,51.26953125,26.3671875
1771545898.8616562,33.69140625,39.0625,38.57421875,52.24609375,59.5703125
1771545898.8655624,8.7890625,31.73828125,24.90234375,12.20703125,65.91796875
1771545898.8694687,13.18359375,27.83203125,18.06640625,-1.953125,32.71484375
1771545898.873375,28.80859375,37.59765625,29.78515625,33.69140625,38.0859375
1771545898.8772812,35.64453125,50.29296875,46.875,56.15234375,44.43359375
1771545898.8811874,21.97265625,43.9453125,37.59765625,36.1328125,19.53125
1771545898.8850937,12.20703125,39.0625,24.90234375,13.18359375,14.16015625
1771545898.902125,28.80859375,38.57421875,33.203125,19.53125,44.43359375
1771545898.9060311,44.921875,43.45703125,40.0390625,47.8515625,94.23828125
1771545898.9099374,36.1328125,51.26953125,25.87890625,17.578125,73.2421875
1771545898.9138436,14.16015625,46.875,20.01953125,-14.16015625,30.2734375
1771545898.91775,33.69140625,42.48046875,34.1796875,15.13671875,48.33984375
1771545898.9216561,50.78125,40.52734375,34.1796875,42.48046875,54.19921875
1771545898.9255624,41.015625,39.55078125,32.2265625,38.57421875,50.29296875
1771545898.9294686,14.6484375,38.57421875,25.390625,3.41796875,23.4375
1771545898.933375,6.8359375,38.57421875,27.34375,-4.8828125,20.5078125
1771545898.9372811,36.1328125,36.1328125,38.0859375,23.4375,22.4609375
1771545898.9411874,28.80859375,36.1328125,30.76171875,37.59765625,-5.859375
1771545898.9450936,-18.06640625,35.15625,14.16015625,10.25390625,3.41796875
1771545898.932125,-13.18359375,30.2734375,12.20703125,-8.30078125,17.08984375
1771545898.9360313,30.2734375,47.8515625,26.85546875,35.64453125,13.18359375
1771545898.9399376,43.9453125,60.05859375,31.73828125,58.59375,8.7890625
1771545898.9438438,11.23046875,38.0859375,21.97265625,18.06640625,-18.5546875
1771545898.94775,2.9296875,23.92578125,24.90234375,1.953125,-11.23046875
1771545898.9516563,36.62109375,30.76171875,38.0859375,40.0390625,34.66796875
1771545898.9555626,56.15234375,48.33984375,47.8515625,65.91796875,59.08203125
1771545898.9594688,34.1796875,46.875,39.55078125,33.203125,54.6875
1771545898.963375,0.0,42.48046875,23.4375,4.39453125,52.24609375
1771545898.9672813,26.85546875,40.0390625,25.390625,36.1328125,32.71484375
1771545898.9711876,55.6640625,32.71484375,28.80859375,49.8046875,18.5546875
1771545898.9750938,41.015625,35.64453125,30.2734375,31.25,43.9453125
1771545898.992125,16.6015625,41.50390625,27.34375,5.859375,79.1015625
1771545898.9960313,30.2734375,35.64453125,30.2734375,0.48828125,44.43359375
1771545898.9999375,62.98828125,35.15625,39.0625,19.53125,-0.9765625
1771545899.0038438,74.70703125,52.734375,28.80859375,33.69140625,10.7421875
1771545899.00775,55.6640625,54.19921875,25.390625,19.04296875,32.71484375
1771545899.0116563,25.390625,37.109375,24.90234375,3.90625,92.28515625
1771545899.0155625,26.85546875,31.25,27.34375,30.2734375,81.54296875
1771545899.0194688,37.59765625,37.109375,38.0859375,49.31640625,68.84765625
1771545899.023375,10.25390625,36.62109375,27.34375,32.2265625,39.55078125
1771545899.0272813,-12.20703125,37.109375,26.3671875,15.13671875,13.18359375
1771545899.0311875,21.484375,33.69140625,40.52734375,37.109375,20.5078125
1771545899.0350938,53.22265625,41.015625,41.9921875,55.17578125,-6.8359375
1771545899.037125,37.109375,54.19921875,36.1328125,45.41015625,19.53125
1771545899.0410314,19.04296875,49.8046875,27.34375,26.3671875,8.7890625
1771545899.0449376,29.78515625,43.45703125,24.90234375,14.6484375,0.9765625
1771545899.0488439,47.8515625,29.78515625,39.55078125,37.109375,15.13671875
1771545899.05275,39.55078125,36.1328125,50.29296875,49.31640625,80.078125
1771545899.0566564,24.4140625,30.76171875,34.66796875,22.94921875,40.0390625
1771545899.0605626,43.45703125,25.87890625,34.1796875,33.69140625,-36.1328125
1771545899.0644689,56.15234375,53.22265625,59.08203125,55.6640625,11.23046875
1771545899.068375,41.015625,56.640625,58.59375,36.1328125,0.0
1771545899.0722814,4.39453125,40.52734375,26.3671875,-9.765625,20.99609375
1771545899.0761876,-4.39453125,35.15625,29.78515625,-23.92578125,30.2734375
1771545899.0800939,15.625,41.015625,40.52734375,-1.46484375,24.90234375
1771545899.082125,15.625,41.9921875,25.390625,-4.39453125,30.2734375
1771545899.0860312,-17.08984375,51.7578125,5.859375,-45.41015625,-42.48046875
1771545899.0899374,-41.50390625,64.94140625,7.32421875,-72.75390625,19.53125
1771545899.0938437,-17.578125,86.9140625,29.296875,-38.0859375,101.07421875
1771545899.09775,8.30078125,93.75,24.90234375,-9.765625,132.8125
1771545899.1016562,-10.7421875,87.890625,11.71875,-40.52734375,124.0234375
1771545899.1055624,-47.36328125,66.89453125,1.46484375,-76.66015625,33.69140625
1771545899.1094687,-36.62109375,50.78125,6.8359375,-64.94140625,-12.6953125
1771545899.113375,-7.32421875,44.921875,17.578125,-25.390625,17.578125
1771545899.1172812,-11.71875,40.0390625,22.4609375,-7.8125,123.046875
1771545899.1211874,-29.78515625,37.59765625,14.6484375,-22.4609375,105.95703125
1771545899.1250937,-22.4609375,40.52734375,8.30078125,-28.80859375,23.92578125
1771545899.128125,8.30078125,45.41015625,22.94921875,0.0,3.90625
1771545899.1320312,20.99609375,54.19921875,33.203125,29.78515625,48.33984375
1771545899.1359375,-9.765625,54.19921875,14.6484375,0.0,57.12890625
1771545899.1398437,-15.13671875,41.9921875,-2.44140625,-23.4375,72.265625
1771545899.14375,23.92578125,39.0625,17.08984375,8.7890625,95.703125
1771545899.1476562,51.7578125,44.921875,32.71484375,42.96875,99.12109375
1771545899.1515625,32.71484375,54.6875,16.11328125,26.85546875,74.21875
1771545899.1554687,3.90625,62.5,0.48828125,-4.8828125,-8.7890625
1771545899.159375,26.3671875,56.640625,-0.48828125,9.765625,-14.6484375
1771545899.1632812,48.828125,56.640625,14.16015625,36.1328125,35.64453125
1771545899.1671875,44.43359375,64.94140625,25.390625,33.203125,74.21875
1771545899.1710937,9.27734375,51.7578125,7.32421875,-1.46484375,43.45703125
1771545899.173125,5.859375,41.50390625,4.39453125,-11.23046875,18.06640625
1771545899.1770313,50.78125,44.921875,22.94921875,32.2265625,23.92578125
1771545899.1809375,60.05859375,49.8046875,28.3203125,51.7578125,-0.48828125
1771545899.1848438,27.34375,47.8515625,7.8125,16.11328125,-0.48828125
1771545899.18875,45.41015625,53.7109375,7.8125,20.01953125,-16.6015625
1771545899.1926563,88.37890625,48.828125,37.109375,65.4296875,39.0625
1771545899.1965625,63.4765625,35.64453125,44.921875,63.4765625,65.4296875
1771545899.2004688,14.6484375,27.34375,20.99609375,1.46484375,13.671875
1771545899.204375,4.39453125,19.53125,12.20703125,-24.90234375,16.11328125
1771545899.2082813,32.2265625,20.01953125,37.109375,27.83203125,46.875
1771545899.2121875,57.6171875,19.53125,54.6875,67.3828125,23.4375
1771545899.2160938,49.31640625,24.4140625,40.0390625,50.78125,26.85546875
1771545899.217125,26.3671875,16.11328125,36.1328125,32.71484375,8.7890625
1771545899.2210312,41.50390625,17.08984375,44.921875,48.828125,18.06640625
1771545899.2249374,86.42578125,26.3671875,39.55078125,88.37890625,-9.27734375
1771545899.2288437,85.44921875,21.97265625,33.203125,83.984375,-38.57421875
1771545899.23275,48.33984375,23.4375,28.3203125,41.015625,0.0
1771545899.2366562,51.7578125,32.2265625,33.69140625,47.8515625,4.8828125
1771545899.2405624,77.1484375,32.2265625,42.48046875,86.9140625,56.640625
1771545899.2444687,81.54296875,23.92578125,37.59765625,97.16796875,61.5234375
1771545899.248375,55.17578125,17.08984375,33.203125,60.05859375,4.8828125
1771545899.2522812,49.31640625,14.6484375,33.69140625,40.52734375,45.41015625
1771545899.2561874,82.03125,15.625,42.96875,77.63671875,75.68359375
1771545899.2600937,87.40234375,22.94921875,54.19921875,94.7265625,51.26953125
1771545899.262125,61.03515625,31.73828125,38.0859375,61.5234375,46.38671875
1771545899.2660313,42.48046875,30.2734375,17.578125,37.59765625,28.3203125
1771545899.2699375,66.40625,29.296875,28.3203125,62.5,27.83203125
1771545899.2738438,102.5390625,45.41015625,44.921875,101.07421875,31.73828125
1771545899.27775,81.54296875,45.8984375,34.1796875,72.75390625,41.015625
1771545899.2816563,31.73828125,27.34375,27.83203125,32.71484375,24.4140625
1771545899.2855625,28.80859375,14.16015625,31.73828125,34.1796875,-9.27734375
1771545899.2894688,57.6171875,20.5078125,37.109375,58.10546875,-11.23046875
1771545899.293375,44.921875,32.71484375,38.0859375,68.359375,-11.23046875
1771545899.2972813,24.4140625,31.73828125,32.71484375,33.69140625,9.765625
1771545899.3011875,47.8515625,35.64453125,39.55078125,34.66796875,13.18359375
1771545899.3050938,62.98828125,30.2734375,47.36328125,70.3125,18.5546875
1771545899.307125,59.08203125,31.25,47.8515625,77.1484375,59.08203125
1771545899.3110313,41.50390625,41.9921875,20.5078125,53.7109375,23.92578125
1771545899.3149376,22.4609375,41.50390625,11.23046875,32.71484375,3.41796875
1771545899.3188438,45.8984375,37.59765625,39.0625,50.29296875,56.15234375
1771545899.32275,68.84765625,21.484375,44.43359375,78.125,53.22265625
1771545899.3266563,41.50390625,23.4375,24.90234375,50.29296875,24.4140625
1771545899.3305626,17.08984375,41.9921875,14.16015625,10.7421875,32.2265625
1771545899.3344688,39.55078125,44.921875,22.94921875,36.62109375,50.29296875
1771545899.338375,56.15234375,44.921875,38.0859375,65.4296875,46.875
1771545899.3422813,37.109375,39.0625,32.71484375,44.921875,40.0390625
1771545899.3461876,17.08984375,38.0859375,16.11328125,13.671875,35.64453125
1771545899.3500938,41.50390625,58.10546875,33.69140625,27.34375,32.2265625
1771545899.367125,71.2890625,62.5,52.24609375,67.3828125,22.94921875
1771545899.3710313,59.5703125,40.52734375,35.15625,61.03515625,15.625
1771545899.3749375,28.80859375,29.296875,15.13671875,27.83203125,40.0390625
1771545899.3788438,23.4375,32.71484375,23.4375,21.484375,62.01171875
1771545899.38275,44.921875,28.3203125,34.66796875,43.9453125,68.359375
1771545899.3866563,50.78125,26.3671875,32.2265625,53.22265625,60.546875
1771545899.3905625,22.94921875,23.4375,21.484375,28.3203125,56.15234375
1771545899.3944688,7.8125,26.85546875,17.578125,10.25390625,1.953125
1771545899.398375,27.83203125,33.203125,26.85546875,23.92578125,33.69140625
1771545899.4022813,43.9453125,32.2265625,33.203125,50.78125,82.51953125
1771545899.4061875,33.69140625,31.73828125,27.34375,50.78125,79.1015625
1771545899.4100938,15.13671875,30.76171875,16.11328125,18.06640625,38.57421875
1771545899.413125,21.484375,33.203125,20.99609375,22.4609375,20.01953125
1771545899.4170313,56.15234375,35.15625,27.83203125,64.94140625,60.05859375
1771545899.4209375,58.59375,43.45703125,24.4140625,65.4296875,48.33984375
1771545899.4248438,21.484375,37.109375,15.625,17.578125,35.15625
1771545899.42875,14.6484375,26.3671875,8.30078125,11.71875,28.3203125
1771545899.4326563,47.8515625,35.64453125,17.578125,62.5,48.33984375
1771545899.4365625,56.640625,36.1328125,26.3671875,71.2890625,70.80078125
1771545899.4404688,13.18359375,35.15625,15.625,20.99609375,9.765625
1771545899.444375,13.18359375,22.4609375,12.20703125,5.37109375,0.9765625
1771545899.4482813,54.6875,20.5078125,21.484375,32.2265625,48.828125
1771545899.4521875,54.6875,37.109375,30.76171875,51.26953125,62.01171875
1771545899.4560938,24.90234375,31.25,21.97265625,29.78515625,52.734375
1771545899.457125,7.8125,24.90234375,5.859375,5.859375,29.296875
