timestamps,TP9,AF7,AF8,TP10,Right AUX
1771543468.855125,104.98046875,5.859375,95.21484375,75.68359375,70.80078125
1771543468.8590312,46.38671875,5.859375,72.265625,28.80859375,37.59765625
1771543468.8629375,-4.8828125,1.953125,46.875,-15.625,31.25
1771543468.8668437,39.0625,7.8125,70.3125,12.20703125,47.8515625
1771543468.87075,95.703125,13.671875,91.796875,71.77734375,61.03515625
1771543468.8746562,68.84765625,6.8359375,60.546875,42.96875,28.80859375
1771543468.8785625,-3.90625,-4.8828125,26.85546875,-24.90234375,16.6015625
1771543468.8824687,9.765625,0.0,57.12890625,-7.8125,18.5546875
1771543468.886375,82.51953125,7.8125,97.65625,65.91796875,49.8046875
1771543468.8902812,79.58984375,6.8359375,82.03125,74.70703125,62.01171875
1771543468.8941875,5.37109375,0.9765625,53.7109375,0.48828125,26.3671875
1771543468.8980937,-2.44140625,3.90625,63.4765625,-9.765625,24.90234375
1771543468.914125,63.4765625,13.18359375,85.9375,52.24609375,41.9921875
1771543468.9180312,92.28515625,7.8125,83.49609375,70.3125,3.41796875
1771543468.9219375,30.2734375,-0.9765625,61.5234375,8.30078125,-17.578125
1771543468.9258437,-12.6953125,-4.39453125,68.84765625,-29.296875,-7.8125
1771543468.92975,47.8515625,1.46484375,84.47265625,26.3671875,-39.0625
1771543468.9336562,96.6796875,0.48828125,77.1484375,75.1953125,3.90625
1771543468.9375625,41.50390625,-5.37109375,55.6640625,25.87890625,1.46484375
1771543468.9414687,-16.11328125,0.0,61.5234375,-31.25,-7.32421875
1771543468.945375,21.484375,3.90625,77.63671875,9.765625,59.08203125
1771543468.9492812,98.6328125,10.25390625,91.30859375,73.73046875,91.30859375
1771543468.9531875,61.03515625,11.23046875,94.7265625,30.2734375,102.05078125
1771543468.9570937,-24.4140625,2.9296875,68.84765625,-36.1328125,2.44140625
1771543468.959125,4.8828125,3.41796875,61.5234375,2.44140625,-3.90625
1771543468.9630313,76.171875,6.34765625,95.21484375,58.59375,7.32421875
1771543468.9669375,85.44921875,10.25390625,101.5625,65.4296875,24.4140625
1771543468.9708438,11.71875,5.859375,67.3828125,-0.9765625,84.9609375
1771543468.97475,-10.25390625,-3.41796875,53.7109375,-18.5546875,38.57421875
1771543468.9786563,53.22265625,-2.44140625,70.3125,59.08203125,22.4609375
1771543468.9825625,92.28515625,2.9296875,87.40234375,92.28515625,14.6484375
1771543468.9864688,31.73828125,-0.48828125,87.890625,21.484375,2.9296875
1771543468.990375,-20.5078125,-4.8828125,72.75390625,-22.4609375,58.59375
1771543468.9942813,24.4140625,-3.41796875,59.5703125,24.90234375,79.58984375
1771543468.9981875,75.1953125,4.39453125,97.65625,77.63671875,0.9765625
1771543469.0020938,43.45703125,8.7890625,95.21484375,48.828125,-21.484375
1771543469.005125,-21.484375,1.46484375,67.3828125,-8.7890625,28.80859375
1771543469.0090313,14.6484375,7.8125,83.0078125,17.08984375,81.54296875
1771543469.0129375,78.61328125,19.53125,100.09765625,59.08203125,91.796875
1771543469.0168438,58.59375,9.765625,88.37890625,43.45703125,48.33984375
1771543469.02075,-15.625,-4.39453125,68.84765625,-18.5546875,36.1328125
1771543469.0246563,-16.11328125,-6.34765625,66.40625,-12.20703125,83.984375
1771543469.0285625,47.8515625,-0.48828125,81.54296875,53.7109375,78.125
1771543469.0324688,66.89453125,2.9296875,91.30859375,67.87109375,70.3125
1771543469.036375,10.7421875,-4.39453125,56.15234375,-1.953125,41.9921875
1771543469.0402813,-30.76171875,-9.27734375,56.15234375,-43.9453125,35.64453125
1771543469.0441875,20.01953125,0.48828125,97.65625,15.625,39.0625
1771543469.0480938,53.22265625,6.8359375,102.05078125,58.59375,58.10546875
1771543469.050125,-10.25390625,-1.46484375,92.7734375,-3.90625,71.77734375
1771543469.0540311,-66.89453125,-10.7421875,82.51953125,-49.31640625,27.83203125
1771543469.0579374,-31.25,-6.8359375,91.30859375,-6.8359375,33.203125
1771543469.0618436,19.53125,-0.9765625,96.6796875,21.484375,43.9453125
1771543469.06575,-17.08984375,-6.34765625,66.89453125,-37.59765625,26.3671875
1771543469.0696561,-102.05078125,-21.484375,59.08203125,-119.62890625,-25.390625
1771543469.0735624,-86.42578125,-22.4609375,78.61328125,-80.078125,-19.53125
1771543469.0774686,-24.4140625,-16.6015625,96.19140625,-10.25390625,23.92578125
1771543469.081375,-47.8515625,-20.01953125,82.51953125,-53.7109375,19.53125
1771543469.0852811,-137.20703125,-23.92578125,69.82421875,-148.92578125,-15.13671875
1771543469.0891874,-155.2734375,-19.53125,77.63671875,-145.01953125,-28.80859375
1771543469.0930936,-95.703125,-15.13671875,86.42578125,-94.23828125,17.08984375
1771543469.095125,-74.70703125,-13.18359375,95.703125,-81.54296875,26.3671875
1771543469.0990312,-137.6953125,-11.23046875,87.890625,-143.5546875,35.15625
1771543469.1029375,-167.48046875,-17.578125,71.2890625,-169.43359375,36.1328125
1771543469.1068437,-103.515625,-14.16015625,83.49609375,-100.09765625,10.25390625
1771543469.11075,-52.24609375,-6.8359375,109.86328125,-57.6171875,50.29296875
1771543469.1146562,-95.21484375,-10.25390625,83.0078125,-103.515625,94.7265625
1771543469.1185625,-145.99609375,-13.671875,58.10546875,-157.2265625,57.6171875
1771543469.1224687,-91.30859375,-10.7421875,64.453125,-104.00390625,35.15625
1771543469.126375,-13.671875,0.9765625,101.07421875,-30.76171875,44.921875
1771543469.1302812,-32.2265625,8.7890625,115.234375,-40.52734375,19.53125
1771543469.1341875,-84.9609375,-0.9765625,81.54296875,-72.265625,71.77734375
1771543469.1380937,-51.26953125,-9.27734375,81.54296875,-45.41015625,75.1953125
1771543469.140125,36.62109375,1.953125,101.5625,19.53125,31.73828125
1771543469.1440313,50.78125,15.13671875,110.83984375,33.203125,46.38671875
1771543469.1479375,-14.6484375,8.30078125,73.73046875,-18.06640625,-21.484375
1771543469.1518438,-19.04296875,4.8828125,65.91796875,-16.6015625,-3.41796875
1771543469.15575,56.15234375,13.18359375,110.3515625,58.59375,64.94140625
1771543469.1596563,93.75,15.13671875,120.60546875,93.75,35.15625
1771543469.1635625,46.38671875,10.7421875,92.7734375,40.0390625,-0.9765625
1771543469.1674688,13.18359375,5.859375,73.73046875,-3.90625,-16.11328125
1771543469.171375,69.82421875,16.6015625,105.95703125,50.29296875,23.92578125
1771543469.1752813,129.39453125,23.4375,132.32421875,117.67578125,22.94921875
1771543469.1791875,89.84375,19.04296875,108.88671875,81.0546875,36.1328125
1771543469.1830938,26.3671875,16.11328125,89.84375,35.15625,56.640625
1771543469.185125,57.12890625,17.578125,103.515625,68.84765625,5.37109375
1771543469.1890314,124.51171875,20.5078125,128.90625,119.140625,20.5078125
1771543469.1929376,119.62890625,14.6484375,119.140625,101.07421875,31.25
1771543469.1968439,53.22265625,9.765625,90.33203125,35.15625,25.390625
1771543469.20075,52.734375,11.71875,93.26171875,44.43359375,45.8984375
1771543469.2046564,121.58203125,10.7421875,112.3046875,107.421875,2.44140625
1771543469.2085626,142.08984375,7.8125,109.86328125,116.2109375,-8.30078125
1771543469.2124689,66.40625,5.859375,95.703125,47.36328125,21.484375
1771543469.216375,38.0859375,7.8125,110.3515625,30.76171875,48.33984375
1771543469.2202814,108.88671875,8.30078125,125.48828125,93.26171875,59.08203125
1771543469.2241876,149.4140625,11.23046875,130.37109375,137.6953125,76.66015625
1771543469.2280939,93.26171875,8.30078125,114.2578125,73.2421875,32.71484375
1771543469.229125,36.1328125,-0.48828125,95.703125,24.4140625,-29.78515625
1771543469.2330313,83.49609375,-0.9765625,102.05078125,82.51953125,11.71875
1771543469.2369375,136.71875,-0.48828125,135.7421875,117.67578125,58.10546875
1771543469.2408438,102.5390625,-1.46484375,129.39453125,76.66015625,63.96484375
1771543469.24475,32.2265625,-2.44140625,86.9140625,24.90234375,49.8046875
1771543469.2486563,54.19921875,0.9765625,90.33203125,47.8515625,43.9453125
1771543469.2525625,129.8828125,4.8828125,111.81640625,106.4453125,85.44921875
1771543469.2564688,115.234375,1.953125,125.9765625,105.95703125,68.359375
1771543469.260375,34.1796875,-2.44140625,115.234375,39.0625,61.03515625
1771543469.2642813,38.0859375,-6.34765625,92.28515625,21.97265625,44.43359375
1771543469.2681875,99.609375,-2.9296875,111.81640625,79.58984375,-6.34765625
1771543469.2720938,118.65234375,6.34765625,143.06640625,119.140625,22.4609375
1771543469.289125,59.5703125,1.953125,107.421875,57.6171875,2.44140625
1771543469.2930312,15.13671875,-1.953125,98.6328125,5.859375,28.80859375
1771543469.2969375,77.63671875,8.30078125,121.58203125,61.03515625,60.05859375
1771543469.3008437,127.44140625,16.6015625,122.55859375,107.91015625,-18.5546875
1771543469.30475,75.68359375,14.16015625,105.95703125,62.5,-17.08984375
1771543469.3086562,24.4140625,8.30078125,84.47265625,10.25390625,37.59765625
1771543469.3125625,65.91796875,6.34765625,83.49609375,42.96875,-31.73828125
1771543469.3164687,125.0,16.6015625,113.76953125,105.46875,-32.2265625
1771543469.320375,100.5859375,21.97265625,103.515625,94.7265625,24.90234375
1771543469.3242812,22.94921875,4.39453125,78.125,11.23046875,30.2734375
1771543469.3281875,36.1328125,4.39453125,90.33203125,27.34375,45.41015625
1771543469.3320937,109.375,22.4609375,109.375,103.515625,39.0625
1771543469.335125,107.421875,20.5078125,103.515625,105.46875,63.4765625
1771543469.3390312,28.80859375,12.6953125,74.70703125,31.73828125,64.94140625
1771543469.3429375,13.18359375,11.71875,73.73046875,1.46484375,44.43359375
1771543469.3468437,81.0546875,15.13671875,97.16796875,68.359375,62.98828125
1771543469.35075,120.60546875,14.16015625,121.58203125,97.65625,118.1640625
1771543469.3546562,72.265625,8.7890625,85.9375,51.26953125,83.0078125
1771543469.3585625,18.5546875,2.9296875,66.89453125,2.9296875,7.8125
1771543469.3624687,68.84765625,6.8359375,98.6328125,54.6875,-20.99609375
1771543469.366375,120.60546875,12.20703125,103.515625,107.421875,-18.06640625
1771543469.3702812,65.91796875,5.37109375,80.56640625,52.734375,31.73828125
1771543469.3741875,0.48828125,1.953125,78.125,3.90625,8.7890625
1771543469.3780937,31.73828125,5.37109375,95.21484375,22.94921875,-7.32421875
1771543469.382125,84.47265625,1.953125,99.12109375,80.56640625,20.99609375
1771543469.3860312,74.21875,6.8359375,90.8203125,75.1953125,18.06640625
1771543469.3899374,12.20703125,9.27734375,70.3125,-4.8828125,5.37109375
1771543469.3938437,21.484375,1.953125,70.3125,-1.953125,37.59765625
1771543469.39775,81.54296875,-2.44140625,108.88671875,70.3125,-3.41796875
1771543469.4016562,94.7265625,-3.90625,104.98046875,83.0078125,-15.13671875
1771543469.4055624,26.3671875,-5.37109375,61.5234375,16.11328125,-12.20703125
1771543469.4094687,-6.8359375,-4.8828125,65.91796875,-0.9765625,-12.6953125
1771543469.413375,56.15234375,-2.44140625,85.44921875,49.8046875,23.92578125
1771543469.4172812,95.703125,3.41796875,96.19140625,78.61328125,64.453125
1771543469.4211874,36.1328125,5.37109375,89.35546875,27.34375,75.1953125
1771543469.4250937,-11.71875,-0.9765625,61.5234375,-34.1796875,24.90234375
1771543469.425125,38.0859375,2.44140625,76.66015625,25.390625,37.109375
1771543469.4290311,83.49609375,7.32421875,100.5859375,81.54296875,42.96875
1771543469.4329374,51.7578125,2.9296875,90.8203125,40.52734375,-3.90625
1771543469.4368436,-11.71875,-5.37109375,69.3359375,-5.859375,6.34765625
1771543469.44075,13.18359375,-5.859375,74.70703125,17.578125,29.78515625
1771543469.4446561,77.63671875,0.48828125,97.16796875,50.78125,48.33984375
1771543469.4485624,58.59375,2.9296875,86.42578125,33.203125,46.38671875
1771543469.4524686,-19.04296875,-8.7890625,65.4296875,-23.4375,6.34765625
1771543469.456375,-13.671875,-17.578125,50.78125,-27.83203125,6.8359375
1771543469.4602811,52.24609375,-10.25390625,87.890625,29.296875,69.82421875
1771543469.4641874,64.94140625,-1.46484375,110.83984375,51.26953125,53.7109375
1771543469.4680936,-4.8828125,-5.859375,67.87109375,3.41796875,71.77734375
1771543469.470125,-27.83203125,-14.16015625,63.4765625,-32.71484375,19.04296875
1771543469.4740312,41.015625,-8.7890625,83.984375,25.87890625,-26.3671875
1771543469.4779375,91.796875,0.9765625,94.23828125,81.54296875,21.97265625
1771543469.4818437,39.0625,-4.39453125,81.0546875,7.8125,32.71484375
1771543469.48575,-45.41015625,-13.18359375,63.4765625,-50.29296875,48.828125
1771543469.4896562,1.953125,-12.20703125,85.9375,14.6484375,14.6484375
1771543469.4935625,80.56640625,-0.9765625,113.76953125,81.0546875,83.984375
1771543469.4974687,44.921875,-0.48828125,87.40234375,44.43359375,106.4453125
1771543469.501375,-19.53125,-11.71875,67.3828125,-23.4375,-6.8359375
1771543469.5052812,2.9296875,-7.8125,98.14453125,14.6484375,-4.39453125
1771543469.5091875,67.3828125,-3.90625,117.1875,63.96484375,44.921875
1771543469.5130937,66.89453125,-2.9296875,109.375,48.33984375,47.8515625
1771543469.514125,-8.7890625,-7.32421875,90.8203125,-16.6015625,37.59765625
1771543469.5180314,-14.6484375,-7.8125,90.8203125,-20.99609375,47.8515625
1771543469.5219376,59.5703125,-5.859375,110.83984375,48.828125,58.10546875
1771543469.5258439,79.58984375,-4.39453125,110.3515625,70.80078125,17.578125
1771543469.52975,13.18359375,-5.37109375,94.7265625,5.859375,-18.06640625
1771543469.5336564,-19.53125,-8.30078125,92.7734375,-9.765625,18.06640625
1771543469.5375626,33.203125,-0.9765625,114.74609375,50.29296875,49.31640625
1771543469.5414689,85.44921875,4.39453125,116.2109375,73.73046875,53.7109375
1771543469.545375,42.96875,4.8828125,109.86328125,21.97265625,47.8515625
1771543469.5492814,-23.4375,5.859375,116.2109375,-25.390625,74.70703125
1771543469.5531876,15.13671875,4.8828125,114.2578125,9.27734375,76.171875
1771543469.5570939,78.125,8.30078125,128.41796875,68.359375,28.3203125
1771543469.559125,59.5703125,9.765625,127.44140625,42.96875,26.85546875
1771543469.5630312,-14.6484375,0.0,105.95703125,-27.34375,51.7578125
1771543469.5669374,-7.8125,-3.90625,103.515625,-13.671875,28.80859375
1771543469.5708437,62.5,0.48828125,128.41796875,46.875,10.7421875
1771543469.57475,63.4765625,4.39453125,134.27734375,60.546875,27.83203125
1771543469.5786562,-12.20703125,-2.44140625,100.5859375,1.953125,40.52734375
1771543469.5825624,-31.73828125,-11.23046875,103.515625,-28.3203125,64.94140625
1771543469.5864687,39.0625,0.48828125,132.32421875,20.01953125,64.453125
1771543469.590375,74.21875,16.6015625,141.6015625,66.89453125,40.0390625
1771543469.5942812,7.8125,6.8359375,123.53515625,13.18359375,1.953125
1771543469.5981874,-25.87890625,-5.37109375,103.515625,-45.8984375,30.2734375
1771543469.6020937,23.4375,-1.46484375,121.58203125,0.9765625,34.66796875
1771543469.605125,59.5703125,6.34765625,150.390625,65.91796875,30.76171875
1771543469.6090312,27.34375,5.37109375,133.30078125,33.69140625,62.01171875
1771543469.6129375,-23.4375,-1.953125,103.02734375,-33.203125,63.4765625
1771543469.6168437,5.859375,0.0,116.69921875,3.41796875,30.2734375
1771543469.62075,60.546875,7.8125,144.53125,62.5,39.0625
1771543469.6246562,61.03515625,5.859375,127.44140625,54.19921875,63.4765625
1771543469.6285625,-11.71875,-5.37109375,104.00390625,-20.99609375,55.6640625
1771543469.6324687,-30.2734375,0.9765625,123.046875,-41.015625,70.3125
1771543469.636375,55.6640625,14.16015625,136.23046875,42.96875,69.82421875
1771543469.6402812,86.42578125,8.7890625,126.46484375,75.1953125,49.8046875
1771543469.6441875,11.23046875,3.90625,96.19140625,-1.46484375,15.625
1771543469.6480937,-16.11328125,6.8359375,106.93359375,-24.4140625,11.71875
1771543469.665125,46.38671875,12.20703125,137.6953125,36.62109375,53.7109375
1771543469.6690311,94.7265625,12.6953125,144.53125,76.66015625,49.31640625
1771543469.6729374,47.8515625,5.859375,124.0234375,44.921875,11.71875
1771543469.6768436,-7.8125,5.37109375,106.4453125,-0.48828125,0.9765625
1771543469.68075,31.73828125,11.71875,134.27734375,24.90234375,39.0625
1771543469.6846561,99.12109375,15.13671875,124.0234375,71.2890625,83.984375
1771543469.6885624,68.359375,15.13671875,91.796875,38.0859375,-9.765625
1771543469.6924686,-12.20703125,14.6484375,90.33203125,-23.92578125,-54.19921875
1771543469.696375,10.7421875,17.08984375,91.796875,-0.9765625,43.9453125
1771543469.7002811,75.1953125,16.6015625,114.74609375,65.4296875,65.4296875
1771543469.7041874,65.91796875,12.6953125,118.65234375,64.453125,72.75390625
1771543469.7080936,-8.7890625,3.90625,87.890625,-12.20703125,88.37890625
1771543469.710125,-19.53125,1.46484375,83.49609375,-16.6015625,84.47265625
1771543469.7140312,47.8515625,5.37109375,100.5859375,51.26953125,79.58984375
1771543469.7179375,81.54296875,9.27734375,111.328125,69.82421875,53.22265625
1771543469.7218437,14.16015625,6.34765625,90.8203125,9.765625,38.0859375
1771543469.72575,-26.85546875,0.48828125,66.89453125,-26.3671875,20.01953125
1771543469.7296562,40.0390625,2.9296875,82.51953125,16.6015625,-36.1328125
1771543469.7335625,82.51953125,10.25390625,106.4453125,65.4296875,-31.73828125
1771543469.7374687,34.1796875,11.23046875,94.23828125,31.25,7.8125
1771543469.741375,-11.23046875,1.46484375,67.3828125,-26.85546875,-2.44140625
1771543469.7452812,29.78515625,1.46484375,73.73046875,-5.859375,-6.8359375
1771543469.7491875,76.66015625,9.765625,108.3984375,53.7109375,-7.32421875
1771543469.7530937,52.734375,10.7421875,102.05078125,56.640625,-12.6953125
1771543469.770125,-8.7890625,5.859375,67.3828125,-16.11328125,-0.9765625
1771543469.7740312,4.39453125,2.44140625,69.82421875,-15.13671875,25.390625
1771543469.7779374,77.1484375,12.20703125,100.5859375,59.08203125,-45.41015625
1771543469.7818437,84.47265625,20.99609375,116.69921875,61.03515625,5.37109375
1771543469.78575,8.30078125,12.20703125,89.84375,-2.44140625,48.828125
1771543469.7896562,-3.90625,7.8125,78.61328125,-23.92578125,1.46484375
1771543469.7935624,69.82421875,18.5546875,111.81640625,45.41015625,-0.9765625
1771543469.7974687,98.6328125,21.97265625,153.3203125,88.37890625,4.8828125
1771543469.801375,47.36328125,21.97265625,120.1171875,20.01953125,63.96484375
1771543469.8052812,13.18359375,20.99609375,92.7734375,-19.53125,38.57421875
1771543469.8091874,53.7109375,21.97265625,136.71875,33.69140625,7.32421875
1771543469.8130937,100.09765625,20.99609375,147.94921875,83.49609375,20.99609375
1771543469.799125,47.36328125,11.23046875,141.6015625,54.19921875,-7.32421875
1771543469.8030312,-19.04296875,6.8359375,126.953125,0.0,-20.5078125
1771543469.8069375,9.765625,9.765625,142.08984375,22.4609375,-6.8359375
1771543469.8108437,74.70703125,11.23046875,160.15625,82.03125,46.875
1771543469.81475,63.4765625,9.765625,145.5078125,75.1953125,26.3671875
1771543469.8186562,-16.11328125,-0.48828125,126.46484375,-1.46484375,18.06640625
1771543469.8225625,-7.32421875,-3.90625,127.44140625,-3.41796875,-23.4375
1771543469.8264687,69.3359375,5.37109375,153.80859375,57.6171875,-36.1328125
1771543469.830375,83.0078125,7.8125,158.203125,70.80078125,20.99609375
1771543469.8342812,12.6953125,4.8828125,125.0,7.32421875,7.8125
1771543469.8381875,-12.6953125,3.41796875,122.55859375,-16.11328125,-16.11328125
1771543469.8420937,48.828125,2.9296875,130.37109375,47.8515625,11.23046875
1771543469.844125,87.890625,0.0,135.25390625,73.73046875,52.24609375
1771543469.8480313,37.109375,6.8359375,152.34375,16.6015625,80.56640625
1771543469.8519375,-20.99609375,7.32421875,143.06640625,-9.765625,103.02734375
1771543469.8558438,28.3203125,5.37109375,144.04296875,35.15625,61.5234375
1771543469.85975,85.9375,8.7890625,159.1796875,73.73046875,44.921875
1771543469.8636563,46.875,6.34765625,141.11328125,37.109375,65.91796875
1771543469.8675625,-10.25390625,0.9765625,116.2109375,-25.390625,62.5
1771543469.8714688,4.39453125,-3.41796875,116.69921875,-2.9296875,-1.46484375
1771543469.875375,68.359375,0.9765625,139.6484375,58.59375,19.53125
1771543469.8792813,72.265625,11.23046875,145.5078125,53.22265625,40.0390625
1771543469.8831875,2.9296875,5.37109375,116.2109375,-13.671875,5.859375
1771543469.8870938,-8.30078125,2.44140625,110.3515625,-18.06640625,11.23046875
1771543469.889125,56.640625,14.16015625,128.41796875,56.15234375,8.7890625
1771543469.8930314,82.51953125,23.92578125,139.6484375,82.51953125,51.7578125
1771543469.8969376,19.53125,12.20703125,110.3515625,12.20703125,86.42578125
1771543469.9008439,-9.765625,0.9765625,89.84375,-19.04296875,61.03515625
1771543469.90475,42.48046875,-0.48828125,120.60546875,52.24609375,1.46484375
1771543469.9086564,77.1484375,-1.953125,133.7890625,80.56640625,-36.1328125
1771543469.9125626,35.64453125,-5.37109375,111.328125,20.01953125,19.04296875
1771543469.9164689,-15.625,-12.20703125,88.8671875,-18.5546875,7.8125
1771543469.920375,26.85546875,-6.8359375,112.3046875,28.80859375,-5.37109375
1771543469.9242814,86.42578125,1.953125,146.97265625,82.51953125,1.953125
1771543469.9281876,72.265625,0.9765625,114.74609375,50.78125,4.8828125
1771543469.9320939,8.30078125,-5.859375,79.1015625,-20.99609375,3.90625
1771543469.950125,-2.9296875,-2.9296875,106.4453125,-0.9765625,25.87890625
1771543469.9540312,60.546875,5.859375,129.8828125,62.98828125,91.30859375
1771543469.9579375,72.75390625,2.44140625,124.51171875,63.96484375,81.0546875
1771543469.9618437,-4.39453125,-6.34765625,106.4453125,-4.39453125,3.41796875
1771543469.96575,-21.484375,-6.34765625,102.05078125,-18.5546875,-28.3203125
1771543469.9696562,48.828125,-2.44140625,129.8828125,39.0625,57.12890625
1771543469.9735625,83.0078125,-3.41796875,143.5546875,64.94140625,91.30859375
1771543469.9774687,22.94921875,-5.859375,118.65234375,8.7890625,47.8515625
1771543469.981375,-15.625,-1.46484375,119.62890625,-26.85546875,12.20703125
1771543469.9852812,56.15234375,0.0,129.39453125,26.85546875,26.85546875
1771543469.9891875,95.21484375,0.0,139.16015625,66.89453125,62.5
1771543469.9930937,25.87890625,-2.9296875,131.34765625,31.73828125,76.171875
1771543469.981125,-26.3671875,-2.9296875,118.65234375,-25.390625,74.70703125
1771543469.9850314,10.25390625,-0.9765625,131.34765625,7.8125,69.3359375
1771543469.9889376,65.91796875,0.48828125,140.625,70.80078125,54.6875
1771543469.9928439,54.19921875,3.41796875,138.671875,46.38671875,45.8984375
1771543469.99675,-4.39453125,1.953125,119.62890625,-17.578125,48.828125
1771543470.0006564,1.953125,-0.48828125,108.3984375,-5.859375,41.015625
1771543470.0045626,74.70703125,5.37109375,131.8359375,68.359375,24.90234375
1771543470.0084689,91.796875,12.20703125,141.6015625,86.42578125,13.671875
1771543470.012375,25.87890625,14.16015625,118.65234375,16.11328125,-9.27734375
1771543470.0162814,5.37109375,12.20703125,97.16796875,-7.32421875,14.6484375
1771543470.0201876,57.12890625,4.8828125,110.3515625,54.6875,68.359375
1771543470.0240939,87.40234375,9.765625,137.6953125,89.84375,48.828125
1771543470.025125,33.69140625,8.30078125,117.67578125,35.64453125,23.92578125
1771543470.0290313,-15.13671875,-1.953125,94.7265625,-12.20703125,35.64453125
1771543470.0329375,29.296875,0.48828125,117.1875,31.73828125,35.15625
1771543470.0368438,90.8203125,10.25390625,140.13671875,77.63671875,71.2890625
1771543470.04075,58.59375,8.30078125,118.1640625,43.45703125,29.78515625
1771543470.0446563,-8.7890625,-5.37109375,80.078125,-34.1796875,28.80859375
1771543470.0485625,20.99609375,-3.41796875,89.84375,-10.25390625,49.8046875
1771543470.0524688,78.125,8.7890625,134.27734375,63.4765625,-10.7421875
1771543470.056375,78.125,14.16015625,126.953125,65.4296875,-11.71875
1771543470.0602813,9.765625,9.765625,90.33203125,4.8828125,79.1015625
1771543470.0641875,-13.18359375,6.8359375,90.33203125,-1.953125,81.0546875
1771543470.0680938,50.29296875,11.71875,120.60546875,67.87109375,24.90234375
1771543470.084125,88.37890625,14.16015625,114.74609375,76.171875,7.32421875
1771543470.0880313,20.5078125,6.34765625,83.49609375,7.32421875,8.7890625
1771543470.0919375,-15.625,2.9296875,85.9375,-20.99609375,36.1328125
1771543470.0958438,50.78125,8.7890625,99.12109375,32.71484375,58.59375
1771543470.09975,86.9140625,12.20703125,99.609375,81.0546875,52.24609375
1771543470.1036563,36.62109375,3.41796875,79.58984375,41.015625,45.8984375
1771543470.1075625,-9.765625,0.48828125,77.63671875,-5.37109375,53.7109375
1771543470.1114688,33.203125,12.6953125,106.93359375,34.1796875,31.73828125
1771543470.115375,87.890625,16.6015625,113.28125,90.8203125,-12.6953125
1771543470.1192813,63.96484375,17.578125,105.46875,63.96484375,-8.30078125
1771543470.1231875,-8.30078125,15.13671875,87.890625,-6.34765625,-0.9765625
1771543470.1270938,0.48828125,11.23046875,92.28515625,5.859375,14.6484375
1771543470.128125,67.3828125,13.18359375,108.3984375,55.6640625,77.63671875
1771543470.1320312,62.01171875,13.671875,100.5859375,62.01171875,52.24609375
1771543470.1359375,-3.41796875,9.765625,81.54296875,-4.39453125,2.9296875
1771543470.1398437,-9.765625,11.71875,81.54296875,-15.13671875,33.203125
1771543470.14375,47.36328125,12.6953125,97.16796875,54.19921875,62.5
1771543470.1476562,75.1953125,10.7421875,93.75,77.1484375,14.16015625
1771543470.1515625,20.99609375,9.27734375,68.84765625,9.765625,-20.99609375
1771543470.1554687,-23.92578125,6.34765625,59.5703125,-25.87890625,-21.97265625
1771543470.159375,26.85546875,8.30078125,81.54296875,36.62109375,20.01953125
1771543470.1632812,87.890625,20.5078125,91.796875,81.0546875,5.37109375
1771543470.1671875,38.57421875,23.4375,80.56640625,33.203125,2.44140625
1771543470.1710937,-34.66796875,8.7890625,66.89453125,-33.69140625,35.64453125
1771543470.174125,-0.9765625,-0.9765625,68.359375,-2.44140625,28.3203125
1771543470.1780312,69.82421875,1.953125,96.6796875,74.21875,41.9921875
1771543470.1819375,55.17578125,6.8359375,102.05078125,61.03515625,42.48046875
1771543470.1858437,-13.671875,0.9765625,67.87109375,-6.8359375,54.19921875
1771543470.18975,1.46484375,-5.37109375,61.5234375,16.11328125,44.921875
1771543470.1936562,69.82421875,1.953125,89.35546875,83.0078125,1.953125
1771543470.1975625,76.171875,8.30078125,99.12109375,83.49609375,-5.37109375
1771543470.2014687,7.32421875,4.8828125,76.171875,19.53125,35.64453125
1771543470.205375,-11.71875,-0.9765625,51.7578125,-9.27734375,53.22265625
1771543470.2092812,54.6875,6.34765625,92.28515625,39.0625,26.3671875
1771543470.2131875,89.35546875,18.06640625,120.60546875,71.2890625,35.64453125
1771543470.2170937,18.06640625,10.25390625,84.47265625,21.97265625,55.17578125
1771543470.219125,-33.69140625,2.9296875,68.84765625,-25.390625,50.29296875
1771543470.2230313,30.76171875,8.30078125,89.35546875,23.92578125,30.76171875
1771543470.2269375,90.33203125,14.16015625,103.515625,74.70703125,45.8984375
1771543470.2308438,45.41015625,10.7421875,77.63671875,34.1796875,46.38671875
1771543470.23475,-13.671875,4.39453125,59.08203125,-10.25390625,54.6875
1771543470.2386563,24.4140625,1.46484375,73.73046875,24.90234375,59.08203125
1771543470.2425625,69.3359375,5.859375,96.6796875,74.70703125,36.62109375
1771543470.2464688,47.36328125,3.90625,79.1015625,45.8984375,-1.46484375
1771543470.250375,-7.8125,3.90625,47.8515625,-22.94921875,2.44140625
1771543470.2542813,-12.20703125,11.23046875,64.453125,-16.11328125,39.55078125
1771543470.2581875,52.24609375,6.34765625,80.078125,58.10546875,34.66796875
1771543470.2620938,71.2890625,1.46484375,83.49609375,73.2421875,62.98828125
1771543470.264125,3.90625,-1.46484375,65.91796875,12.6953125,62.5
1771543470.2680314,-28.80859375,-6.8359375,57.12890625,-18.06640625,55.6640625
1771543470.2719376,43.9453125,-3.90625,64.453125,30.2734375,21.97265625
1771543470.2758439,87.40234375,3.41796875,69.82421875,74.70703125,-10.25390625
1771543470.27975,29.296875,3.41796875,61.03515625,19.53125,30.2734375
1771543470.2836564,-29.296875,-2.44140625,33.69140625,-27.83203125,0.48828125
1771543470.2875626,13.18359375,-0.9765625,44.43359375,21.97265625,6.8359375
1771543470.2914689,75.68359375,1.46484375,67.3828125,70.3125,72.265625
1771543470.295375,38.0859375,2.44140625,64.453125,34.1796875,25.87890625
1771543470.2992814,-19.04296875,2.44140625,50.29296875,-28.80859375,-33.203125
1771543470.3031876,11.23046875,0.48828125,49.31640625,1.46484375,-13.671875
1771543470.3070939,69.3359375,6.8359375,64.453125,69.3359375,13.671875
1771543470.311125,68.359375,11.23046875,66.40625,62.98828125,24.4140625
1771543470.3150313,-2.9296875,2.9296875,43.9453125,-14.16015625,34.1796875
1771543470.3189375,-7.32421875,-3.90625,30.76171875,-32.71484375,-0.48828125
1771543470.3228438,59.08203125,0.9765625,58.10546875,31.73828125,-36.62109375
1771543470.32675,72.265625,6.34765625,81.54296875,62.98828125,14.6484375
1771543470.3306563,9.27734375,0.0,49.31640625,10.25390625,-5.859375
1771543470.3345625,-29.78515625,-6.34765625,28.80859375,-31.73828125,17.08984375
1771543470.3384688,30.2734375,0.48828125,52.734375,26.3671875,53.22265625
1771543470.342375,81.0546875,9.765625,86.9140625,81.0546875,19.53125
1771543470.3462813,32.71484375,4.8828125,71.77734375,32.71484375,36.1328125
1771543470.3501875,-22.94921875,-1.953125,42.48046875,-28.3203125,42.48046875
1771543470.3540938,30.76171875,-1.953125,54.19921875,14.6484375,46.875
1771543470.355125,80.078125,3.41796875,82.51953125,65.4296875,76.66015625
1771543470.3590312,43.45703125,11.71875,64.453125,41.9921875,35.64453125
1771543470.3629375,-19.53125,8.30078125,27.83203125,-16.6015625,-40.0390625
1771543470.3668437,-11.23046875,2.44140625,43.9453125,-9.765625,17.08984375
1771543470.37075,52.24609375,4.39453125,68.359375,67.87109375,51.7578125
1771543470.3746562,51.7578125,4.39453125,57.6171875,78.125,1.953125
1771543470.3785625,-9.27734375,-2.9296875,12.6953125,-17.08984375,15.625
1771543470.3824687,-16.11328125,0.9765625,14.6484375,-48.828125,30.76171875
1771543470.386375,42.48046875,8.30078125,64.94140625,30.76171875,29.78515625
1771543470.3902812,71.77734375,11.23046875,71.2890625,77.63671875,37.59765625
1771543470.3941875,22.94921875,4.8828125,42.48046875,15.13671875,21.484375
1771543470.3980937,-20.5078125,-2.44140625,26.3671875,-25.390625,56.640625
1771543470.415125,23.92578125,5.859375,42.48046875,22.94921875,47.36328125
1771543470.4190311,78.125,11.23046875,56.15234375,69.3359375,6.34765625
1771543470.4229374,45.8984375,5.859375,42.96875,23.4375,-11.23046875
1771543470.4268436,-13.671875,1.953125,29.296875,-36.1328125,30.2734375
1771543470.43075,14.16015625,3.90625,40.0390625,4.39453125,70.80078125
1771543470.4346561,81.0546875,3.41796875,43.45703125,75.1953125,44.921875
1771543470.4385624,70.3125,5.859375,31.73828125,64.453125,48.33984375
1771543470.4424686,-1.46484375,3.90625,17.08984375,-20.99609375,9.765625
1771543470.446375,0.0,4.8828125,24.90234375,-16.6015625,-8.30078125
1771543470.4502811,61.5234375,5.37109375,36.1328125,56.640625,49.8046875
1771543470.4541874,80.56640625,3.41796875,40.0390625,69.3359375,19.04296875
1771543470.4580936,16.11328125,2.44140625,35.64453125,4.8828125,-4.39453125
1771543470.460125,-10.25390625,-1.953125,22.4609375,-18.06640625,75.1953125
1771543470.4640312,49.31640625,2.44140625,37.109375,39.55078125,25.390625
1771543470.4679375,65.91796875,7.32421875,53.7109375,69.3359375,-5.859375
1771543470.4718437,12.6953125,4.8828125,39.0625,20.01953125,55.6640625
1771543470.47575,-24.90234375,0.9765625,20.01953125,-20.01953125,42.48046875
1771543470.4796562,17.08984375,3.41796875,30.76171875,20.01953125,66.40625
1771543470.4835625,68.359375,10.7421875,53.7109375,66.40625,120.60546875
1771543470.4874687,31.25,12.20703125,47.8515625,35.64453125,84.9609375
1771543470.491375,-27.83203125,3.41796875,20.99609375,-35.64453125,59.08203125
1771543470.4952812,8.7890625,4.8828125,18.5546875,-9.765625,71.2890625
1771543470.4991875,66.89453125,20.5078125,59.5703125,54.19921875,31.25
1771543470.5030937,52.734375,21.484375,69.82421875,44.43359375,46.38671875
1771543470.505125,-11.71875,8.30078125,38.0859375,-20.99609375,49.8046875
1771543470.5090313,-19.04296875,6.34765625,41.9921875,-20.99609375,66.40625
1771543470.5129375,50.78125,13.671875,66.40625,42.96875,66.89453125
1771543470.5168438,71.2890625,15.13671875,67.3828125,61.5234375,11.71875
1771543470.52075,8.30078125,13.671875,35.15625,7.8125,15.13671875
1771543470.5246563,-1.46484375,12.6953125,20.5078125,-20.99609375,59.08203125
1771543470.5285625,45.8984375,13.18359375,56.640625,46.38671875,32.2265625
1771543470.5324688,70.3125,18.06640625,90.8203125,99.609375,17.08984375
1771543470.536375,26.3671875,12.6953125,53.7109375,33.203125,46.875
1771543470.5402813,-20.99609375,3.41796875,20.01953125,-31.25,2.44140625
1771543470.5441875,20.01953125,9.27734375,51.26953125,15.625,-19.53125
1771543470.5480938,81.54296875,12.6953125,73.73046875,77.1484375,20.99609375
1771543470.549125,65.91796875,10.25390625,56.15234375,60.546875,49.8046875
1771543470.5530312,-9.27734375,7.32421875,37.59765625,2.44140625,16.6015625
1771543470.5569375,-3.41796875,7.32421875,61.03515625,11.23046875,-19.04296875
1771543470.5608437,71.2890625,11.71875,85.9375,76.171875,6.8359375
1771543470.56475,79.58984375,16.11328125,82.03125,79.58984375,44.921875
1771543470.5686562,6.8359375,9.27734375,60.546875,9.765625,-2.44140625
1771543470.5725625,-4.8828125,6.8359375,63.96484375,-1.953125,-11.23046875
1771543470.5764687,61.5234375,13.671875,88.37890625,68.84765625,39.0625
1771543470.580375,82.03125,13.671875,85.9375,87.40234375,13.18359375
1771543470.5842812,10.7421875,14.6484375,80.56640625,28.80859375,-12.6953125
1771543470.5881875,-29.296875,14.6484375,75.68359375,-4.8828125,-13.18359375
1771543470.5920937,22.94921875,16.6015625,81.0546875,34.1796875,-0.9765625
1771543470.595125,69.3359375,19.04296875,95.703125,88.37890625,0.9765625
1771543470.5990312,26.3671875,19.53125,86.9140625,55.17578125,14.16015625
1771543470.6029375,-30.76171875,20.01953125,66.89453125,-21.97265625,27.34375
1771543470.6068437,8.7890625,14.6484375,66.89453125,-8.7890625,55.17578125
1771543470.61075,66.89453125,14.6484375,96.6796875,66.40625,86.9140625
1771543470.6146562,51.26953125,16.6015625,89.84375,74.70703125,45.8984375
1771543470.6185625,-14.16015625,10.7421875,61.5234375,0.0,29.78515625
1771543470.6224687,-8.7890625,6.8359375,60.05859375,-6.34765625,79.1015625
1771543470.626375,56.640625,11.71875,80.56640625,49.8046875,69.3359375
1771543470.6302812,59.08203125,18.06640625,101.5625,52.734375,69.3359375
1771543470.6341875,0.9765625,14.6484375,75.68359375,-0.9765625,98.14453125
1771543470.6380937,-10.25390625,11.23046875,62.01171875,-5.859375,91.796875
1771543470.640125,49.31640625,16.11328125,81.54296875,57.6171875,54.6875
1771543470.6440313,88.8671875,23.92578125,91.796875,89.35546875,19.53125
1771543470.6479375,27.83203125,20.99609375,69.82421875,41.50390625,54.6875
1771543470.6518438,-24.90234375,11.23046875,49.31640625,-0.48828125,44.43359375
1771543470.65575,28.80859375,14.6484375,76.171875,26.85546875,-11.23046875
1771543470.6596563,86.42578125,20.99609375,100.09765625,82.51953125,-2.9296875
1771543470.6635625,52.734375,17.578125,78.125,66.89453125,2.9296875
1771543470.6674688,-14.6484375,8.30078125,43.9453125,-9.765625,36.1328125
1771543470.671375,7.8125,13.671875,65.91796875,13.671875,52.734375
1771543470.6752813,74.70703125,25.390625,108.3984375,90.8203125,3.90625
1771543470.6791875,63.4765625,24.90234375,102.05078125,76.66015625,8.7890625
1771543470.6830938,-4.8828125,20.99609375,73.2421875,2.44140625,25.87890625
1771543470.684125,-5.37109375,19.53125,74.70703125,13.671875,43.45703125
1771543470.6880312,64.453125,28.80859375,93.26171875,73.2421875,63.96484375
1771543470.6919374,83.0078125,32.71484375,88.8671875,83.49609375,44.43359375
1771543470.6958437,4.39453125,21.97265625,67.87109375,20.99609375,2.9296875
1771543470.69975,-19.04296875,14.6484375,63.96484375,-8.30078125,10.25390625
1771543470.7036562,47.36328125,12.6953125,84.9609375,49.8046875,15.625
1771543470.7075624,70.3125,15.625,93.75,79.1015625,7.32421875
1771543470.7114687,21.484375,18.5546875,80.56640625,21.97265625,26.85546875
1771543470.715375,-22.4609375,19.53125,85.9375,-28.3203125,31.73828125
1771543470.7192812,20.01953125,21.97265625,108.88671875,21.97265625,57.6171875
1771543470.7231874,77.1484375,19.53125,121.09375,87.40234375,65.91796875
1771543470.7270937,50.29296875,20.01953125,118.65234375,59.5703125,22.4609375
1771543470.730125,-13.671875,19.04296875,108.88671875,-11.23046875,33.69140625
1771543470.7340312,-1.46484375,12.20703125,109.86328125,2.44140625,66.89453125
1771543470.7379375,64.94140625,11.23046875,128.41796875,73.73046875,74.21875
1771543470.7418437,70.80078125,16.11328125,130.859375,73.2421875,56.640625
1771543470.74575,-3.90625,19.04296875,104.4921875,-8.30078125,44.43359375
1771543470.7496562,-21.97265625,14.6484375,90.8203125,-22.4609375,30.76171875
1771543470.7535625,44.921875,13.18359375,120.60546875,39.55078125,89.84375
1771543470.7574687,71.77734375,18.5546875,146.484375,61.03515625,73.2421875
1771543470.761375,8.30078125,16.11328125,124.51171875,2.44140625,-13.671875
1771543470.7652812,-23.92578125,10.25390625,103.02734375,-31.73828125,-15.13671875
1771543470.7691875,28.80859375,12.6953125,127.44140625,9.765625,20.01953125
1771543470.7730937,78.61328125,22.94921875,158.203125,50.29296875,103.02734375
1771543470.790125,44.921875,18.5546875,136.23046875,15.13671875,82.51953125
1771543470.7940311,-19.53125,6.34765625,116.69921875,-24.90234375,21.97265625
1771543470.7979374,13.18359375,7.8125,131.34765625,17.578125,0.0
1771543470.8018436,70.3125,15.13671875,150.87890625,88.37890625,5.859375
1771543470.80575,48.828125,9.765625,145.5078125,79.58984375,-37.59765625
1771543470.8096561,-13.671875,2.9296875,112.79296875,-1.46484375,-27.83203125
1771543470.8135624,-7.32421875,6.34765625,120.60546875,5.37109375,47.36328125
1771543470.8174686,62.5,16.11328125,154.78515625,73.2421875,19.53125
1771543470.821375,69.3359375,20.99609375,152.83203125,90.8203125,-2.9296875
1771543470.8252811,2.9296875,12.6953125,104.4921875,21.484375,15.13671875
1771543470.8291874,-1.953125,15.13671875,92.28515625,-20.99609375,-56.640625
1771543470.8330936,61.03515625,26.85546875,137.20703125,53.22265625,4.39453125
1771543470.835125,73.73046875,21.97265625,145.5078125,100.5859375,85.9375
1771543470.8390312,22.4609375,9.765625,109.86328125,20.5078125,27.83203125
1771543470.8429375,-5.37109375,8.7890625,98.14453125,-23.92578125,41.50390625
1771543470.8468437,32.2265625,15.13671875,112.3046875,37.109375,17.578125
1771543470.85075,80.56640625,18.06640625,117.67578125,81.54296875,62.98828125
1771543470.8546562,49.8046875,15.625,89.84375,41.9921875,76.171875
1771543470.8585625,-11.71875,16.11328125,63.96484375,-8.7890625,30.76171875
1771543470.8624687,18.5546875,20.99609375,78.61328125,20.99609375,53.7109375
1771543470.866375,83.49609375,21.484375,91.796875,73.73046875,45.8984375
1771543470.8702812,68.84765625,18.5546875,78.125,60.05859375,46.38671875
1771543470.8741875,0.0,18.06640625,63.4765625,2.44140625,13.671875
1771543470.8780937,2.44140625,20.01953125,62.98828125,6.34765625,-21.484375
1771543470.880125,58.59375,22.4609375,86.9140625,66.89453125,-22.4609375
1771543470.8840313,78.125,26.3671875,92.28515625,84.9609375,48.33984375
1771543470.8879375,22.4609375,25.390625,57.12890625,15.625,116.2109375
1771543470.8918438,-3.41796875,19.53125,43.45703125,-18.5546875,67.87109375
1771543470.89575,49.31640625,21.484375,68.359375,43.9453125,10.25390625
1771543470.8996563,74.70703125,25.390625,86.42578125,81.54296875,14.6484375
1771543470.9035625,23.92578125,24.90234375,79.1015625,34.1796875,33.69140625
1771543470.9074688,-19.53125,24.90234375,65.91796875,-11.71875,0.0
1771543470.911375,19.04296875,21.97265625,67.3828125,31.25,18.5546875
1771543470.9152813,78.125,29.78515625,94.23828125,85.9375,107.91015625
1771543470.9191875,56.15234375,34.66796875,103.02734375,58.59375,61.5234375
1771543470.9230938,0.0,14.16015625,81.0546875,5.859375,20.01953125
1771543470.924125,29.78515625,11.23046875,82.51953125,21.97265625,53.22265625
1771543470.9280312,85.44921875,26.85546875,95.703125,63.4765625,18.5546875
1771543470.9319375,79.1015625,29.78515625,90.8203125,56.15234375,57.12890625
1771543470.9358437,2.9296875,21.484375,47.8515625,-11.71875,41.9921875
1771543470.93975,-8.30078125,23.92578125,32.2265625,-28.80859375,-48.33984375
1771543470.9436562,59.5703125,31.25,62.98828125,33.203125,-36.62109375
1771543470.9475625,79.1015625,40.0390625,73.73046875,58.59375,52.24609375
1771543470.9514687,28.3203125,38.57421875,32.2265625,-6.34765625,11.23046875
1771543470.955375,-11.23046875,28.3203125,15.625,-33.203125,-60.05859375
1771543470.9592812,33.69140625,34.66796875,69.82421875,26.3671875,18.5546875
1771543470.9631875,85.44921875,42.96875,96.6796875,77.1484375,88.37890625
1771543470.9670937,50.78125,36.1328125,60.546875,35.15625,65.4296875
1771543470.970125,-1.953125,28.80859375,33.203125,-27.83203125,51.7578125
1771543470.9740312,43.45703125,35.15625,45.41015625,10.25390625,1.953125
1771543470.9779375,97.16796875,34.66796875,67.3828125,67.3828125,-18.5546875
1771543470.9818437,73.73046875,31.25,59.08203125,51.7578125,22.4609375
1771543470.98575,15.625,27.83203125,27.83203125,-8.7890625,71.77734375
1771543470.9896562,23.92578125,22.4609375,25.87890625,-7.8125,80.078125
1771543470.9935625,83.984375,29.296875,52.734375,49.8046875,89.35546875
1771543470.9974687,84.47265625,28.3203125,52.24609375,64.453125,54.19921875
1771543471.001375,16.6015625,20.01953125,34.66796875,-7.8125,77.1484375
1771543471.0052812,-0.9765625,26.85546875,49.31640625,-27.34375,94.23828125
1771543471.0091875,69.3359375,33.69140625,61.03515625,48.828125,6.8359375
1771543471.0130937,101.5625,31.73828125,66.89453125,79.1015625,-22.94921875
1771543471.015125,33.69140625,24.90234375,56.640625,17.08984375,-20.01953125
1771543471.0190313,-10.7421875,20.5078125,45.8984375,-23.92578125,26.85546875
1771543471.0229375,36.1328125,22.4609375,56.640625,20.5078125,75.68359375
1771543471.0268438,88.37890625,26.85546875,71.77734375,69.82421875,80.078125
1771543471.03075,56.640625,32.71484375,68.359375,41.015625,109.375
1771543471.0346563,-10.7421875,27.34375,28.80859375,-25.390625,27.83203125
1771543471.0385625,-0.9765625,15.625,36.62109375,-4.8828125,-75.1953125
1771543471.0424688,62.98828125,9.27734375,60.546875,54.6875,-20.99609375
1771543471.046375,56.15234375,13.18359375,75.68359375,43.9453125,27.34375
1771543471.0502813,-7.32421875,19.53125,76.171875,-15.625,22.4609375
1771543471.0541875,0.9765625,13.671875,66.40625,-10.7421875,-5.859375
1771543471.0580938,53.7109375,14.16015625,99.609375,49.8046875,13.18359375
1771543471.059125,66.40625,20.01953125,122.0703125,71.77734375,27.83203125
1771543471.0630312,2.9296875,12.20703125,93.26171875,20.99609375,-28.3203125
1771543471.0669374,-30.2734375,4.39453125,81.0546875,-19.53125,-34.1796875
1771543471.0708437,28.3203125,11.71875,111.328125,30.2734375,51.26953125
1771543471.07475,64.94140625,20.01953125,124.0234375,67.87109375,52.734375
1771543471.0786562,20.01953125,16.6015625,95.703125,18.5546875,29.78515625
1771543471.0825624,-22.94921875,6.34765625,61.03515625,-23.4375,28.80859375
1771543471.0864687,11.71875,8.30078125,82.51953125,16.6015625,21.97265625
1771543471.090375,60.546875,18.06640625,123.046875,71.2890625,11.71875
1771543471.0942812,26.3671875,18.5546875,111.81640625,39.0625,61.5234375
1771543471.0981874,-37.109375,5.37109375,71.2890625,-25.390625,79.1015625
1771543471.1020937,-14.6484375,2.9296875,87.890625,-1.46484375,52.24609375
1771543471.105125,53.22265625,15.625,134.27734375,62.98828125,72.75390625
1771543471.1090312,54.19921875,15.13671875,120.1171875,62.01171875,16.11328125
1771543471.1129375,-14.6484375,7.8125,91.796875,-12.20703125,-41.50390625
1771543471.1168437,-15.13671875,7.8125,103.02734375,-15.625,18.5546875
1771543471.12075,50.29296875,12.20703125,125.48828125,52.24609375,41.9921875
1771543471.1246562,71.77734375,12.6953125,121.09375,65.4296875,18.5546875
1771543471.1285625,11.71875,4.39453125,83.49609375,0.0,47.8515625
1771543471.1324687,-30.2734375,2.9296875,84.9609375,-30.76171875,68.359375
1771543471.136375,16.11328125,8.7890625,122.0703125,22.94921875,69.3359375
1771543471.1402812,64.453125,10.25390625,125.0,62.5,68.359375
1771543471.1441875,15.13671875,7.32421875,104.98046875,8.7890625,78.61328125
1771543471.1480937,-36.1328125,4.8828125,89.84375,-40.0390625,56.640625
1771543471.151125,3.41796875,6.8359375,96.19140625,10.7421875,20.01953125
1771543471.1550312,67.87109375,15.13671875,114.74609375,71.77734375,13.18359375
1771543471.1589375,46.875,22.94921875,112.3046875,43.9453125,26.3671875
1771543471.1628437,-34.1796875,12.6953125,102.5390625,-27.34375,26.3671875
1771543471.16675,-8.7890625,4.39453125,114.2578125,-8.30078125,16.6015625
1771543471.1706562,62.01171875,6.34765625,126.46484375,49.31640625,19.53125
1771543471.1745625,61.03515625,9.27734375,118.1640625,72.265625,6.34765625
1771543471.1784687,-2.9296875,6.8359375,104.98046875,17.578125,25.390625
1771543471.182375,-9.27734375,6.34765625,102.05078125,1.46484375,103.515625
1771543471.1862812,55.17578125,8.7890625,94.7265625,60.546875,101.5625
1771543471.1901875,80.56640625,14.6484375,104.98046875,88.8671875,18.06640625
1771543471.1940937,25.87890625,17.08984375,105.46875,29.78515625,33.203125
1771543471.210125,-6.34765625,14.6484375,80.078125,-14.6484375,30.76171875
1771543471.2140312,44.43359375,17.578125,97.65625,43.9453125,7.8125
1771543471.2179375,87.890625,20.5078125,117.67578125,90.33203125,22.94921875
1771543471.2218437,46.875,21.484375,98.14453125,44.43359375,-4.39453125
1771543471.22575,-2.9296875,20.5078125,83.49609375,-11.23046875,62.01171875
1771543471.2296562,32.2265625,12.6953125,70.80078125,24.4140625,57.6171875
1771543471.2335625,89.84375,19.53125,99.609375,83.0078125,6.34765625
1771543471.2374687,70.3125,25.87890625,114.2578125,62.01171875,-1.953125
1771543471.241375,-1.953125,15.625,62.01171875,-6.8359375,-61.03515625
1771543471.2452812,-1.46484375,17.08984375,66.40625,-8.30078125,1.46484375
1771543471.2491875,67.87109375,24.4140625,103.02734375,56.15234375,60.546875
1771543471.2530937,88.37890625,25.390625,102.05078125,77.63671875,14.16015625
1771543471.255125,18.06640625,20.5078125,74.70703125,12.6953125,1.46484375
1771543471.2590313,-5.859375,16.11328125,63.4765625,-3.90625,10.25390625
1771543471.2629375,54.19921875,21.484375,87.40234375,54.19921875,-19.04296875
1771543471.2668438,92.28515625,29.78515625,105.95703125,91.30859375,54.19921875
1771543471.27075,40.52734375,23.4375,80.56640625,46.38671875,61.5234375
1771543471.2746563,-4.39453125,12.20703125,55.17578125,-2.44140625,-23.92578125
1771543471.2785625,38.57421875,17.578125,74.21875,29.78515625,10.25390625
1771543471.2824688,79.58984375,25.390625,104.4921875,83.0078125,64.453125
1771543471.286375,52.734375,20.5078125,72.265625,53.22265625,59.5703125
1771543471.2902813,-11.23046875,12.20703125,29.296875,-12.6953125,34.1796875
1771543471.2941875,8.7890625,19.04296875,62.01171875,8.7890625,26.3671875
1771543471.2980938,76.66015625,24.4140625,77.63671875,76.171875,29.78515625
1771543471.299125,65.91796875,19.04296875,62.5,75.68359375,22.4609375
1771543471.3030312,-11.71875,12.6953125,34.66796875,-8.30078125,-12.6953125
1771543471.3069375,-22.4609375,12.20703125,26.85546875,-17.08984375,23.4375
1771543471.3108437,52.24609375,14.6484375,43.45703125,56.640625,22.94921875
1771543471.31475,84.47265625,20.5078125,38.57421875,79.58984375,28.3203125
1771543471.3186562,7.8125,19.04296875,4.8828125,13.18359375,31.73828125
1771543471.3225625,-37.59765625,8.30078125,-5.37109375,-39.0625,3.41796875
1771543471.3264687,20.99609375,4.39453125,20.5078125,11.23046875,45.41015625
1771543471.330375,67.87109375,-0.9765625,14.6484375,58.59375,12.20703125
1771543471.3342812,18.06640625,0.0,5.37109375,9.27734375,-4.39453125
1771543471.3381875,-34.66796875,5.37109375,0.0,-54.6875,46.38671875
1771543471.3420937,9.765625,6.34765625,0.48828125,-7.8125,61.5234375
1771543471.344125,67.3828125,11.23046875,23.4375,58.59375,52.734375
1771543471.3480313,37.109375,15.625,16.6015625,23.4375,63.4765625
1771543471.3519375,-25.390625,8.7890625,-12.6953125,-40.52734375,83.49609375
1771543471.3558438,-0.9765625,6.34765625,-14.16015625,-13.18359375,57.12890625
1771543471.35975,57.12890625,10.25390625,16.11328125,59.08203125,24.4140625
1771543471.3636563,55.6640625,10.7421875,19.53125,62.5,9.765625
1771543471.3675625,-2.9296875,8.30078125,-8.30078125,-3.41796875,42.96875
1771543471.3714688,-11.23046875,1.953125,-23.92578125,-23.4375,48.33984375
1771543471.375375,46.38671875,7.8125,10.25390625,45.41015625,69.3359375
1771543471.3792813,81.0546875,22.94921875,33.69140625,79.58984375,66.89453125
1771543471.3831875,29.78515625,20.01953125,-0.9765625,19.53125,40.52734375
1771543471.3870938,-9.765625,8.7890625,-5.859375,-11.23046875,31.73828125
1771543471.390125,31.25,12.20703125,26.85546875,23.4375,58.59375
1771543471.3940313,60.546875,18.5546875,50.29296875,45.41015625,88.8671875
1771543471.3979375,15.13671875,7.32421875,30.2734375,8.30078125,8.7890625
1771543471.4018438,-47.8515625,1.953125,5.859375,-40.52734375,-41.9921875
1771543471.40575,-15.13671875,7.32421875,28.80859375,-7.8125,33.203125
1771543471.4096563,33.69140625,3.41796875,48.828125,43.45703125,63.4765625
1771543471.4135625,-0.9765625,-4.39453125,28.3203125,7.8125,49.31640625
1771543471.4174688,-63.4765625,-9.765625,-11.71875,-67.87109375,24.4140625
1771543471.421375,-62.01171875,-3.41796875,9.765625,-65.91796875,16.6015625
1771543471.4252813,-5.859375,3.90625,40.52734375,-7.32421875,38.57421875
1771543471.4291875,21.97265625,5.859375,25.390625,7.32421875,77.63671875
1771543471.4330938,-35.15625,1.46484375,-10.25390625,-56.640625,69.82421875
1771543471.435125,-55.6640625,-5.37109375,-27.34375,-74.21875,12.20703125
1771543471.4390314,10.25390625,0.48828125,-8.7890625,3.90625,13.671875
1771543471.4429376,39.55078125,2.44140625,-15.625,42.48046875,-22.94921875
1771543471.4468439,-14.6484375,-2.9296875,-39.55078125,-8.7890625,-41.50390625
1771543471.45075,-55.6640625,-5.859375,-50.78125,-53.22265625,-6.8359375
1771543471.4546564,-16.11328125,-4.8828125,-40.0390625,-2.9296875,32.2265625
1771543471.4585626,39.0625,-5.37109375,-26.85546875,53.7109375,34.66796875
1771543471.4624689,1.953125,-4.8828125,-27.83203125,20.01953125,20.5078125
1771543471.466375,-59.08203125,-2.44140625,-23.4375,-39.0625,46.38671875
1771543471.4702814,-18.06640625,-1.953125,-13.18359375,-20.01953125,26.3671875
1771543471.4741876,41.9921875,0.9765625,3.90625,37.59765625,33.203125
1771543471.4780939,26.85546875,6.34765625,-6.8359375,34.1796875,36.62109375
1771543471.480125,-31.73828125,3.90625,-47.36328125,-25.87890625,-6.34765625
1771543471.4840312,-28.3203125,-0.9765625,-60.546875,-16.11328125,10.7421875
1771543471.4879375,36.1328125,-1.953125,-48.828125,43.45703125,35.64453125
1771543471.4918437,52.24609375,1.46484375,-39.55078125,50.29296875,4.39453125
1771543471.49575,2.44140625,2.44140625,-50.29296875,5.859375,-11.23046875
1771543471.4996562,-20.99609375,-2.44140625,-59.5703125,-24.90234375,9.27734375
1771543471.5035625,34.1796875,-1.953125,-42.48046875,27.34375,57.12890625
1771543471.5074687,79.1015625,6.34765625,-13.18359375,75.1953125,44.43359375
1771543471.511375,26.85546875,10.7421875,-20.01953125,40.0390625,1.953125
1771543471.5152812,-24.4140625,4.39453125,-56.15234375,-3.90625,3.90625
1771543471.5191875,28.3203125,7.8125,-36.1328125,19.53125,28.3203125
1771543471.5230937,83.49609375,15.625,-3.41796875,53.22265625,67.87109375
1771543471.539125,46.875,12.6953125,-20.5078125,33.69140625,39.55078125
1771543471.5430312,-12.20703125,5.859375,-57.12890625,-13.18359375,11.71875
1771543471.5469375,7.8125,6.34765625,-42.96875,-3.41796875,58.10546875
1771543471.5508437,62.5,14.16015625,-14.16015625,62.5,74.70703125
1771543471.55475,57.12890625,17.08984375,-25.87890625,65.4296875,66.89453125
1771543471.5586562,-5.859375,7.32421875,-74.21875,-5.37109375,76.66015625
1771543471.5625625,-16.6015625,3.41796875,-83.0078125,-17.578125,37.59765625
1771543471.5664687,42.48046875,13.671875,-30.76171875,45.8984375,-15.13671875
1771543471.570375,76.171875,20.99609375,-10.25390625,74.70703125,4.39453125
1771543471.5742812,4.39453125,14.16015625,-39.55078125,4.8828125,36.62109375
1771543471.5781875,-31.25,7.32421875,-49.8046875,-29.296875,4.8828125
1771543471.5820937,40.52734375,11.71875,-15.625,36.1328125,-38.57421875
1771543471.584125,81.0546875,14.6484375,2.9296875,81.0546875,19.53125
1771543471.5880313,31.73828125,9.27734375,-18.06640625,36.1328125,38.57421875
1771543471.5919375,-18.06640625,8.30078125,-26.3671875,-15.625,39.0625
1771543471.5958438,21.97265625,14.16015625,-1.46484375,28.3203125,59.08203125
1771543471.59975,76.171875,16.6015625,7.8125,83.984375,28.80859375
1771543471.6036563,51.26953125,14.16015625,-16.6015625,54.19921875,16.11328125
1771543471.6075625,-5.859375,7.8125,-29.296875,-16.6015625,60.546875
1771543471.6114688,5.37109375,6.8359375,-17.08984375,-19.04296875,60.05859375
1771543471.615375,52.24609375,8.30078125,-4.39453125,58.59375,33.69140625
1771543471.6192813,71.2890625,8.7890625,-21.97265625,74.21875,19.04296875
1771543471.6231875,17.578125,20.01953125,-31.73828125,-12.20703125,-26.85546875
1771543471.6270938,-31.25,21.484375,-13.18359375,-47.36328125,-12.20703125
1771543471.629125,5.859375,17.08984375,5.37109375,5.37109375,29.78515625
1771543471.6330314,39.55078125,18.5546875,21.484375,32.71484375,70.80078125
1771543471.6369376,-18.5546875,14.6484375,1.953125,-27.83203125,101.5625
1771543471.6408439,-66.40625,11.71875,-30.76171875,-65.91796875,36.62109375
1771543471.64475,-15.13671875,13.18359375,-9.27734375,-17.578125,20.99609375
1771543471.6486564,40.52734375,17.578125,29.296875,30.76171875,42.48046875
1771543471.6525626,14.16015625,18.06640625,15.13671875,-4.8828125,44.43359375
1771543471.6564689,-40.52734375,11.71875,-4.39453125,-58.59375,-3.41796875
1771543471.660375,-13.18359375,9.27734375,2.9296875,-23.92578125,-10.7421875
1771543471.6642814,57.12890625,17.08984375,34.66796875,34.66796875,73.2421875
1771543471.6681876,53.7109375,24.90234375,58.10546875,31.25,-1.953125
1771543471.6720939,-9.765625,19.04296875,39.0625,-25.87890625,-50.29296875
1771543471.675125,-12.6953125,18.5546875,44.921875,-12.6953125,26.3671875
1771543471.6790311,53.7109375,25.390625,75.1953125,55.6640625,50.29296875
1771543471.6829374,75.1953125,29.78515625,77.1484375,57.6171875,73.2421875
1771543471.6868436,11.71875,23.4375,41.50390625,0.48828125,65.91796875
1771543471.69075,-6.34765625,19.04296875,23.4375,-8.30078125,13.671875
1771543471.6946561,47.8515625,22.94921875,45.41015625,40.0390625,-20.01953125
1771543471.6985624,84.9609375,27.83203125,71.2890625,70.3125,10.25390625
1771543471.7024686,43.9453125,28.3203125,47.36328125,36.1328125,8.30078125
1771543471.706375,7.8125,22.4609375,14.16015625,-13.18359375,5.37109375
1771543471.7102811,41.9921875,26.3671875,61.03515625,27.83203125,65.4296875
1771543471.7141874,85.44921875,29.296875,90.33203125,98.6328125,24.90234375
1771543471.7180936,62.01171875,23.92578125,66.89453125,74.70703125,18.5546875
1771543471.719125,-11.71875,15.625,39.55078125,3.90625,40.52734375
1771543471.7230313,6.34765625,17.578125,52.734375,20.01953125,-17.08984375
1771543471.7269375,72.265625,24.4140625,91.796875,82.51953125,6.8359375
1771543471.7308438,70.80078125,20.99609375,74.70703125,78.61328125,59.08203125
1771543471.73475,-7.32421875,16.11328125,29.78515625,6.8359375,75.1953125
1771543471.7386563,-12.6953125,14.6484375,25.390625,2.44140625,27.34375
1771543471.7425625,61.5234375,21.97265625,65.91796875,59.08203125,-9.27734375
1771543471.7464688,83.49609375,27.34375,64.94140625,76.66015625,35.64453125
1771543471.750375,10.25390625,18.5546875,27.83203125,13.671875,76.66015625
1771543471.7542813,-28.80859375,13.671875,44.43359375,-29.78515625,66.40625
1771543471.7581875,26.3671875,11.23046875,63.96484375,33.203125,26.3671875
1771543471.7620938,70.3125,17.08984375,67.87109375,83.49609375,14.16015625
1771543471.766125,29.78515625,18.5546875,47.36328125,41.015625,65.4296875
1771543471.7700312,-21.484375,12.6953125,25.87890625,-12.6953125,50.78125
1771543471.7739375,20.99609375,16.6015625,36.62109375,22.4609375,30.76171875
1771543471.7778437,79.1015625,23.4375,52.24609375,75.68359375,46.38671875
1771543471.78175,54.6875,25.87890625,42.96875,53.7109375,1.953125
1771543471.7856562,-9.27734375,22.4609375,2.44140625,-13.671875,-23.92578125
1771543471.7895625,8.7890625,21.97265625,5.859375,2.44140625,65.4296875
1771543471.7934687,64.94140625,25.87890625,32.2265625,70.80078125,72.265625
1771543471.797375,61.5234375,29.78515625,48.33984375,66.89453125,7.32421875
1771543471.8012812,4.8828125,27.34375,21.97265625,3.90625,-29.78515625
1771543471.8051875,-5.859375,23.92578125,6.34765625,-11.23046875,9.765625
1771543471.8090937,47.36328125,28.80859375,41.9921875,45.8984375,53.22265625
1771543471.809125,78.61328125,37.109375,63.4765625,75.1953125,40.0390625
1771543471.8130312,20.01953125,36.1328125,42.48046875,15.13671875,49.8046875
1771543471.8169374,-15.13671875,32.2265625,19.53125,-32.2265625,61.5234375
1771543471.8208437,48.828125,35.64453125,39.55078125,33.203125,11.71875
1771543471.82475,81.54296875,32.71484375,72.75390625,88.37890625,12.20703125
1771543471.8286562,42.96875,24.4140625,63.4765625,46.38671875,19.04296875
1771543471.8325624,-10.25390625,14.16015625,20.99609375,-10.25390625,-43.9453125
1771543471.8364687,17.08984375,12.6953125,41.9921875,16.6015625,-17.08984375
1771543471.840375,73.73046875,25.87890625,109.86328125,88.8671875,57.12890625
1771543471.8442812,63.96484375,27.83203125,103.02734375,81.54296875,40.0390625
1771543471.8481874,5.37109375,18.5546875,67.87109375,2.9296875,-14.16015625
1771543471.8520937,14.16015625,19.04296875,85.9375,-1.953125,-8.7890625
1771543471.855125,81.54296875,25.87890625,117.67578125,72.75390625,-4.39453125
1771543471.8590312,81.54296875,26.85546875,112.79296875,89.35546875,31.73828125
1771543471.8629375,13.18359375,20.01953125,82.03125,19.04296875,57.6171875
1771543471.8668437,-16.6015625,16.6015625,83.984375,-16.6015625,51.7578125
1771543471.87075,35.15625,18.5546875,116.69921875,47.36328125,47.36328125
1771543471.8746562,81.0546875,20.5078125,123.046875,93.26171875,36.62109375
1771543471.8785625,30.76171875,14.6484375,87.40234375,22.94921875,30.76171875
1771543471.8824687,-29.78515625,11.23046875,80.56640625,-26.3671875,36.1328125
1771543471.886375,14.6484375,18.06640625,118.1640625,25.390625,41.50390625
1771543471.8902812,79.58984375,21.97265625,127.44140625,79.58984375,83.49609375
1771543471.8941875,46.38671875,18.06640625,103.02734375,40.52734375,65.91796875
1771543471.8980937,-18.5546875,24.90234375,86.42578125,-25.390625,37.59765625
1771543471.914125,3.41796875,29.78515625,94.7265625,1.46484375,62.5
1771543471.9180312,61.03515625,21.484375,116.2109375,66.40625,65.4296875
1771543471.9219375,60.546875,19.04296875,106.4453125,60.546875,44.921875
1771543471.9258437,-7.32421875,13.18359375,74.21875,-9.765625,46.875
1771543471.92975,-3.41796875,11.71875,73.73046875,-11.23046875,96.6796875
1771543471.9336562,55.17578125,12.20703125,79.58984375,50.78125,83.984375
1771543471.9375625,71.2890625,11.23046875,80.56640625,69.3359375,6.34765625
1771543471.9414687,22.4609375,17.08984375,69.3359375,16.6015625,-39.55078125
1771543471.945375,-8.7890625,17.08984375,54.6875,-14.6484375,13.18359375
1771543471.9492812,46.875,19.04296875,65.91796875,45.41015625,62.98828125
1771543471.9531875,97.16796875,23.4375,79.58984375,98.6328125,13.18359375
1771543471.9570937,44.921875,23.4375,65.4296875,46.875,31.25
1771543471.959125,-17.08984375,18.5546875,33.203125,-2.44140625,53.22265625
1771543471.9630313,30.2734375,20.5078125,41.50390625,38.57421875,12.20703125
1771543471.9669375,90.8203125,29.296875,75.68359375,100.5859375,-46.875
1771543471.9708438,66.40625,34.66796875,77.1484375,84.47265625,14.16015625
1771543471.97475,5.859375,30.76171875,42.48046875,16.11328125,56.15234375
1771543471.9786563,25.390625,25.390625,37.59765625,26.3671875,-13.18359375
1771543471.9825625,80.078125,30.76171875,80.078125,80.56640625,15.13671875
1771543471.9864688,79.1015625,36.1328125,93.26171875,87.890625,41.015625
1771543471.990375,13.671875,29.78515625,41.9921875,27.83203125,-2.9296875
1771543471.9942813,3.41796875,25.87890625,20.5078125,3.90625,22.4609375
1771543471.9981875,68.84765625,36.62109375,84.47265625,60.546875,66.89453125
1771543472.0020938,83.984375,40.52734375,98.6328125,104.4921875,80.56640625
1771543472.005125,21.97265625,31.73828125,25.87890625,57.6171875,15.625
1771543472.0090313,-5.37109375,29.296875,6.8359375,-7.32421875,-3.41796875
1771543472.0129375,53.22265625,37.109375,41.9921875,47.36328125,57.6171875
1771543472.0168438,96.19140625,38.0859375,48.828125,109.375,38.0859375
1771543472.02075,48.828125,31.73828125,4.39453125,48.33984375,4.8828125
1771543472.0246563,-9.27734375,21.97265625,-50.29296875,-16.11328125,-22.94921875
1771543472.0285625,33.203125,24.4140625,-39.0625,31.73828125,-42.48046875
1771543472.0324688,83.984375,33.203125,7.32421875,95.703125,25.87890625
1771543472.036375,59.5703125,29.296875,-28.80859375,76.171875,52.24609375
1771543472.0402813,4.39453125,24.90234375,-74.70703125,8.7890625,30.2734375
1771543472.0441875,12.6953125,29.78515625,-45.41015625,15.13671875,15.13671875
1771543472.0480938,76.66015625,30.2734375,-25.87890625,86.42578125,-5.859375
1771543472.051125,82.51953125,30.76171875,-28.80859375,96.6796875,48.33984375
1771543472.0550313,13.18359375,25.390625,-66.89453125,26.3671875,73.2421875
1771543472.0589375,0.9765625,20.5078125,-90.8203125,-1.46484375,34.66796875
1771543472.0628438,52.734375,25.390625,-65.91796875,54.6875,56.640625
1771543472.06675,79.1015625,27.34375,-61.5234375,95.21484375,38.57421875
1771543472.0706563,31.73828125,22.94921875,-92.28515625,41.015625,-8.7890625
1771543472.0745625,-15.13671875,18.06640625,-101.5625,-6.8359375,-15.625
1771543472.0784688,33.203125,19.04296875,-62.01171875,39.55078125,37.109375
1771543472.082375,93.26171875,20.99609375,-47.8515625,96.19140625,45.41015625
1771543472.0862813,53.22265625,22.4609375,-53.7109375,55.17578125,-41.50390625
1771543472.0901875,-21.97265625,22.94921875,-73.73046875,-17.578125,-39.55078125
1771543472.0940938,5.37109375,21.484375,-69.3359375,15.625,36.1328125
1771543472.094125,78.61328125,21.97265625,-23.4375,86.9140625,68.359375
1771543472.0980313,68.84765625,32.2265625,-12.20703125,74.21875,68.84765625
1771543472.1019375,-3.90625,31.73828125,-53.22265625,10.25390625,48.33984375
1771543472.1058438,-3.41796875,19.53125,-51.7578125,4.8828125,39.0625
1771543472.10975,56.15234375,17.08984375,-10.7421875,62.5,67.3828125
1771543472.1136563,69.82421875,17.578125,-9.27734375,80.078125,42.96875
1771543472.1175625,8.30078125,18.06640625,-38.57421875,12.20703125,6.8359375
1771543472.1214688,-15.625,14.6484375,-64.453125,-19.04296875,29.296875
1771543472.125375,35.64453125,15.625,-37.109375,27.34375,56.640625
1771543472.1292813,60.05859375,24.90234375,13.671875,60.546875,32.2265625
1771543472.1331875,13.18359375,21.484375,-17.08984375,18.5546875,41.015625
1771543472.1370938,-30.2734375,16.6015625,-59.08203125,-32.2265625,51.7578125
1771543472.139125,7.8125,21.484375,-27.34375,15.13671875,30.76171875
1771543472.1430314,76.66015625,36.62109375,9.27734375,85.44921875,45.41015625
1771543472.1469376,76.171875,42.96875,-4.39453125,66.89453125,46.875
1771543472.1508439,12.20703125,39.55078125,-30.2734375,7.32421875,10.25390625
1771543472.15475,20.99609375,46.875,-1.46484375,32.2265625,40.52734375
1771543472.1586564,93.75,53.7109375,25.87890625,89.35546875,85.9375
1771543472.1625626,103.02734375,53.22265625,10.7421875,90.33203125,51.26953125
1771543472.1664689,29.78515625,46.38671875,-42.96875,29.78515625,-0.9765625
1771543472.170375,11.23046875,49.31640625,-22.4609375,25.390625,23.92578125
1771543472.1742814,70.80078125,58.59375,41.015625,90.8203125,40.0390625
1771543472.1781876,103.515625,59.5703125,25.87890625,105.95703125,-25.87890625
1771543472.1820939,47.36328125,55.17578125,-1.46484375,57.6171875,-91.796875
1771543472.185125,6.8359375,52.24609375,8.30078125,24.4140625,-25.390625
1771543472.1890314,67.87109375,55.6640625,36.62109375,64.453125,11.71875
1771543472.1929376,112.3046875,56.640625,50.78125,112.79296875,4.8828125
1771543472.1968439,64.453125,54.19921875,35.15625,62.01171875,47.36328125
1771543472.20075,8.30078125,50.78125,15.13671875,0.0,35.64453125
1771543472.2046564,40.52734375,50.78125,26.3671875,54.19921875,34.66796875
1771543472.2085626,95.703125,49.8046875,32.2265625,107.421875,12.20703125
1771543472.2124689,82.03125,52.24609375,30.76171875,70.3125,17.08984375
1771543472.216375,17.08984375,56.640625,31.25,9.27734375,58.59375
1771543472.2202814,32.71484375,56.15234375,24.90234375,29.78515625,35.15625
1771543472.2241876,112.3046875,59.08203125,57.12890625,107.91015625,15.13671875
1771543472.2280939,101.5625,63.96484375,76.66015625,98.14453125,64.453125
1771543472.230125,7.32421875,61.03515625,35.64453125,16.11328125,44.43359375
1771543472.2340312,-12.6953125,55.17578125,15.625,-4.39453125,24.90234375
1771543472.2379375,38.0859375,53.7109375,41.015625,35.64453125,20.01953125
1771543472.2418437,64.94140625,56.15234375,62.01171875,60.546875,-15.13671875
1771543472.24575,6.8359375,56.640625,41.9921875,13.671875,8.30078125
1771543472.2496562,-53.7109375,47.8515625,11.71875,-44.43359375,28.3203125
1771543472.2535625,-6.8359375,41.50390625,20.99609375,-8.7890625,25.87890625
1771543472.2574687,32.71484375,45.8984375,63.4765625,41.50390625,38.57421875
1771543472.261375,-12.6953125,46.875,54.6875,-1.46484375,46.38671875
1771543472.2652812,-66.40625,41.015625,-3.90625,-67.87109375,20.5078125
1771543472.2691875,-46.38671875,40.0390625,18.06640625,-44.921875,45.41015625
1771543472.2730937,25.87890625,45.8984375,66.89453125,27.83203125,83.0078125
1771543472.276125,27.83203125,47.8515625,57.6171875,34.66796875,69.3359375
1771543472.2800312,-31.25,40.0390625,14.16015625,-26.85546875,76.66015625
1771543472.2839375,-26.85546875,36.62109375,13.671875,-36.1328125,87.40234375
1771543472.2878437,36.62109375,46.38671875,54.6875,34.1796875,66.40625
1771543472.29175,52.734375,46.875,62.01171875,60.05859375,26.85546875
1771543472.2956562,-0.9765625,32.71484375,8.7890625,1.953125,46.875
1771543472.2995625,-18.06640625,27.83203125,-0.9765625,-26.3671875,28.3203125
1771543472.3034687,37.59765625,40.0390625,64.94140625,34.66796875,-2.9296875
1771543472.307375,74.70703125,48.828125,77.63671875,82.51953125,34.66796875
1771543472.3112812,22.4609375,42.96875,36.62109375,31.25,38.0859375
1771543472.3151875,-23.92578125,35.15625,19.53125,-11.71875,14.6484375
1771543472.3190937,29.78515625,38.57421875,41.9921875,24.90234375,-0.9765625
1771543472.335125,83.0078125,41.9921875,64.94140625,74.21875,0.0
1771543472.3390312,47.36328125,38.57421875,47.36328125,60.05859375,30.76171875
1771543472.3429375,0.48828125,31.25,6.34765625,4.39453125,32.2265625
1771543472.3468437,35.64453125,40.0390625,21.97265625,24.4140625,3.41796875
1771543472.35075,65.4296875,46.38671875,53.22265625,75.1953125,59.5703125
1771543472.3546562,39.55078125,29.296875,14.6484375,45.8984375,60.546875
1771543472.3585625,-14.6484375,21.484375,-14.6484375,-23.4375,36.1328125
1771543472.3624687,-16.11328125,24.4140625,7.32421875,-16.11328125,32.2265625
1771543472.366375,34.1796875,20.99609375,26.85546875,47.36328125,41.015625
1771543472.3702812,42.48046875,23.92578125,30.2734375,62.98828125,60.546875
1771543472.3741875,-12.6953125,30.76171875,15.625,1.46484375,24.4140625
1771543472.3780937,-41.015625,26.3671875,4.8828125,-36.62109375,12.6953125
1771543472.379125,20.99609375,27.34375,33.69140625,23.4375,28.3203125
1771543472.3830314,74.21875,34.1796875,83.984375,67.87109375,59.5703125
1771543472.3869376,31.73828125,31.25,81.0546875,29.296875,53.7109375
1771543472.3908439,-17.08984375,23.92578125,49.8046875,-23.4375,26.3671875
1771543472.39475,21.97265625,27.34375,67.3828125,8.30078125,68.359375
1771543472.3986564,76.66015625,33.69140625,97.65625,77.63671875,47.36328125
1771543472.4025626,63.96484375,36.62109375,96.6796875,62.98828125,9.765625
1771543472.4064689,-5.37109375,35.64453125,71.77734375,-4.39453125,-2.44140625
1771543472.410375,-0.48828125,31.25,60.05859375,7.8125,37.109375
1771543472.4142814,77.63671875,34.1796875,87.890625,67.87109375,71.77734375
1771543472.4181876,89.35546875,44.43359375,123.53515625,75.1953125,57.6171875
1771543472.4220939,18.06640625,40.0390625,86.42578125,21.484375,107.91015625
1771543472.439125,5.37109375,35.64453125,59.5703125,11.71875,131.34765625
1771543472.4430313,67.3828125,38.57421875,90.8203125,62.98828125,50.78125
1771543472.4469376,105.46875,44.43359375,118.1640625,101.07421875,49.31640625
1771543472.4508438,56.640625,45.8984375,77.1484375,56.15234375,58.10546875
1771543472.45475,6.8359375,39.55078125,37.109375,11.23046875,11.71875
1771543472.4586563,50.78125,33.203125,71.2890625,51.7578125,-0.48828125
1771543472.4625626,102.5390625,34.1796875,94.7265625,97.65625,-5.859375
1771543472.4664688,67.3828125,33.69140625,54.19921875,63.96484375,-1.46484375
1771543472.470375,6.8359375,27.34375,20.99609375,-0.9765625,8.7890625
1771543472.4742813,31.73828125,35.15625,66.89453125,32.2265625,-3.90625
1771543472.4781876,87.40234375,43.45703125,114.74609375,93.26171875,8.7890625
1771543472.4820938,75.68359375,37.109375,85.9375,83.0078125,46.875
1771543472.470125,15.625,28.80859375,36.1328125,24.4140625,73.2421875
1771543472.4740312,14.16015625,29.296875,54.6875,9.27734375,36.62109375
1771543472.4779375,80.078125,32.71484375,93.26171875,66.40625,70.80078125
1771543472.4818437,93.75,32.71484375,83.984375,86.42578125,93.26171875
1771543472.48575,23.4375,25.87890625,42.48046875,24.4140625,34.66796875
1771543472.4896562,-1.46484375,21.484375,29.296875,0.48828125,28.80859375
1771543472.4935625,59.5703125,27.34375,66.89453125,60.05859375,24.90234375
1771543472.4974687,100.09765625,32.2265625,100.09765625,101.5625,30.2734375
1771543472.501375,40.0390625,27.34375,74.70703125,48.33984375,20.5078125
1771543472.5052812,-15.625,20.99609375,63.96484375,-0.9765625,-1.953125
1771543472.5091875,24.4140625,25.390625,106.4453125,43.9453125,2.44140625
1771543472.5130937,83.49609375,26.3671875,109.375,89.35546875,16.11328125
1771543472.529125,59.5703125,22.94921875,92.28515625,48.828125,8.30078125
1771543472.5330312,-10.25390625,21.484375,101.07421875,-9.27734375,1.953125
1771543472.5369375,9.765625,17.578125,107.91015625,19.53125,25.87890625
1771543472.5408437,66.40625,21.484375,133.7890625,78.61328125,39.0625
1771543472.54475,68.359375,26.85546875,139.6484375,67.3828125,6.34765625
1771543472.5486562,14.6484375,21.484375,105.46875,10.7421875,-2.9296875
1771543472.5525625,2.44140625,16.6015625,104.4921875,14.6484375,22.94921875
1771543472.5564687,65.91796875,20.01953125,126.46484375,59.5703125,51.26953125
1771543472.560375,95.703125,29.296875,148.4375,76.171875,53.7109375
1771543472.5642812,41.015625,29.78515625,129.8828125,28.80859375,-3.90625
1771543472.5681875,-1.953125,25.87890625,92.28515625,-13.18359375,26.3671875
1771543472.5720937,57.12890625,32.2265625,112.3046875,40.52734375,13.18359375
1771543472.575125,107.421875,44.43359375,162.109375,104.4921875,-31.25
1771543472.5790312,48.33984375,45.41015625,146.97265625,57.6171875,-24.90234375
1771543472.5829375,-7.32421875,31.73828125,100.5859375,1.46484375,3.41796875
1771543472.5868437,30.2734375,28.80859375,120.60546875,37.59765625,5.859375
1771543472.59075,83.984375,34.66796875,175.29296875,91.30859375,61.03515625
1771543472.5946562,65.91796875,35.64453125,137.20703125,71.77734375,46.875
1771543472.5985625,8.30078125,32.71484375,94.23828125,-1.46484375,20.99609375
1771543472.6024687,13.671875,32.71484375,124.0234375,12.6953125,54.6875
1771543472.606375,64.453125,41.015625,152.83203125,67.87109375,79.1015625
1771543472.6102812,68.359375,47.36328125,133.7890625,67.3828125,57.6171875
1771543472.6141875,2.9296875,36.62109375,59.5703125,9.27734375,-16.11328125
1771543472.6180937,-23.4375,32.2265625,62.98828125,-3.90625,15.625
1771543472.606125,37.109375,42.96875,137.20703125,41.9921875,60.05859375
1771543472.6100314,83.984375,43.9453125,118.65234375,57.6171875,15.13671875
1771543472.6139376,21.484375,37.59765625,59.5703125,12.20703125,-65.4296875
1771543472.6178439,-22.94921875,36.1328125,58.10546875,-17.578125,-41.015625
1771543472.62175,33.69140625,42.96875,88.8671875,36.1328125,37.109375
1771543472.6256564,91.796875,45.41015625,90.33203125,87.40234375,63.96484375
1771543472.6295626,52.24609375,42.96875,68.84765625,47.8515625,66.89453125
1771543472.6334689,-10.25390625,39.0625,53.7109375,-2.44140625,20.99609375
1771543472.637375,26.3671875,38.57421875,82.03125,26.85546875,4.8828125
1771543472.6412814,79.58984375,40.0390625,99.609375,74.21875,14.16015625
1771543472.6451876,67.3828125,36.1328125,62.98828125,62.5,54.6875
1771543472.6490939,3.90625,37.109375,39.0625,-1.953125,41.015625
1771543472.665125,1.953125,43.45703125,42.48046875,0.0,-4.8828125
1771543472.6690311,68.359375,40.0390625,63.4765625,61.03515625,28.3203125
1771543472.6729374,83.49609375,37.109375,67.87109375,74.21875,62.5
1771543472.6768436,19.53125,31.73828125,28.80859375,17.08984375,75.68359375
1771543472.68075,-1.46484375,27.34375,8.30078125,-2.44140625,31.73828125
1771543472.6846561,44.43359375,26.85546875,28.3203125,52.24609375,13.18359375
1771543472.6885624,79.58984375,23.4375,37.59765625,74.21875,-5.859375
1771543472.6924686,33.203125,25.390625,34.1796875,15.625,-49.31640625
1771543472.696375,-19.53125,27.34375,8.30078125,-25.87890625,-8.7890625
1771543472.7002811,10.25390625,23.4375,15.13671875,1.46484375,48.33984375
1771543472.7041874,52.24609375,29.296875,37.59765625,44.43359375,-5.37109375
1771543472.7080936,10.25390625,38.57421875,15.625,15.13671875,-15.13671875
1771543472.709125,-59.08203125,27.83203125,-18.5546875,-62.01171875,35.64453125
1771543472.7130313,-54.19921875,19.53125,-13.18359375,-61.5234375,79.1015625
1771543472.7169375,-20.01953125,22.4609375,14.16015625,-10.7421875,99.12109375
1771543472.7208438,-26.3671875,21.97265625,13.671875,-24.90234375,91.796875
1771543472.72475,-109.86328125,11.23046875,-31.73828125,-108.3984375,91.30859375
1771543472.7286563,-130.37109375,4.39453125,-38.57421875,-125.9765625,51.7578125
1771543472.7325625,-76.66015625,6.34765625,7.8125,-82.51953125,15.625
1771543472.7364688,-67.87109375,9.27734375,19.53125,-71.77734375,9.27734375
1771543472.740375,-134.27734375,8.30078125,-31.25,-138.18359375,-12.20703125
1771543472.7442813,-165.52734375,2.9296875,-64.453125,-168.9453125,13.18359375
1771543472.7481875,-110.83984375,6.34765625,-2.9296875,-118.1640625,73.2421875
1771543472.7520938,-62.98828125,20.99609375,46.38671875,-71.2890625,76.66015625
1771543472.755125,-94.7265625,29.296875,8.7890625,-92.7734375,58.59375
1771543472.7590313,-136.71875,21.97265625,-24.90234375,-134.765625,42.48046875
1771543472.7629375,-94.23828125,16.6015625,7.8125,-98.6328125,10.7421875
1771543472.7668438,-29.78515625,20.99609375,54.6875,-35.64453125,50.29296875
1771543472.77075,-42.48046875,20.01953125,36.62109375,-43.45703125,67.3828125
1771543472.7746563,-96.6796875,12.20703125,-1.46484375,-92.7734375,-5.37109375
1771543472.7785625,-71.77734375,16.11328125,20.5078125,-66.89453125,-47.36328125
1771543472.7824688,9.27734375,33.203125,80.078125,6.34765625,38.57421875
1771543472.786375,40.0390625,31.73828125,62.5,23.4375,43.45703125
1771543472.7902813,-14.6484375,19.04296875,5.37109375,-32.2265625,-8.7890625
1771543472.7941875,-21.484375,24.90234375,38.57421875,-36.1328125,31.25
1771543472.7980938,49.8046875,35.15625,74.21875,39.0625,20.01953125
1771543472.800125,93.26171875,41.015625,74.21875,74.21875,0.0
1771543472.8040311,48.828125,43.45703125,44.921875,26.85546875,15.13671875
1771543472.8079374,17.08984375,42.96875,33.203125,5.37109375,18.06640625
1771543472.8118436,82.03125,45.8984375,55.6640625,70.80078125,41.015625
1771543472.81575,129.8828125,48.828125,65.4296875,118.1640625,70.80078125
1771543472.8196561,94.23828125,47.36328125,38.57421875,80.56640625,65.4296875
1771543472.8235624,42.96875,39.55078125,2.44140625,32.2265625,52.24609375
1771543472.8274686,63.96484375,37.109375,12.6953125,73.2421875,34.66796875
1771543472.831375,128.41796875,40.0390625,21.97265625,130.859375,32.2265625
1771543472.8352811,124.51171875,46.875,15.625,125.0,38.57421875
1771543472.8391874,64.94140625,44.921875,-13.671875,70.3125,25.87890625
1771543472.8430936,80.56640625,41.50390625,-35.64453125,68.84765625,49.31640625
1771543472.844125,145.99609375,45.41015625,-2.9296875,131.8359375,60.546875
1771543472.8480313,151.3671875,49.31640625,14.6484375,148.92578125,61.03515625
1771543472.8519375,81.54296875,45.41015625,-48.33984375,85.44921875,45.8984375
1771543472.8558438,71.2890625,40.0390625,-77.63671875,61.5234375,27.83203125
1771543472.85975,129.39453125,44.43359375,-35.64453125,118.1640625,31.73828125
1771543472.8636563,154.296875,48.828125,-19.53125,145.99609375,20.5078125
1771543472.8675625,99.609375,44.43359375,-50.78125,96.19140625,26.85546875
1771543472.8714688,50.78125,36.1328125,-94.23828125,58.10546875,0.9765625
1771543472.875375,101.07421875,42.96875,-54.19921875,93.75,31.73828125
1771543472.8792813,150.390625,53.22265625,12.20703125,133.30078125,47.36328125
1771543472.8831875,108.88671875,43.9453125,-23.4375,103.02734375,27.34375
1771543472.8870938,41.9921875,34.66796875,-71.2890625,45.8984375,20.99609375
1771543472.891125,74.70703125,37.109375,-41.50390625,77.63671875,22.94921875
1771543472.8950312,145.01953125,44.43359375,4.39453125,131.8359375,51.7578125
1771543472.8989375,120.1171875,46.875,-13.18359375,114.74609375,-7.32421875
1771543472.9028437,54.6875,41.9921875,-43.45703125,62.01171875,-11.71875
1771543472.90675,63.4765625,43.9453125,-19.53125,68.359375,8.30078125
1771543472.9106562,122.55859375,51.26953125,28.3203125,129.39453125,28.80859375
1771543472.9145625,138.18359375,50.29296875,35.64453125,143.5546875,24.4140625
1771543472.9184687,77.63671875,42.96875,-14.16015625,68.84765625,32.2265625
1771543472.922375,46.875,46.38671875,-12.6953125,37.109375,63.4765625
1771543472.9262812,100.09765625,51.26953125,26.85546875,93.75,61.5234375
1771543472.9301875,139.6484375,47.8515625,19.04296875,128.90625,23.92578125
1771543472.9340937,92.7734375,46.38671875,-19.53125,86.42578125,-10.7421875
1771543472.935125,31.73828125,41.50390625,-29.78515625,35.15625,6.8359375
1771543472.9390314,72.265625,44.43359375,-6.8359375,74.21875,26.3671875
1771543472.9429376,130.859375,47.8515625,10.25390625,118.65234375,54.6875
1771543472.9468439,101.5625,40.0390625,-16.6015625,89.35546875,23.4375
1771543472.95075,33.203125,35.15625,-58.10546875,31.25,-29.296875
1771543472.9546564,49.31640625,35.15625,-42.48046875,49.31640625,-20.01953125
1771543472.9585626,114.74609375,29.78515625,-15.625,120.60546875,17.08984375
1771543472.9624689,118.1640625,28.3203125,-12.6953125,123.046875,28.80859375
1771543472.966375,45.41015625,41.50390625,-19.53125,41.9921875,35.15625
1771543472.9702814,15.625,47.8515625,-39.55078125,19.53125,1.953125
1771543472.9741876,79.58984375,40.0390625,-40.52734375,80.56640625,-3.90625
1771543472.9780939,113.76953125,43.9453125,-21.484375,99.12109375,1.953125
1771543472.980125,46.38671875,50.29296875,-39.55078125,33.69140625,22.94921875
1771543472.9840312,3.41796875,45.41015625,-70.80078125,0.0,56.15234375
1771543472.9879375,59.08203125,49.8046875,-40.0390625,54.19921875,59.5703125
1771543472.9918437,110.3515625,58.10546875,-5.37109375,94.7265625,89.84375
1771543472.99575,71.2890625,54.6875,-42.96875,59.5703125,80.56640625
1771543472.9996562,16.11328125,44.921875,-86.42578125,12.20703125,59.5703125
1771543473.0035625,53.22265625,38.0859375,-76.66015625,37.59765625,62.98828125
1771543473.0074687,102.5390625,45.8984375,-13.18359375,75.68359375,61.03515625
1771543473.011375,73.2421875,52.24609375,7.32421875,61.5234375,-2.44140625
1771543473.0152812,17.578125,43.45703125,-55.17578125,5.859375,10.25390625
1771543473.0191875,28.3203125,39.55078125,-49.8046875,17.08984375,56.640625
1771543473.0230937,83.49609375,44.921875,6.8359375,87.40234375,60.05859375
1771543473.040125,88.8671875,47.36328125,3.41796875,93.75,26.85546875
1771543473.0440311,34.1796875,39.0625,-48.828125,28.3203125,-32.71484375
1771543473.0479374,19.53125,35.15625,-54.19921875,6.34765625,-14.16015625
1771543473.0518436,74.70703125,39.55078125,-14.16015625,65.91796875,2.9296875
1771543473.05575,101.07421875,41.9921875,6.34765625,95.21484375,29.78515625
1771543473.0596561,38.0859375,33.203125,-54.19921875,41.015625,32.71484375
1771543473.0635624,-1.46484375,26.3671875,-81.54296875,-2.9296875,-4.8828125
1771543473.0674686,44.921875,31.73828125,-26.3671875,43.45703125,-1.46484375
1771543473.071375,87.890625,36.1328125,-12.20703125,96.19140625,25.390625
1771543473.0752811,56.640625,36.1328125,-57.6171875,55.6640625,85.9375
1771543473.0791874,0.48828125,34.66796875,-79.58984375,-14.16015625,76.171875
1771543473.0830936,18.06640625,33.203125,-41.9921875,19.53125,-30.2734375
1771543473.085125,80.56640625,33.69140625,-17.578125,82.03125,6.34765625
1771543473.0890312,67.3828125,33.203125,-28.80859375,46.875,84.47265625
1771543473.0929375,-0.9765625,31.73828125,-54.6875,-11.71875,36.1328125
1771543473.0968437,8.7890625,31.25,-37.109375,10.25390625,36.62109375
1771543473.10075,69.82421875,31.25,-8.30078125,63.96484375,4.39453125
1771543473.1046562,84.47265625,35.64453125,-1.46484375,77.63671875,55.6640625
1771543473.1085625,23.92578125,31.25,-31.25,23.4375,111.81640625
1771543473.1124687,-3.90625,27.34375,-39.0625,-1.953125,41.015625
1771543473.116375,47.36328125,30.2734375,-10.7421875,46.875,26.85546875
1771543473.1202812,84.9609375,30.76171875,5.859375,76.66015625,58.10546875
1771543473.1241875,35.64453125,29.78515625,-24.90234375,24.90234375,30.2734375
1771543473.1280937,-12.6953125,23.92578125,-48.828125,-10.7421875,17.08984375
1771543473.130125,34.66796875,25.87890625,-21.484375,30.76171875,20.01953125
1771543473.1340313,83.49609375,29.296875,6.8359375,73.2421875,0.48828125
1771543473.1379375,49.31640625,31.25,2.9296875,43.9453125,-16.6015625
1771543473.1418438,-2.9296875,32.2265625,-29.78515625,-11.71875,-11.23046875
1771543473.14575,19.53125,31.73828125,-25.390625,8.30078125,76.171875
1771543473.1496563,72.75390625,32.2265625,7.8125,67.3828125,113.28125
1771543473.1535625,64.453125,35.15625,26.85546875,65.4296875,33.203125
1771543473.1574688,-1.46484375,34.1796875,-17.578125,0.48828125,-10.7421875
1771543473.161375,-10.25390625,26.85546875,-42.48046875,-9.765625,7.8125
1771543473.1652813,62.01171875,30.76171875,4.39453125,54.6875,10.25390625
1771543473.1691875,83.49609375,37.59765625,29.296875,76.66015625,6.8359375
1771543473.1730938,17.578125,32.2265625,-16.6015625,15.13671875,12.20703125
1771543473.175125,-9.765625,25.87890625,-57.12890625,-16.11328125,23.4375
1771543473.1790311,37.59765625,27.34375,-15.625,37.109375,61.5234375
1771543473.1829374,67.3828125,30.2734375,27.34375,74.70703125,89.84375
1771543473.1868436,25.390625,24.4140625,-20.5078125,28.3203125,46.875
1771543473.19075,-24.90234375,23.4375,-60.05859375,-27.83203125,14.6484375
1771543473.1946561,3.90625,23.4375,-30.76171875,5.859375,30.76171875
1771543473.1985624,64.94140625,22.94921875,14.6484375,67.87109375,-13.18359375
1771543473.2024686,53.22265625,24.4140625,8.30078125,51.7578125,-10.7421875
1771543473.206375,-5.37109375,17.08984375,-52.734375,-5.37109375,2.9296875
1771543473.2102811,4.8828125,20.99609375,-18.06640625,-6.34765625,39.0625
1771543473.2141874,67.3828125,32.71484375,43.45703125,44.921875,66.89453125
1771543473.2180936,72.265625,36.62109375,26.3671875,66.40625,26.3671875
1771543473.220125,20.01953125,38.57421875,-9.27734375,11.23046875,24.4140625
1771543473.2240312,19.04296875,45.8984375,-2.9296875,-4.8828125,9.765625
1771543473.2279375,79.1015625,50.29296875,46.875,63.4765625,61.5234375
1771543473.2318437,85.44921875,44.43359375,66.89453125,87.40234375,68.84765625
1771543473.23575,11.71875,38.57421875,30.2734375,19.53125,4.8828125
1771543473.2396562,-28.80859375,32.2265625,13.671875,-13.18359375,54.6875
1771543473.2435625,18.06640625,32.71484375,53.7109375,47.36328125,76.171875
1771543473.2474687,75.68359375,32.2265625,72.75390625,92.28515625,46.38671875
1771543473.251375,43.9453125,24.4140625,45.8984375,42.96875,32.71484375
1771543473.2552812,-14.16015625,23.92578125,61.03515625,-6.34765625,23.4375
1771543473.2591875,12.6953125,27.34375,89.35546875,32.2265625,42.48046875
1771543473.2630937,60.546875,32.71484375,111.328125,83.0078125,47.8515625
1771543473.264125,46.38671875,33.69140625,104.4921875,65.91796875,33.69140625
1771543473.2680314,-5.859375,31.73828125,61.5234375,7.32421875,8.30078125
1771543473.2719376,-6.8359375,29.78515625,53.7109375,16.6015625,-29.296875
1771543473.2758439,57.6171875,29.296875,92.28515625,81.0546875,-24.90234375
1771543473.27975,69.3359375,33.69140625,109.375,86.42578125,-1.953125
1771543473.2836564,1.46484375,30.2734375,71.2890625,24.4140625,39.55078125
1771543473.2875626,-13.18359375,27.83203125,68.84765625,6.34765625,103.515625
1771543473.2914689,42.96875,26.85546875,87.40234375,67.87109375,59.5703125
1771543473.295375,80.56640625,29.296875,115.72265625,94.23828125,7.8125
1771543473.2992814,45.41015625,34.66796875,111.81640625,38.57421875,20.01953125
1771543473.3031876,5.37109375,32.71484375,66.89453125,5.37109375,34.1796875
1771543473.3070939,47.8515625,37.109375,109.86328125,45.8984375,113.28125
1771543473.325125,98.14453125,42.48046875,140.13671875,93.75,65.4296875
1771543473.3290312,64.94140625,39.0625,97.16796875,75.68359375,-4.39453125
1771543473.3329375,5.37109375,37.59765625,47.8515625,22.94921875,-16.11328125
1771543473.3368437,26.85546875,45.8984375,62.5,28.80859375,-24.4140625
1771543473.34075,83.0078125,47.36328125,104.4921875,79.58984375,25.390625
1771543473.3446562,77.63671875,44.43359375,85.9375,96.6796875,39.55078125
1771543473.3485625,24.90234375,36.1328125,21.97265625,30.76171875,43.9453125
1771543473.3524687,14.16015625,31.73828125,33.203125,12.20703125,52.24609375
1771543473.356375,71.2890625,42.96875,96.19140625,83.49609375,63.4765625
1771543473.3602812,99.12109375,49.31640625,87.890625,96.6796875,29.296875
1771543473.3641875,37.109375,43.45703125,41.015625,32.2265625,14.16015625
1771543473.3680937,4.39453125,40.52734375,19.04296875,11.71875,24.4140625
1771543473.355125,58.59375,47.36328125,59.08203125,69.82421875,9.765625
1771543473.3590312,103.515625,50.29296875,68.84765625,109.375,-13.671875
1771543473.3629375,70.3125,45.8984375,25.87890625,65.4296875,-31.73828125
1771543473.3668437,13.671875,41.9921875,24.4140625,14.6484375,9.765625
1771543473.37075,42.48046875,43.9453125,51.26953125,49.8046875,17.08984375
1771543473.3746562,102.5390625,47.8515625,54.6875,102.05078125,21.484375
1771543473.3785625,80.56640625,49.8046875,40.0390625,76.66015625,56.15234375
1771543473.3824687,13.18359375,44.921875,8.7890625,12.20703125,41.015625
1771543473.386375,27.83203125,43.45703125,13.671875,30.76171875,20.99609375
1771543473.3902812,93.26171875,50.29296875,37.59765625,94.7265625,127.44140625
1771543473.3941875,96.6796875,45.8984375,-8.7890625,97.16796875,113.76953125
1771543473.3980937,29.78515625,44.43359375,-32.2265625,27.34375,12.6953125
1771543473.401125,5.859375,50.78125,-0.9765625,4.39453125,-3.41796875
1771543473.4050312,65.91796875,52.24609375,28.3203125,58.59375,31.25
1771543473.4089375,104.00390625,52.24609375,44.43359375,87.890625,58.59375
1771543473.4128437,34.1796875,48.33984375,8.7890625,31.25,-2.44140625
1771543473.41675,-14.16015625,44.43359375,-8.7890625,-6.34765625,32.71484375
1771543473.4206562,32.2265625,41.9921875,-4.39453125,40.52734375,81.54296875
1771543473.4245625,74.21875,47.36328125,14.6484375,73.2421875,18.5546875
1771543473.4284687,36.1328125,52.24609375,24.90234375,39.0625,-23.92578125
1771543473.432375,-10.7421875,47.36328125,-7.8125,-13.671875,17.08984375
1771543473.4362812,35.64453125,48.828125,6.8359375,20.99609375,75.1953125
1771543473.4401875,93.26171875,51.7578125,42.48046875,84.9609375,32.71484375
1771543473.4440937,80.078125,51.26953125,30.76171875,72.75390625,8.7890625
1771543473.460125,15.13671875,46.875,-30.76171875,5.37109375,41.50390625
1771543473.4640312,20.5078125,45.8984375,-39.0625,12.6953125,-3.41796875
1771543473.4679375,86.9140625,48.828125,12.6953125,76.66015625,-23.92578125
1771543473.4718437,99.609375,50.78125,28.3203125,95.21484375,18.5546875
1771543473.47575,44.43359375,50.78125,-20.99609375,48.33984375,17.578125
1771543473.4796562,14.6484375,46.38671875,-50.29296875,24.90234375,18.5546875
1771543473.4835625,65.4296875,45.8984375,7.8125,82.51953125,87.890625
1771543473.4874687,99.12109375,49.31640625,45.41015625,101.5625,63.96484375
1771543473.491375,50.78125,42.48046875,-11.71875,52.24609375,41.50390625
1771543473.4952812,13.671875,33.69140625,-58.59375,16.6015625,62.01171875
1771543473.4991875,50.29296875,42.48046875,-3.41796875,48.828125,5.859375
1771543473.5030937,95.703125,49.8046875,37.109375,91.796875,-21.484375
1771543473.504125,62.01171875,43.9453125,1.46484375,60.546875,20.99609375
1771543473.5080314,-12.20703125,37.109375,-41.50390625,2.9296875,60.546875
1771543473.5119376,-0.48828125,36.1328125,-21.97265625,18.5546875,60.05859375
1771543473.5158439,66.40625,39.55078125,13.18359375,72.265625,49.8046875
1771543473.51975,64.94140625,39.55078125,-18.5546875,67.3828125,-8.7890625
1771543473.5236564,-0.48828125,34.66796875,-56.15234375,4.8828125,20.5078125
1771543473.5275626,1.953125,34.66796875,-42.48046875,-8.30078125,38.0859375
1771543473.5314689,64.94140625,44.43359375,-0.9765625,55.6640625,48.33984375
1771543473.535375,90.33203125,42.48046875,-24.4140625,82.51953125,74.21875
1771543473.5392814,26.85546875,34.66796875,-78.125,15.625,7.8125
1771543473.5431876,-15.625,38.57421875,-51.26953125,-10.25390625,-13.671875
1771543473.5470939,42.48046875,42.96875,-14.6484375,51.26953125,38.57421875
1771543473.549125,89.84375,44.921875,-5.37109375,92.7734375,48.33984375
1771543473.5530312,40.52734375,40.0390625,-41.015625,53.7109375,16.6015625
1771543473.5569375,2.44140625,35.64453125,-69.3359375,2.44140625,28.80859375
1771543473.5608437,46.875,35.64453125,-45.8984375,40.0390625,52.24609375
1771543473.56475,92.28515625,37.109375,-24.4140625,88.8671875,3.41796875
1771543473.5686562,67.3828125,38.0859375,-45.41015625,54.6875,22.4609375
1771543473.5725625,1.953125,36.1328125,-95.21484375,6.34765625,52.24609375
1771543473.5764687,22.4609375,35.15625,-96.6796875,27.34375,-6.34765625
1771543473.580375,82.51953125,37.109375,-71.77734375,71.2890625,65.91796875
1771543473.5842812,82.03125,37.109375,-50.29296875,72.265625,80.078125
1771543473.5881875,21.97265625,37.109375,-61.03515625,24.4140625,62.98828125
1771543473.5920937,20.01953125,35.64453125,-91.796875,25.390625,53.22265625
1771543473.596125,78.125,37.59765625,-59.08203125,78.61328125,4.39453125
1771543473.6000311,77.63671875,41.9921875,-34.1796875,84.9609375,30.2734375
1771543473.6039374,17.578125,37.109375,-80.56640625,30.76171875,27.34375
1771543473.6078436,5.37109375,34.66796875,-100.09765625,20.99609375,37.109375
1771543473.61175,53.7109375,41.015625,-62.98828125,58.10546875,56.640625
1771543473.6156561,78.61328125,41.015625,-46.875,76.171875,29.78515625
1771543473.6195624,45.41015625,42.96875,-62.01171875,52.734375,97.65625
1771543473.6234686,2.9296875,34.1796875,-108.88671875,-7.32421875,84.47265625
1771543473.627375,22.4609375,28.3203125,-92.7734375,9.27734375,5.859375
1771543473.6312811,66.89453125,39.55078125,-25.390625,70.80078125,-0.48828125
1771543473.6351874,61.03515625,41.50390625,-37.109375,56.15234375,6.34765625
1771543473.6390936,8.30078125,32.2265625,-97.16796875,-13.671875,15.625
1771543473.640125,9.27734375,29.296875,-74.21875,4.8828125,12.6953125
1771543473.6440313,67.3828125,39.55078125,-0.9765625,78.61328125,32.2265625
1771543473.6479375,82.51953125,44.921875,-10.7421875,87.890625,12.20703125
1771543473.6518438,26.85546875,41.50390625,-62.98828125,31.25,-26.3671875
1771543473.65575,15.625,42.96875,-64.453125,15.13671875,5.859375
1771543473.6596563,65.91796875,49.31640625,-27.83203125,69.3359375,34.66796875
1771543473.6635625,102.05078125,50.78125,-16.6015625,95.703125,52.24609375
1771543473.6674688,54.6875,45.41015625,-67.87109375,45.8984375,70.80078125
1771543473.671375,3.41796875,43.9453125,-76.66015625,-0.48828125,37.109375
1771543473.6752813,54.19921875,49.8046875,-23.92578125,53.22265625,39.0625
1771543473.6791875,110.83984375,51.7578125,-25.390625,96.19140625,27.34375
1771543473.6830938,70.80078125,51.26953125,-53.22265625,60.05859375,76.171875
1771543473.685125,5.37109375,51.26953125,-57.12890625,11.23046875,68.84765625
1771543473.6890314,32.71484375,58.10546875,-41.9921875,34.1796875,38.0859375
1771543473.6929376,85.44921875,58.10546875,-20.5078125,89.84375,65.4296875
1771543473.6968439,81.0546875,53.22265625,-23.92578125,73.2421875,44.921875
1771543473.70075,23.92578125,48.828125,-64.94140625,5.859375,17.578125
1771543473.7046564,20.99609375,49.31640625,-72.75390625,20.99609375,-4.8828125
1771543473.7085626,77.1484375,45.8984375,-41.015625,89.35546875,54.6875
1771543473.7124689,97.16796875,41.015625,-24.90234375,97.65625,80.56640625
1771543473.716375,40.0390625,49.8046875,-45.8984375,32.71484375,-3.41796875
1771543473.7202814,6.8359375,51.7578125,-75.68359375,-2.9296875,-2.9296875
1771543473.7241876,69.3359375,54.6875,-58.59375,57.6171875,0.9765625
1771543473.7280939,103.02734375,59.5703125,-33.203125,92.28515625,-40.0390625
1771543473.731125,41.50390625,50.29296875,-71.77734375,38.0859375,-44.921875
1771543473.7350314,2.9296875,48.828125,-104.4921875,-4.8828125,-7.32421875
1771543473.7389376,39.0625,54.6875,-73.2421875,38.57421875,38.0859375
1771543473.7428439,87.890625,63.4765625,-31.25,92.28515625,67.3828125
1771543473.74675,73.73046875,64.94140625,-49.31640625,57.6171875,33.69140625
1771543473.7506564,13.671875,55.6640625,-92.28515625,0.0,62.98828125
1771543473.7545626,22.94921875,50.29296875,-87.890625,21.97265625,108.88671875
1771543473.7584689,88.8671875,57.6171875,-32.2265625,83.984375,29.78515625
1771543473.762375,91.796875,62.98828125,-8.30078125,81.54296875,30.76171875
1771543473.7662814,21.97265625,56.640625,-66.40625,12.6953125,37.109375
1771543473.7701876,10.25390625,54.6875,-71.77734375,12.20703125,0.48828125
1771543473.7740939,73.73046875,59.5703125,-17.578125,74.70703125,31.25
1771543473.790125,105.95703125,63.96484375,-1.953125,94.7265625,89.84375
1771543473.7940311,43.9453125,59.08203125,-57.6171875,44.43359375,35.15625
1771543473.7979374,2.44140625,52.734375,-75.68359375,4.39453125,42.48046875
1771543473.8018436,60.05859375,55.17578125,-42.48046875,53.7109375,27.34375
1771543473.80575,102.5390625,56.640625,-12.20703125,101.07421875,5.37109375
1771543473.8096561,55.6640625,48.828125,-61.5234375,50.29296875,45.41015625
1771543473.8135624,7.8125,40.52734375,-105.46875,-7.8125,46.38671875
1771543473.8174686,45.41015625,48.33984375,-35.15625,31.25,70.3125
1771543473.821375,95.21484375,53.22265625,7.8125,98.14453125,71.2890625
1771543473.8252811,69.82421875,47.8515625,-27.83203125,73.2421875,5.37109375
1771543473.8291874,7.32421875,47.36328125,-58.10546875,0.0,13.671875
1771543473.8330936,24.90234375,50.29296875,-38.57421875,15.625,57.12890625
1771543473.835125,78.61328125,48.33984375,-6.8359375,78.61328125,59.5703125
1771543473.8390312,69.82421875,41.015625,-7.32421875,80.078125,49.31640625
1771543473.8429375,3.90625,34.66796875,-43.45703125,15.625,29.78515625
1771543473.8468437,-13.671875,34.66796875,-52.24609375,-5.859375,20.99609375
1771543473.85075,53.22265625,35.64453125,-15.13671875,50.29296875,53.7109375
1771543473.8546562,85.9375,36.62109375,-11.23046875,77.63671875,30.76171875
1771543473.8585625,21.484375,35.15625,-55.6640625,16.6015625,-26.85546875
1771543473.8624687,-23.92578125,30.76171875,-64.94140625,-21.97265625,-5.37109375
1771543473.866375,24.90234375,31.73828125,-24.90234375,35.15625,45.8984375
1771543473.8702812,82.03125,33.69140625,-18.5546875,81.0546875,95.703125
1771543473.8741875,50.78125,36.1328125,-31.25,41.9921875,76.171875
1771543473.8780937,-5.37109375,35.64453125,-40.0390625,-14.6484375,17.578125
1771543473.879125,24.4140625,33.69140625,-34.66796875,17.08984375,16.6015625
1771543473.8830314,87.40234375,40.0390625,-0.9765625,83.0078125,-10.25390625
1771543473.8869376,82.03125,42.48046875,6.34765625,72.265625,6.8359375
1771543473.8908439,16.6015625,38.57421875,-36.1328125,18.06640625,50.29296875
1771543473.89475,12.20703125,36.1328125,-41.50390625,27.83203125,22.94921875
1771543473.8986564,77.63671875,36.1328125,-0.9765625,85.44921875,27.83203125
1771543473.9025626,97.16796875,38.0859375,8.7890625,105.46875,16.11328125
1771543473.9064689,36.1328125,37.109375,-18.5546875,38.57421875,48.33984375
1771543473.910375,11.23046875,31.25,-50.29296875,10.25390625,32.2265625
1771543473.9142814,64.453125,35.15625,-3.41796875,63.96484375,54.19921875
1771543473.9181876,103.02734375,45.8984375,48.828125,96.6796875,93.75
1771543473.9220939,50.78125,46.38671875,3.90625,52.24609375,76.66015625
1771543473.939125,-16.6015625,34.66796875,-51.26953125,-6.34765625,77.63671875
1771543473.9430313,21.97265625,38.0859375,-13.18359375,17.578125,103.02734375
1771543473.9469376,90.33203125,49.31640625,39.0625,70.80078125,48.828125
1771543473.9508438,59.5703125,46.38671875,4.8828125,53.7109375,-1.46484375
1771543473.95475,-7.8125,46.38671875,-42.96875,2.9296875,-23.92578125
1771543473.9586563,6.34765625,46.875,-19.04296875,10.7421875,-21.97265625
1771543473.9625626,63.4765625,46.38671875,39.55078125,58.59375,28.80859375
1771543473.9664688,67.87109375,43.45703125,25.390625,58.59375,17.08984375
1771543473.970375,-1.46484375,32.2265625,-42.96875,-13.18359375,-2.44140625
1771543473.9742813,-15.13671875,33.69140625,-10.7421875,-14.6484375,38.57421875
1771543473.9781876,55.17578125,41.015625,39.55078125,51.26953125,55.17578125
1771543473.9820938,76.66015625,41.015625,20.01953125,71.77734375,24.90234375
1771543473.970125,20.01953125,39.0625,-20.5078125,14.16015625,-9.765625
1771543473.9740312,-3.41796875,41.50390625,-7.8125,-5.859375,46.875
1771543473.9779375,53.7109375,42.48046875,32.2265625,60.546875,87.40234375
1771543473.9818437,94.23828125,44.921875,41.015625,97.16796875,56.15234375
1771543473.98575,48.828125,46.38671875,10.25390625,53.7109375,40.52734375
1771543473.9896562,6.8359375,40.0390625,-18.5546875,9.765625,22.94921875
1771543473.9935625,49.8046875,41.50390625,13.671875,48.33984375,35.15625
1771543473.9974687,113.28125,48.828125,51.7578125,110.83984375,31.25
1771543474.001375,85.44921875,47.36328125,30.2734375,81.0546875,-6.34765625
1771543474.0052812,10.7421875,41.9921875,-2.44140625,9.27734375,44.43359375
1771543474.0091875,23.92578125,43.45703125,5.859375,28.80859375,121.58203125
1771543474.0130937,78.125,38.57421875,3.41796875,82.51953125,81.54296875
1771543474.016125,80.078125,34.66796875,-10.25390625,79.58984375,51.26953125
1771543474.0200312,19.04296875,37.109375,-12.6953125,21.484375,77.63671875
1771543474.0239375,0.9765625,41.50390625,-18.5546875,7.32421875,28.80859375
1771543474.0278437,51.7578125,44.921875,2.44140625,60.05859375,13.18359375
1771543474.03175,70.80078125,43.45703125,28.3203125,84.47265625,63.96484375
1771543474.0356562,23.4375,37.109375,-21.484375,35.15625,23.92578125
1771543474.0395625,-5.859375,31.73828125,-54.6875,-2.9296875,16.6015625
1771543474.0434687,39.0625,31.73828125,-34.66796875,30.2734375,42.96875
1771543474.047375,83.984375,40.52734375,10.25390625,80.078125,19.04296875
1771543474.0512812,48.33984375,45.8984375,6.8359375,45.8984375,53.22265625
1771543474.0551875,-9.27734375,37.109375,-50.29296875,-15.625,44.43359375
1771543474.0590937,16.11328125,33.69140625,-37.59765625,22.4609375,-14.16015625
1771543474.060125,76.171875,39.55078125,9.27734375,81.0546875,0.0
1771543474.0640314,68.84765625,42.96875,-11.71875,53.22265625,14.16015625
1771543474.0679376,1.46484375,31.25,-71.77734375,-14.16015625,-4.39453125
1771543474.0718439,0.48828125,27.83203125,-65.91796875,-3.90625,-4.39453125
1771543474.07575,62.98828125,33.203125,-6.8359375,54.6875,44.43359375
1771543474.0796564,68.84765625,31.25,-13.18359375,55.17578125,57.12890625
1771543474.0835626,11.23046875,25.390625,-81.0546875,-2.9296875,50.29296875
1771543474.0874689,-6.34765625,18.5546875,-98.6328125,-12.20703125,-0.48828125
1771543474.091375,44.921875,26.85546875,-10.7421875,47.8515625,-13.18359375
1771543474.0952814,74.70703125,31.73828125,13.671875,65.4296875,-48.828125
1771543474.0991876,17.578125,29.296875,-41.9921875,10.7421875,-62.5
1771543474.1030939,-21.484375,24.90234375,-49.8046875,-20.5078125,26.3671875
1771543474.105125,15.625,21.484375,-16.6015625,19.53125,28.80859375
1771543474.1090312,61.5234375,24.4140625,1.953125,65.4296875,22.4609375
1771543474.1129375,33.203125,20.01953125,-31.73828125,37.109375,28.80859375
1771543474.1168437,-29.78515625,15.625,-69.3359375,-28.80859375,12.20703125
1771543474.12075,-10.7421875,15.625,-46.875,-11.23046875,61.5234375
1771543474.1246562,51.7578125,16.6015625,-23.92578125,42.48046875,90.33203125
1771543474.1285625,50.29296875,13.18359375,-71.77734375,31.73828125,-19.53125
1771543474.1324687,-27.83203125,8.7890625,-84.47265625,-28.80859375,12.20703125
1771543474.136375,-31.73828125,12.20703125,-42.96875,-34.66796875,68.359375
1771543474.1402812,35.15625,17.578125,-39.55078125,26.3671875,-20.99609375
1771543474.1441875,44.921875,17.578125,-27.83203125,54.6875,32.71484375
1771543474.1480937,-15.13671875,9.27734375,-51.26953125,-12.6953125,73.2421875
1771543474.165125,-29.296875,5.37109375,-77.63671875,-48.33984375,63.4765625
1771543474.1690311,23.4375,6.8359375,-50.29296875,15.13671875,51.26953125
1771543474.1729374,54.19921875,10.25390625,-15.625,49.8046875,29.296875
1771543474.1768436,11.71875,13.18359375,-41.015625,3.90625,57.6171875
1771543474.18075,-29.78515625,10.7421875,-78.125,-38.0859375,44.921875
1771543474.1846561,7.8125,6.34765625,-76.171875,2.9296875,23.92578125
1771543474.1885624,69.82421875,11.71875,-43.9453125,53.7109375,62.01171875
1771543474.1924686,46.875,17.08984375,-39.55078125,33.69140625,42.96875
1771543474.196375,-23.4375,12.20703125,-83.984375,-16.6015625,23.4375
1771543474.2002811,-4.39453125,11.23046875,-74.21875,-5.37109375,36.62109375
1771543474.2041874,56.640625,17.08984375,-42.96875,53.22265625,13.18359375
1771543474.2080936,49.31640625,20.5078125,-48.828125,62.5,19.04296875
1771543474.210125,-11.71875,12.20703125,-95.703125,0.9765625,29.78515625
1771543474.2140312,-20.99609375,8.7890625,-101.07421875,-8.30078125,26.3671875
1771543474.2179375,43.9453125,17.08984375,-49.31640625,62.98828125,61.5234375
1771543474.2218437,72.265625,23.4375,-23.92578125,87.40234375,64.94140625
1771543474.22575,17.08984375,20.5078125,-70.3125,17.08984375,30.2734375
1771543474.2296562,-18.5546875,14.6484375,-102.05078125,-18.06640625,13.671875
1771543474.2335625,25.87890625,21.484375,-57.12890625,30.76171875,14.6484375
1771543474.2374687,77.1484375,32.71484375,-14.6484375,72.75390625,-9.27734375
1771543474.241375,39.0625,29.78515625,-49.31640625,33.69140625,2.9296875
1771543474.2452812,-21.484375,22.94921875,-109.86328125,-20.99609375,0.0
1771543474.2491875,12.6953125,27.34375,-59.08203125,17.578125,-50.29296875
1771543474.2530937,77.63671875,40.52734375,12.6953125,82.03125,-31.25
1771543474.254125,72.75390625,40.52734375,-20.99609375,69.82421875,4.8828125
1771543474.2580314,3.41796875,28.80859375,-67.3828125,11.23046875,-44.43359375
1771543474.2619376,-15.13671875,30.2734375,-27.34375,-8.7890625,-42.48046875
1771543474.2658439,36.62109375,37.109375,20.01953125,43.9453125,37.59765625
1771543474.26975,57.12890625,35.15625,4.8828125,78.125,49.8046875
1771543474.2736564,-8.30078125,27.34375,-37.59765625,7.8125,55.6640625
1771543474.2775626,-39.0625,19.53125,-39.0625,-39.0625,39.0625
1771543474.2814689,16.11328125,22.94921875,11.23046875,16.11328125,-8.7890625
1771543474.285375,50.29296875,27.83203125,13.18359375,62.5,22.94921875
1771543474.2892814,-10.25390625,20.5078125,-31.73828125,2.9296875,41.9921875
1771543474.2931876,-56.15234375,18.5546875,-7.32421875,-47.36328125,48.828125
1771543474.2970939,9.765625,21.97265625,27.83203125,10.7421875,89.84375
1771543474.299125,60.546875,21.97265625,44.921875,51.7578125,92.28515625
1771543474.3030312,27.83203125,24.4140625,21.97265625,21.97265625,70.80078125
1771543474.3069375,-18.5546875,21.97265625,-11.71875,-21.97265625,52.24609375
1771543474.3108437,1.953125,20.01953125,4.39453125,6.34765625,81.54296875
1771543474.31475,52.734375,24.4140625,34.66796875,64.94140625,130.859375
1771543474.3186562,36.62109375,21.484375,24.90234375,51.7578125,67.87109375
1771543474.3225625,-20.01953125,20.99609375,-18.06640625,-3.90625,-13.671875
1771543474.3264687,-10.7421875,23.4375,-9.27734375,-2.9296875,32.2265625
1771543474.330375,50.78125,23.4375,16.6015625,56.640625,79.58984375
1771543474.3342812,70.3125,30.76171875,49.8046875,71.77734375,58.10546875
1771543474.3381875,10.25390625,31.73828125,17.578125,9.765625,30.2734375
1771543474.3420937,-14.6484375,23.4375,-34.66796875,-15.625,-22.94921875
1771543474.344125,41.9921875,25.390625,8.7890625,43.45703125,-14.6484375
1771543474.3480313,69.3359375,33.69140625,49.8046875,84.9609375,55.17578125
1771543474.3519375,24.90234375,33.69140625,4.8828125,29.296875,22.4609375
1771543474.3558438,-12.20703125,25.390625,-41.50390625,-22.94921875,39.0625
1771543474.35975,28.80859375,27.34375,-1.953125,21.484375,17.08984375
1771543474.3636563,76.171875,34.1796875,39.55078125,75.68359375,-14.6484375
1771543474.3675625,47.36328125,32.71484375,23.4375,56.640625,24.4140625
1771543474.3714688,-7.8125,29.78515625,-25.87890625,4.8828125,30.2734375
1771543474.375375,7.8125,34.66796875,-13.18359375,18.5546875,62.98828125
1771543474.3792813,65.91796875,41.015625,64.453125,69.82421875,102.5390625
1771543474.3831875,83.49609375,36.62109375,44.43359375,79.1015625,86.42578125
1771543474.3870938,19.04296875,26.85546875,-33.203125,25.87890625,0.0
1771543474.390125,3.90625,27.83203125,-38.57421875,13.671875,32.71484375
1771543474.3940313,59.08203125,35.64453125,3.41796875,70.80078125,66.89453125
1771543474.3979375,81.54296875,38.0859375,-4.39453125,93.26171875,27.83203125
1771543474.4018438,44.921875,33.203125,-56.640625,31.25,28.3203125
1771543474.40575,-2.44140625,29.78515625,-62.98828125,-5.37109375,45.8984375
1771543474.4096563,33.69140625,30.76171875,-35.64453125,45.8984375,23.92578125
1771543474.4135625,79.1015625,33.69140625,-4.8828125,93.26171875,30.76171875
1771543474.4174688,43.45703125,29.78515625,-43.9453125,52.24609375,80.56640625
1771543474.421375,-11.71875,26.3671875,-73.73046875,-8.7890625,-0.48828125
1771543474.4252813,15.13671875,35.15625,-18.06640625,21.484375,-33.203125
1771543474.4291875,72.265625,38.57421875,0.0,86.9140625,23.4375
1771543474.4330938,56.15234375,31.73828125,-34.1796875,61.03515625,0.9765625
1771543474.435125,-13.671875,27.34375,-73.73046875,-16.6015625,-30.76171875
1771543474.4390314,-1.46484375,29.296875,-64.453125,0.9765625,-11.71875
1771543474.4429376,58.10546875,31.73828125,-31.73828125,65.91796875,37.59765625
1771543474.4468439,51.7578125,32.71484375,-30.76171875,71.2890625,61.5234375
1771543474.45075,-9.27734375,27.34375,-78.61328125,9.765625,33.203125
1771543474.4546564,-21.97265625,24.4140625,-95.703125,-6.8359375,38.0859375
1771543474.4585626,48.33984375,23.4375,-72.75390625,46.875,56.15234375
1771543474.4624689,90.33203125,27.34375,-48.33984375,83.0078125,64.94140625
1771543474.466375,31.25,34.66796875,-45.41015625,32.71484375,32.71484375
1771543474.4702814,-5.859375,37.109375,-62.98828125,-16.6015625,56.640625
1771543474.4741876,46.875,33.203125,-49.8046875,23.4375,89.35546875
1771543474.4780939,89.84375,27.83203125,-13.18359375,72.75390625,75.68359375
1771543474.480125,44.921875,23.92578125,-31.25,40.0390625,44.921875
1771543474.4840312,-5.37109375,20.01953125,-80.078125,-6.34765625,-7.8125
1771543474.4879375,11.71875,19.04296875,-60.546875,24.4140625,58.10546875
1771543474.4918437,53.22265625,26.3671875,-20.01953125,77.63671875,59.08203125
1771543474.49575,53.22265625,31.73828125,-34.66796875,67.3828125,4.8828125
1771543474.4996562,-3.41796875,22.94921875,-89.84375,1.46484375,17.578125
1771543474.5035625,-1.46484375,16.11328125,-104.00390625,2.9296875,35.64453125
1771543474.5074687,57.6171875,27.34375,-37.109375,65.91796875,35.64453125
1771543474.511375,65.4296875,37.109375,2.9296875,74.21875,59.5703125
1771543474.5152812,4.8828125,26.85546875,-63.4765625,8.30078125,54.19921875
1771543474.5191875,-6.34765625,19.53125,-86.42578125,-16.6015625,40.52734375
1771543474.5230937,45.41015625,25.390625,-30.76171875,55.17578125,49.31640625
1771543474.540125,73.73046875,29.78515625,-6.8359375,90.8203125,43.45703125
1771543474.5440311,33.203125,23.4375,-66.89453125,22.94921875,60.05859375
1771543474.5479374,-12.6953125,16.6015625,-102.5390625,-20.99609375,73.73046875
1771543474.5518436,25.87890625,23.4375,-56.640625,20.01953125,17.08984375
1771543474.55575,83.984375,31.73828125,-22.94921875,75.68359375,13.671875
1771543474.5596561,61.03515625,25.390625,-77.1484375,56.15234375,32.71484375
1771543474.5635624,-12.6953125,16.6015625,-124.51171875,-15.13671875,12.20703125
1771543474.5674686,10.25390625,21.484375,-58.10546875,12.20703125,42.96875
1771543474.571375,75.1953125,25.390625,-13.18359375,76.171875,61.03515625
1771543474.5752811,62.01171875,26.3671875,-27.34375,70.80078125,53.22265625
1771543474.5791874,5.37109375,22.4609375,-62.5,8.30078125,72.265625
1771543474.5830936,4.8828125,20.5078125,-60.546875,-6.8359375,62.98828125
1771543474.585125,61.03515625,23.4375,-27.34375,55.6640625,9.27734375
1771543474.5890312,88.8671875,29.296875,-4.39453125,78.61328125,43.9453125
1771543474.5929375,27.34375,30.76171875,-24.90234375,18.06640625,61.5234375
1771543474.5968437,-6.8359375,26.85546875,-43.9453125,-9.765625,23.4375
1771543474.60075,41.015625,27.83203125,-17.08984375,39.55078125,35.15625
1771543474.6046562,81.0546875,30.2734375,-2.9296875,72.265625,14.6484375
1771543474.6085625,34.1796875,30.76171875,-34.1796875,31.25,-18.06640625
1771543474.6124687,-23.4375,28.3203125,-46.38671875,-20.01953125,-15.625
1771543474.616375,19.53125,27.34375,-17.08984375,17.08984375,14.16015625
1771543474.6202812,66.89453125,27.34375,-3.90625,65.91796875,35.15625
1771543474.6241875,40.52734375,29.296875,2.44140625,38.57421875,19.04296875
1771543474.6280937,-15.625,26.85546875,-22.4609375,-5.859375,-24.90234375
1771543474.630125,-3.90625,23.92578125,-13.18359375,3.41796875,17.578125
1771543474.6340313,71.77734375,31.25,35.15625,51.7578125,77.63671875
1771543474.6379375,82.51953125,36.1328125,38.57421875,67.87109375,11.23046875
1771543474.6418438,1.46484375,39.0625,0.0,9.27734375,-48.33984375
1771543474.64575,-14.6484375,38.0859375,-9.27734375,-17.578125,24.90234375
1771543474.6496563,45.8984375,33.69140625,20.01953125,38.0859375,39.0625
1771543474.6535625,69.82421875,41.015625,56.640625,66.40625,63.96484375
1771543474.6574688,6.8359375,42.96875,31.73828125,2.9296875,57.12890625
1771543474.661375,-54.19921875,31.73828125,-31.25,-56.640625,-29.296875
1771543474.6652813,-24.90234375,36.62109375,-6.34765625,-21.484375,4.39453125
1771543474.6691875,18.06640625,47.36328125,69.82421875,32.2265625,33.203125
1771543474.6730938,-40.0390625,36.62109375,25.390625,-40.0390625,22.94921875
1771543474.690125,-118.65234375,27.83203125,-30.76171875,-134.765625,43.9453125
1771543474.6940312,-118.65234375,20.99609375,3.41796875,-136.71875,33.69140625
1771543474.6979375,-99.12109375,18.5546875,43.45703125,-104.00390625,-2.9296875
1771543474.7018437,-124.51171875,23.4375,8.7890625,-125.9765625,-36.62109375
1771543474.70575,-192.87109375,22.94921875,-64.453125,-212.40234375,-25.87890625
1771543474.7096562,-198.2421875,22.4609375,-62.98828125,-212.890625,-10.25390625
1771543474.7135625,-133.30078125,27.34375,-0.9765625,-140.625,28.80859375
1771543474.7174687,-112.3046875,34.1796875,1.46484375,-120.60546875,63.4765625
1771543474.721375,-166.9921875,25.87890625,-84.47265625,-179.19921875,31.25
1771543474.7252812,-173.33984375,27.83203125,-77.1484375,-197.265625,4.8828125
1771543474.7291875,-92.28515625,43.45703125,8.7890625,-116.69921875,45.8984375
1771543474.7330937,-47.8515625,44.921875,19.04296875,-54.6875,91.30859375
1771543474.719125,-80.078125,43.45703125,-20.01953125,-85.9375,73.2421875
1771543474.7230313,-103.515625,43.9453125,-36.62109375,-112.79296875,81.54296875
1771543474.7269375,-44.43359375,43.45703125,-14.16015625,-54.19921875,23.4375
1771543474.7308438,30.2734375,46.38671875,9.27734375,11.71875,-32.2265625
1771543474.73475,1.46484375,49.31640625,-5.859375,-1.46484375,28.80859375
1771543474.7386563,-50.78125,41.9921875,-45.41015625,-38.0859375,69.82421875
1771543474.7425625,-12.6953125,37.59765625,-17.578125,0.9765625,16.6015625
1771543474.7464688,66.40625,48.33984375,29.78515625,57.6171875,19.04296875
1771543474.750375,80.56640625,51.7578125,13.671875,56.15234375,-17.08984375
1771543474.7542813,29.78515625,48.33984375,-24.4140625,13.18359375,-10.7421875
1771543474.7581875,39.0625,51.26953125,-19.53125,19.04296875,20.01953125
1771543474.7620938,97.16796875,49.8046875,-2.9296875,79.1015625,44.43359375
1771543474.765125,125.0,49.31640625,2.9296875,108.3984375,60.05859375
1771543474.7690313,80.56640625,53.22265625,2.44140625,58.10546875,20.99609375
1771543474.7729375,45.41015625,48.828125,-15.13671875,35.64453125,20.99609375
1771543474.7768438,108.88671875,48.33984375,16.11328125,105.95703125,62.01171875
1771543474.78075,151.85546875,51.7578125,45.8984375,148.92578125,84.9609375
1771543474.7846563,103.515625,47.36328125,4.8828125,109.375,69.3359375
1771543474.7885625,62.01171875,40.0390625,-36.1328125,62.01171875,41.015625
1771543474.7924688,99.609375,39.55078125,-8.30078125,89.84375,21.97265625
1771543474.796375,152.34375,49.8046875,49.8046875,148.92578125,62.5
1771543474.8002813,120.1171875,51.7578125,21.484375,129.8828125,28.80859375
1771543474.8041875,58.59375,37.59765625,-43.45703125,65.4296875,18.06640625
1771543474.8080938,76.171875,28.80859375,-33.203125,73.73046875,50.29296875
1771543474.809125,143.06640625,37.59765625,25.390625,145.5078125,35.15625
1771543474.8130312,160.64453125,41.50390625,27.34375,148.92578125,39.55078125
1771543474.8169374,85.44921875,28.80859375,-41.50390625,69.3359375,59.5703125
1771543474.8208437,67.3828125,26.3671875,-40.0390625,67.87109375,40.52734375
1771543474.82475,135.25390625,35.64453125,25.87890625,135.7421875,26.3671875
1771543474.8286562,163.57421875,42.48046875,31.25,166.50390625,26.85546875
1771543474.8325624,105.95703125,34.1796875,-36.62109375,112.79296875,19.04296875
1771543474.8364687,60.546875,24.4140625,-50.29296875,59.5703125,20.01953125
1771543474.840375,111.328125,33.203125,32.2265625,97.16796875,29.296875
1771543474.8442812,165.52734375,40.52734375,59.08203125,151.3671875,38.0859375
1771543474.8481874,123.53515625,36.1328125,27.34375,111.328125,55.6640625
1771543474.8520937,54.6875,27.83203125,-15.625,47.36328125,55.6640625
1771543474.856125,87.890625,29.78515625,7.8125,83.49609375,30.76171875
1771543474.8600314,138.18359375,36.62109375,55.6640625,138.671875,34.1796875
1771543474.8639376,113.76953125,35.15625,22.94921875,112.3046875,30.2734375
1771543474.8678439,55.17578125,32.2265625,-10.25390625,44.43359375,45.41015625
1771543474.87175,62.98828125,32.2265625,-1.46484375,56.15234375,48.828125
1771543474.8756564,121.09375,33.69140625,16.6015625,114.74609375,-19.53125
1771543474.8795626,134.27734375,33.69140625,4.8828125,131.8359375,21.484375
1771543474.8834689,69.3359375,34.66796875,-23.4375,75.1953125,13.671875
1771543474.887375,52.24609375,38.0859375,-2.9296875,40.52734375,30.76171875
1771543474.8912814,116.2109375,37.59765625,22.4609375,93.75,67.87109375
1771543474.8951876,132.32421875,39.55078125,40.52734375,126.46484375,27.34375
1771543474.8990939,72.75390625,39.0625,11.23046875,79.58984375,-2.9296875
1771543474.901125,35.15625,35.64453125,-16.6015625,35.64453125,4.39453125
1771543474.9050312,83.49609375,37.109375,0.48828125,72.75390625,20.01953125
1771543474.9089375,118.1640625,40.0390625,23.4375,125.48828125,-2.44140625
1771543474.9128437,91.796875,41.9921875,17.578125,90.8203125,8.30078125
1771543474.91675,48.828125,37.109375,-31.73828125,26.3671875,11.23046875
1771543474.9206562,63.4765625,31.25,-43.9453125,53.22265625,13.671875
1771543474.9245625,120.60546875,35.64453125,-17.08984375,100.09765625,68.359375
1771543474.9284687,112.3046875,41.50390625,5.859375,84.47265625,40.0390625
1771543474.932375,41.015625,37.109375,-30.76171875,28.80859375,26.85546875
1771543474.9362812,39.0625,33.203125,-42.96875,29.296875,36.62109375
1771543474.9401875,101.5625,37.59765625,8.30078125,90.33203125,34.66796875
1771543474.9440937,123.046875,40.0390625,17.578125,113.76953125,-9.765625
1771543474.960125,60.05859375,36.62109375,-29.78515625,52.734375,10.7421875
1771543474.9640312,30.76171875,31.25,-43.9453125,20.5078125,27.83203125
1771543474.9679375,88.37890625,41.50390625,8.30078125,75.1953125,-24.4140625
1771543474.9718437,120.60546875,53.22265625,41.50390625,116.2109375,26.3671875
1771543474.97575,71.77734375,43.9453125,-7.32421875,69.3359375,18.5546875
1771543474.9796562,29.296875,28.80859375,-71.77734375,8.30078125,22.94921875
1771543474.9835625,60.546875,30.76171875,-17.08984375,40.52734375,58.59375
1771543474.9874687,104.98046875,39.55078125,58.59375,96.6796875,58.59375
1771543474.991375,72.265625,34.66796875,16.11328125,72.75390625,66.40625
1771543474.9952812,-4.8828125,25.87890625,-34.66796875,6.34765625,64.94140625
1771543474.9991875,15.13671875,26.85546875,1.46484375,17.578125,65.4296875
1771543475.0030937,72.265625,34.1796875,38.57421875,68.84765625,62.98828125
1771543475.004125,73.73046875,35.15625,15.625,66.89453125,40.0390625
1771543475.0080314,12.6953125,27.83203125,-30.76171875,2.44140625,29.296875
1771543475.0119376,2.9296875,24.4140625,-26.85546875,-5.859375,9.765625
1771543475.0158439,62.01171875,27.83203125,20.99609375,60.05859375,-4.8828125
1771543475.01975,81.54296875,27.83203125,25.87890625,83.0078125,32.2265625
1771543475.0236564,33.203125,23.92578125,-34.66796875,25.390625,11.71875
1771543475.0275626,-6.34765625,20.01953125,-49.8046875,-2.9296875,4.8828125
1771543475.0314689,39.0625,23.4375,8.7890625,39.55078125,32.2265625
1771543475.035375,83.0078125,27.83203125,18.5546875,75.1953125,66.40625
1771543475.0392814,47.8515625,20.99609375,-31.25,40.0390625,42.96875
1771543475.0431876,-1.46484375,22.4609375,-26.85546875,-11.71875,16.6015625
1771543475.0470939,34.1796875,25.87890625,4.39453125,20.99609375,33.203125
1771543475.050125,90.33203125,32.2265625,33.69140625,81.54296875,82.03125
1771543475.0540311,69.82421875,34.66796875,7.8125,66.89453125,83.49609375
1771543475.0579374,0.0,28.3203125,-34.1796875,-2.44140625,57.12890625
1771543475.0618436,13.18359375,27.83203125,-35.64453125,4.39453125,65.91796875
1771543475.06575,93.26171875,30.76171875,-6.8359375,65.91796875,67.87109375
1771543475.0696561,90.8203125,28.3203125,-0.9765625,85.44921875,42.96875
1771543475.0735624,14.16015625,29.296875,-49.8046875,13.18359375,31.25
1771543475.0774686,-1.46484375,33.69140625,-79.1015625,-17.08984375,-1.46484375
1771543475.081375,53.7109375,34.66796875,-53.22265625,61.5234375,17.578125
1771543475.0852811,90.8203125,36.1328125,-25.87890625,90.8203125,39.0625
1771543475.0891874,34.1796875,35.64453125,-53.22265625,22.4609375,-8.30078125
1771543475.0930936,-8.30078125,29.296875,-95.703125,-10.7421875,2.44140625
1771543475.094125,37.109375,24.4140625,-72.265625,37.109375,12.20703125
1771543475.0980313,86.42578125,28.80859375,-22.4609375,79.1015625,-11.71875
1771543475.1019375,54.6875,30.2734375,-54.19921875,46.38671875,22.94921875
1771543475.1058438,-4.39453125,21.97265625,-108.3984375,-12.20703125,32.71484375
1771543475.10975,27.34375,24.4140625,-89.84375,12.20703125,1.953125
1771543475.1136563,81.54296875,31.25,-53.22265625,78.61328125,59.5703125
1771543475.1175625,64.453125,29.296875,-53.7109375,63.4765625,118.1640625
1771543475.1214688,7.8125,19.04296875,-120.60546875,4.8828125,68.359375
1771543475.125375,9.765625,14.16015625,-119.62890625,7.8125,58.59375
1771543475.1292813,68.359375,25.87890625,-25.87890625,71.2890625,63.4765625
1771543475.1331875,79.1015625,26.85546875,-12.6953125,95.703125,27.34375
1771543475.1370938,19.53125,17.578125,-70.80078125,29.78515625,50.78125
1771543475.155125,-3.41796875,19.53125,-79.1015625,1.46484375,68.359375
1771543475.1590312,53.7109375,29.296875,-25.87890625,57.12890625,25.390625
1771543475.1629374,94.23828125,29.296875,-12.6953125,90.8203125,17.578125
1771543475.1668437,45.41015625,22.4609375,-59.5703125,45.8984375,42.48046875
1771543475.17075,-2.9296875,20.99609375,-85.9375,-4.8828125,10.7421875
1771543475.1746562,36.1328125,22.4609375,-55.17578125,37.59765625,-2.9296875
