timestamps,TP9,AF7,AF8,TP10,Right AUX
1771543618.420125,50.78125,33.69140625,77.1484375,49.31640625,82.51953125
1771543618.4240313,24.90234375,29.78515625,55.6640625,34.66796875,53.7109375
1771543618.4279375,4.39453125,26.85546875,7.8125,9.765625,4.8828125
1771543618.4318438,30.2734375,13.18359375,21.484375,16.11328125,-13.18359375
1771543618.43575,52.734375,10.7421875,69.3359375,35.64453125,34.66796875
1771543618.4396563,37.59765625,25.87890625,55.17578125,34.66796875,59.08203125
1771543618.4435625,0.0,30.76171875,3.90625,11.71875,17.578125
1771543618.4474688,-0.48828125,28.3203125,8.7890625,5.37109375,-18.5546875
1771543618.451375,26.3671875,27.83203125,67.3828125,21.97265625,10.7421875
1771543618.4552813,34.1796875,25.87890625,74.70703125,31.73828125,39.55078125
1771543618.4591875,6.8359375,20.5078125,22.94921875,6.34765625,54.19921875
1771543618.4630938,-6.34765625,18.06640625,13.671875,-9.765625,64.453125
1771543618.466125,26.85546875,18.5546875,64.453125,28.3203125,55.17578125
1771543618.4700313,46.38671875,20.01953125,76.66015625,54.19921875,41.50390625
1771543618.4739375,11.71875,20.01953125,46.875,29.296875,47.36328125
1771543618.4778438,-6.8359375,16.11328125,31.73828125,5.37109375,83.984375
1771543618.48175,21.97265625,15.625,42.96875,22.94921875,54.6875
1771543618.4856563,46.875,22.94921875,52.24609375,44.921875,16.11328125
1771543618.4895625,33.203125,24.90234375,25.390625,35.64453125,78.61328125
1771543618.4934688,13.18359375,20.5078125,-0.48828125,15.625,86.42578125
1771543618.497375,20.01953125,20.99609375,32.71484375,21.484375,1.46484375
1771543618.5012813,38.0859375,28.80859375,51.26953125,46.875,-19.04296875
1771543618.5051875,33.203125,27.34375,43.9453125,41.50390625,27.34375
1771543618.5090938,4.39453125,20.99609375,16.6015625,14.16015625,63.96484375
1771543618.512125,14.6484375,24.4140625,19.53125,10.7421875,34.66796875
1771543618.5160313,41.50390625,19.53125,54.19921875,30.76171875,17.08984375
1771543618.5199375,36.1328125,18.06640625,50.78125,41.9921875,15.625
1771543618.5238438,3.90625,27.83203125,29.78515625,15.13671875,9.765625
1771543618.52775,-3.90625,25.87890625,12.20703125,0.9765625,-6.34765625
1771543618.5316563,23.92578125,22.4609375,26.3671875,26.3671875,15.13671875
1771543618.5355625,42.48046875,24.90234375,49.31640625,42.48046875,77.63671875
1771543618.5394688,18.06640625,24.90234375,49.8046875,21.484375,69.82421875
1771543618.543375,-4.8828125,26.3671875,23.4375,1.46484375,50.29296875
1771543618.5472813,16.11328125,29.78515625,22.4609375,18.5546875,58.59375
1771543618.5511875,38.57421875,31.73828125,49.8046875,36.62109375,33.69140625
1771543618.5550938,23.92578125,31.25,43.45703125,24.90234375,55.6640625
1771543618.572125,0.48828125,27.83203125,6.8359375,5.37109375,46.875
1771543618.5760312,22.94921875,11.71875,14.6484375,18.06640625,28.3203125
1771543618.5799375,57.6171875,6.34765625,57.12890625,54.6875,80.078125
1771543618.5838437,37.59765625,19.04296875,46.875,55.17578125,85.9375
1771543618.58775,-2.9296875,26.3671875,1.953125,16.11328125,62.98828125
1771543618.5916562,-2.9296875,28.80859375,-24.90234375,0.9765625,71.2890625
1771543618.5955625,28.80859375,29.78515625,12.20703125,19.04296875,90.8203125
1771543618.5994687,31.73828125,23.92578125,64.453125,36.62109375,27.83203125
1771543618.603375,-2.44140625,12.6953125,28.3203125,20.01953125,-2.44140625
1771543618.6072812,-7.32421875,6.8359375,0.0,5.859375,-4.39453125
1771543618.6111875,22.4609375,20.01953125,26.85546875,22.94921875,-29.78515625
1771543618.6150937,40.52734375,30.76171875,49.31640625,41.9921875,25.390625
1771543618.616125,19.04296875,28.3203125,15.13671875,25.87890625,53.7109375
1771543618.6200314,-11.23046875,34.66796875,-14.16015625,-1.953125,33.203125
1771543618.6239376,0.48828125,32.71484375,20.5078125,11.71875,68.359375
1771543618.6278439,26.85546875,28.80859375,55.6640625,38.0859375,90.33203125
1771543618.63175,20.01953125,25.87890625,29.296875,33.203125,65.91796875
1771543618.6356564,-1.953125,20.99609375,-7.32421875,11.23046875,48.828125
1771543618.6395626,5.859375,20.99609375,10.25390625,6.8359375,41.9921875
1771543618.6434689,42.48046875,33.203125,41.9921875,32.2265625,10.7421875
1771543618.647375,62.98828125,41.015625,43.45703125,49.31640625,47.36328125
1771543618.6512814,23.92578125,20.01953125,0.48828125,21.97265625,65.91796875
1771543618.6551876,1.953125,15.13671875,5.859375,8.7890625,-8.7890625
1771543618.6590939,29.296875,24.90234375,54.19921875,33.203125,17.578125
1771543618.661125,38.57421875,20.5078125,65.4296875,44.921875,38.0859375
1771543618.6650312,5.37109375,15.13671875,40.0390625,27.34375,-17.578125
1771543618.6689374,-15.625,9.27734375,36.62109375,13.18359375,29.296875
1771543618.6728437,6.8359375,4.8828125,66.40625,28.80859375,46.875
1771543618.67675,28.80859375,3.90625,87.890625,49.31640625,15.13671875
1771543618.6806562,8.7890625,-5.37109375,68.84765625,41.50390625,25.87890625
1771543618.6845624,-22.94921875,-18.5546875,42.96875,16.6015625,8.7890625
1771543618.6884687,-6.8359375,-23.4375,62.98828125,20.99609375,-5.37109375
1771543618.692375,12.6953125,-28.3203125,82.03125,42.48046875,7.32421875
1771543618.6962812,-8.30078125,-25.87890625,70.80078125,41.015625,-9.765625
1771543618.7001874,-19.53125,-12.6953125,72.265625,23.92578125,-19.53125
1771543618.7040937,-0.9765625,-7.8125,79.1015625,29.296875,44.43359375
1771543618.706125,17.578125,-7.32421875,91.796875,54.6875,55.6640625
1771543618.7100313,14.16015625,-2.9296875,100.09765625,61.03515625,21.484375
1771543618.7139375,-24.90234375,-4.39453125,65.4296875,35.15625,37.59765625
1771543618.7178438,-23.92578125,-4.39453125,35.64453125,22.94921875,0.9765625
1771543618.72175,20.99609375,-1.46484375,64.453125,41.9921875,26.85546875
1771543618.7256563,27.34375,-1.46484375,75.1953125,57.12890625,26.3671875
1771543618.7295625,0.9765625,0.0,46.38671875,41.015625,-8.30078125
1771543618.7334688,-10.7421875,1.46484375,17.578125,19.53125,31.73828125
1771543618.737375,15.13671875,2.44140625,22.94921875,32.71484375,4.8828125
1771543618.7412813,40.0390625,7.32421875,81.54296875,53.22265625,24.4140625
1771543618.7451875,27.83203125,8.7890625,74.70703125,47.36328125,65.4296875
1771543618.7490938,4.39453125,-1.953125,11.71875,21.97265625,17.08984375
1771543618.750125,17.578125,-2.44140625,24.90234375,28.80859375,8.30078125
1771543618.7540312,40.0390625,3.41796875,72.265625,57.12890625,42.48046875
1771543618.7579374,37.109375,4.8828125,60.05859375,59.5703125,26.3671875
1771543618.7618437,13.671875,8.30078125,14.6484375,28.80859375,41.50390625
1771543618.76575,8.30078125,7.8125,20.01953125,20.5078125,84.47265625
1771543618.7696562,41.015625,-1.953125,55.17578125,56.15234375,52.24609375
1771543618.7735624,66.89453125,-2.9296875,83.49609375,81.54296875,15.625
1771543618.7774687,48.33984375,8.7890625,45.8984375,61.5234375,31.25
1771543618.781375,20.5078125,14.16015625,10.25390625,28.3203125,28.3203125
1771543618.7852812,24.4140625,13.671875,46.38671875,24.4140625,25.87890625
1771543618.7891874,31.25,14.16015625,50.29296875,38.0859375,44.43359375
1771543618.7930937,21.97265625,17.578125,27.83203125,28.80859375,70.80078125
1771543618.795125,11.23046875,14.6484375,14.6484375,9.27734375,49.8046875
1771543618.7990313,26.3671875,15.625,33.69140625,19.53125,3.41796875
1771543618.8029375,51.7578125,20.01953125,50.29296875,41.9921875,-7.8125
1771543618.8068438,33.69140625,16.6015625,32.71484375,40.52734375,-7.8125
1771543618.81075,0.9765625,14.16015625,15.625,14.6484375,1.953125
1771543618.8146563,13.671875,13.671875,19.53125,16.11328125,61.5234375
1771543618.8185625,43.45703125,14.16015625,35.15625,51.26953125,62.5
1771543618.8224688,44.921875,13.671875,33.69140625,53.7109375,6.8359375
1771543618.826375,22.94921875,13.671875,28.3203125,29.296875,-0.9765625
1771543618.8302813,23.92578125,7.8125,21.484375,27.83203125,26.3671875
1771543618.8341875,39.0625,-1.46484375,38.0859375,51.26953125,34.66796875
1771543618.8380938,39.0625,4.39453125,56.640625,62.5,39.0625
1771543618.842125,21.97265625,25.87890625,33.203125,42.48046875,53.22265625
1771543618.8460312,3.90625,22.4609375,8.30078125,20.99609375,37.109375
1771543618.8499374,8.30078125,11.23046875,19.53125,28.3203125,5.859375
1771543618.8538437,18.06640625,12.6953125,52.734375,41.015625,12.6953125
1771543618.85775,-6.34765625,6.8359375,43.45703125,22.4609375,13.18359375
1771543618.8616562,-29.296875,1.46484375,11.71875,-0.48828125,71.2890625
1771543618.8655624,-5.37109375,1.953125,14.16015625,9.27734375,50.29296875
1771543618.8694687,22.94921875,10.25390625,65.4296875,38.0859375,52.24609375
1771543618.873375,19.53125,11.71875,77.63671875,40.0390625,71.77734375
1771543618.8772812,-0.9765625,6.8359375,21.97265625,11.71875,2.44140625
1771543618.8811874,8.30078125,9.765625,12.20703125,7.32421875,36.62109375
1771543618.8850937,32.71484375,9.765625,44.921875,33.69140625,18.06640625
1771543618.886125,34.1796875,10.7421875,57.12890625,40.52734375,-5.859375
1771543618.8900313,15.13671875,6.8359375,13.18359375,13.671875,18.06640625
1771543618.8939376,19.04296875,10.25390625,4.39453125,9.765625,-15.625
1771543618.8978438,38.0859375,19.53125,38.0859375,28.80859375,-11.71875
1771543618.90175,40.0390625,20.99609375,43.9453125,43.45703125,41.50390625
1771543618.9056563,16.6015625,21.484375,9.27734375,24.4140625,58.59375
1771543618.9095626,-1.953125,10.7421875,-27.83203125,2.44140625,40.0390625
1771543618.9134688,14.16015625,0.48828125,22.94921875,22.94921875,51.26953125
1771543618.917375,53.7109375,10.25390625,80.56640625,61.03515625,58.10546875
1771543618.9212813,40.0390625,25.390625,46.875,60.05859375,43.9453125
1771543618.9251876,-15.625,37.59765625,4.39453125,22.94921875,59.08203125
1771543618.9290938,-5.37109375,33.69140625,14.6484375,17.08984375,94.23828125
1771543618.946125,28.80859375,18.06640625,38.57421875,46.38671875,22.4609375
1771543618.9500313,20.99609375,16.11328125,38.0859375,49.8046875,46.38671875
1771543618.9539375,-1.953125,21.484375,11.23046875,23.4375,76.66015625
1771543618.9578438,8.7890625,19.04296875,14.16015625,19.04296875,16.6015625
1771543618.96175,40.0390625,22.4609375,47.8515625,41.9921875,6.8359375
1771543618.9656563,45.8984375,24.4140625,34.1796875,49.31640625,9.27734375
1771543618.9695625,15.13671875,18.5546875,-1.46484375,16.11328125,18.5546875
1771543618.9734688,7.8125,22.4609375,-1.953125,0.48828125,2.9296875
1771543618.977375,29.296875,29.296875,22.94921875,23.92578125,20.5078125
1771543618.9812813,40.52734375,28.80859375,42.96875,41.015625,55.6640625
1771543618.9851875,20.5078125,31.25,37.109375,26.3671875,77.1484375
1771543618.9890938,-1.46484375,32.2265625,20.99609375,11.23046875,89.84375
1771543618.991125,18.06640625,25.390625,16.6015625,21.97265625,48.828125
1771543618.9950314,40.0390625,25.87890625,37.109375,47.36328125,18.5546875
1771543618.9989376,30.2734375,28.3203125,36.62109375,40.52734375,36.62109375
1771543619.0028439,5.859375,27.83203125,-4.8828125,9.27734375,46.875
1771543619.00675,20.01953125,27.34375,-9.765625,19.04296875,20.5078125
1771543619.0106564,53.7109375,29.78515625,14.16015625,44.921875,-23.92578125
1771543619.0145626,51.7578125,36.1328125,21.484375,42.96875,-34.1796875
1771543619.0184689,22.94921875,33.69140625,9.27734375,21.97265625,-4.8828125
1771543619.022375,21.484375,23.4375,-9.27734375,13.671875,50.78125
1771543619.0262814,48.828125,22.4609375,-6.34765625,37.109375,28.80859375
1771543619.0301876,61.03515625,26.85546875,43.45703125,57.6171875,56.640625
1771543619.0340939,33.203125,34.1796875,20.99609375,34.66796875,20.99609375
1771543619.035125,7.32421875,30.76171875,-13.18359375,12.6953125,-3.90625
1771543619.0390313,30.76171875,20.5078125,21.97265625,27.83203125,17.08984375
1771543619.0429375,52.24609375,21.97265625,47.36328125,35.15625,38.57421875
1771543619.0468438,32.71484375,32.2265625,28.80859375,28.3203125,77.63671875
1771543619.05075,10.25390625,35.15625,-4.8828125,10.25390625,78.61328125
1771543619.0546563,23.4375,27.83203125,-1.46484375,12.20703125,45.41015625
1771543619.0585625,49.8046875,24.90234375,35.15625,33.203125,34.1796875
1771543619.0624688,43.9453125,23.92578125,43.45703125,35.15625,41.015625
1771543619.066375,18.5546875,23.92578125,-8.7890625,6.8359375,52.24609375
1771543619.0702813,13.18359375,28.80859375,-3.90625,1.953125,46.38671875
1771543619.0741875,35.64453125,28.80859375,51.7578125,34.1796875,-8.7890625
1771543619.0780938,40.0390625,26.3671875,45.8984375,41.50390625,24.90234375
1771543619.081125,6.8359375,29.78515625,9.27734375,12.6953125,56.640625
1771543619.0850313,12.6953125,23.92578125,13.18359375,8.30078125,56.15234375
1771543619.0889375,42.96875,16.6015625,41.50390625,36.1328125,43.9453125
1771543619.0928438,50.29296875,26.85546875,43.9453125,54.6875,42.48046875
1771543619.09675,22.4609375,30.76171875,4.8828125,32.71484375,49.8046875
1771543619.1006563,-0.9765625,24.4140625,-35.64453125,0.48828125,41.9921875
1771543619.1045625,24.4140625,18.5546875,-2.44140625,20.5078125,25.87890625
1771543619.1084688,54.6875,10.25390625,32.71484375,55.6640625,52.24609375
1771543619.112375,50.78125,21.484375,12.6953125,41.015625,93.26171875
1771543619.1162813,12.6953125,40.52734375,3.90625,-7.8125,30.76171875
1771543619.1201875,-2.9296875,38.0859375,18.06640625,-16.6015625,23.4375
1771543619.1240938,18.5546875,38.57421875,39.55078125,10.25390625,57.12890625
1771543619.141125,7.32421875,38.57421875,24.4140625,-2.9296875,39.55078125
1771543619.1450312,-26.85546875,38.0859375,-22.94921875,-40.52734375,13.18359375
1771543619.1489375,-20.5078125,37.59765625,-32.2265625,-47.36328125,2.44140625
1771543619.1528437,4.8828125,31.25,-11.23046875,-19.53125,7.8125
1771543619.15675,-4.39453125,28.80859375,4.8828125,-20.99609375,46.875
1771543619.1606562,-41.015625,31.25,-30.2734375,-64.94140625,100.5859375
1771543619.1645625,-45.41015625,34.1796875,-60.546875,-77.63671875,79.58984375
1771543619.1684687,-8.30078125,43.9453125,-46.38671875,-62.01171875,57.6171875
1771543619.172375,1.953125,46.38671875,-17.08984375,-43.9453125,67.3828125
1771543619.1762812,-45.8984375,35.64453125,-15.13671875,-48.828125,11.71875
1771543619.1801875,-58.10546875,37.59765625,-48.33984375,-62.01171875,0.9765625
1771543619.1840937,-21.484375,39.0625,-31.73828125,-43.45703125,63.96484375
1771543619.171125,5.859375,38.0859375,1.46484375,-8.30078125,56.15234375
1771543619.1750312,4.39453125,43.9453125,-13.18359375,-1.46484375,6.34765625
1771543619.1789374,-19.04296875,40.0390625,-56.640625,-22.94921875,14.16015625
1771543619.1828437,-7.32421875,34.66796875,-51.26953125,-19.04296875,83.984375
1771543619.18675,25.87890625,34.66796875,-9.765625,9.27734375,96.6796875
1771543619.1906562,24.90234375,34.66796875,-15.625,22.4609375,37.109375
1771543619.1945624,-3.90625,33.203125,-59.5703125,0.48828125,32.71484375
1771543619.1984687,-4.8828125,32.2265625,-52.24609375,-6.34765625,39.55078125
1771543619.202375,20.5078125,32.71484375,-8.30078125,17.08984375,44.921875
1771543619.2062812,37.59765625,34.66796875,6.8359375,32.2265625,55.17578125
1771543619.2101874,15.625,40.0390625,-35.64453125,15.13671875,60.05859375
1771543619.2140937,-6.8359375,37.59765625,-63.4765625,-2.44140625,88.37890625
1771543619.215125,18.06640625,33.69140625,-11.23046875,16.6015625,12.6953125
1771543619.2190313,49.8046875,29.296875,28.3203125,44.921875,-28.80859375
1771543619.2229376,36.62109375,34.1796875,0.48828125,36.62109375,41.50390625
1771543619.2268438,8.7890625,37.59765625,-34.66796875,13.18359375,46.875
1771543619.23075,30.76171875,35.64453125,-13.671875,23.4375,60.05859375
1771543619.2346563,58.59375,39.0625,8.7890625,41.9921875,59.08203125
1771543619.2385626,36.62109375,36.1328125,-20.5078125,29.78515625,40.52734375
1771543619.2424688,7.8125,33.203125,-53.22265625,2.9296875,32.71484375
1771543619.246375,15.13671875,38.57421875,-24.4140625,8.30078125,15.625
1771543619.2502813,42.96875,42.48046875,15.13671875,33.69140625,29.296875
1771543619.2541876,45.8984375,41.015625,25.87890625,36.62109375,39.55078125
1771543619.2580938,20.5078125,36.1328125,-0.48828125,17.578125,25.390625
1771543619.260125,9.765625,29.296875,-18.06640625,10.25390625,33.69140625
1771543619.2640312,26.85546875,29.296875,-3.41796875,33.203125,8.7890625
1771543619.2679374,46.38671875,30.2734375,21.97265625,49.31640625,40.0390625
1771543619.2718437,28.3203125,31.25,7.8125,30.2734375,72.75390625
1771543619.27575,5.859375,27.83203125,-26.3671875,11.23046875,35.64453125
1771543619.2796562,29.296875,29.78515625,-27.83203125,26.85546875,1.953125
1771543619.2835624,57.12890625,30.2734375,-2.9296875,46.875,24.90234375
1771543619.2874687,39.55078125,26.85546875,6.8359375,39.55078125,13.18359375
1771543619.291375,14.16015625,30.2734375,-26.85546875,22.4609375,5.859375
1771543619.2952812,28.80859375,29.78515625,-36.1328125,28.3203125,-24.4140625
1771543619.2991874,50.78125,26.3671875,8.30078125,45.8984375,7.32421875
1771543619.3030937,39.0625,31.25,23.92578125,47.36328125,52.24609375
1771543619.320125,5.37109375,31.73828125,-11.23046875,24.90234375,28.80859375
1771543619.3240314,10.25390625,21.97265625,-16.11328125,17.08984375,28.80859375
1771543619.3279376,47.8515625,21.484375,14.6484375,43.9453125,-4.39453125
1771543619.3318439,62.98828125,33.69140625,38.57421875,57.6171875,27.34375
1771543619.33575,31.73828125,41.9921875,6.8359375,33.203125,118.1640625
1771543619.3396564,11.23046875,35.64453125,-54.6875,14.6484375,74.21875
1771543619.3435626,27.83203125,34.1796875,-23.4375,22.4609375,34.1796875
1771543619.3474689,40.52734375,41.50390625,35.15625,26.85546875,29.78515625
1771543619.351375,23.4375,39.55078125,0.9765625,16.11328125,-17.578125
1771543619.3552814,9.27734375,34.66796875,-22.94921875,10.7421875,26.85546875
1771543619.3591876,30.2734375,34.66796875,9.27734375,24.90234375,56.640625
1771543619.3630939,57.6171875,28.80859375,36.1328125,46.875,29.78515625
1771543619.365125,45.41015625,24.4140625,28.3203125,46.38671875,52.24609375
1771543619.3690312,16.6015625,26.3671875,-5.859375,17.578125,40.0390625
1771543619.3729374,21.97265625,34.1796875,6.8359375,12.6953125,44.921875
1771543619.3768437,48.33984375,41.50390625,30.76171875,44.921875,52.734375
1771543619.38075,54.19921875,37.59765625,15.13671875,51.7578125,36.62109375
1771543619.3846562,30.76171875,32.71484375,-23.4375,27.34375,56.640625
1771543619.3885624,26.85546875,25.87890625,-24.4140625,25.87890625,47.8515625
1771543619.3924687,55.17578125,29.296875,20.01953125,50.78125,25.390625
1771543619.396375,59.08203125,35.64453125,24.90234375,58.10546875,35.15625
1771543619.4002812,32.71484375,28.80859375,-11.23046875,35.64453125,11.23046875
1771543619.4041874,24.4140625,24.4140625,2.44140625,22.94921875,25.87890625
1771543619.4080937,41.50390625,33.69140625,30.76171875,37.109375,69.82421875
1771543619.411125,53.22265625,31.73828125,39.0625,47.36328125,69.3359375
1771543619.4150312,44.43359375,24.4140625,6.34765625,39.55078125,34.66796875
1771543619.4189374,20.5078125,27.83203125,-14.6484375,22.94921875,19.53125
1771543619.4228437,1.953125,29.78515625,4.8828125,11.71875,-2.44140625
1771543619.42675,3.41796875,37.59765625,15.625,5.859375,-6.8359375
1771543619.4306562,-2.44140625,40.0390625,-2.44140625,2.9296875,43.45703125
1771543619.4345624,-25.390625,34.1796875,-20.01953125,-11.23046875,77.1484375
1771543619.4384687,-32.71484375,27.83203125,-2.44140625,-23.92578125,78.125
1771543619.442375,-7.32421875,20.01953125,1.46484375,-14.6484375,44.43359375
1771543619.4462812,-1.953125,18.06640625,9.765625,-8.7890625,51.7578125
1771543619.4501874,-48.828125,23.92578125,4.39453125,-39.0625,65.91796875
1771543619.4540937,-62.5,21.484375,-24.90234375,-56.15234375,28.80859375
1771543619.456125,-34.66796875,22.4609375,6.34765625,-27.34375,38.0859375
1771543619.4600313,-10.7421875,31.25,34.1796875,-4.8828125,28.80859375
1771543619.4639375,-20.01953125,33.203125,1.953125,-21.484375,-11.23046875
1771543619.4678438,-41.50390625,33.203125,-40.52734375,-42.48046875,16.11328125
1771543619.47175,-23.4375,27.83203125,-22.4609375,-30.76171875,-12.6953125
1771543619.4756563,-3.90625,22.94921875,26.85546875,-5.859375,-12.20703125
1771543619.4795625,-20.99609375,25.87890625,23.92578125,-6.8359375,39.0625
1771543619.4834688,-29.78515625,23.92578125,-12.20703125,-23.4375,36.62109375
1771543619.487375,-6.8359375,20.99609375,-11.71875,-8.30078125,-1.953125
1771543619.4912813,19.53125,28.80859375,51.7578125,28.80859375,51.7578125
1771543619.4951875,16.6015625,35.64453125,50.78125,33.69140625,50.29296875
1771543619.4990938,-11.71875,32.71484375,-1.953125,10.25390625,-29.78515625
1771543619.501125,-1.953125,28.3203125,9.27734375,6.8359375,62.01171875
1771543619.5050313,43.45703125,29.78515625,43.45703125,27.83203125,58.10546875
1771543619.5089376,50.78125,31.25,48.33984375,37.59765625,17.578125
1771543619.5128438,17.578125,33.203125,15.625,18.5546875,41.50390625
1771543619.51675,13.18359375,32.2265625,-0.9765625,8.30078125,3.41796875
1771543619.5206563,44.921875,31.73828125,23.4375,24.4140625,22.94921875
1771543619.5245626,53.22265625,33.203125,47.8515625,45.41015625,62.5
1771543619.5284688,20.5078125,23.4375,12.20703125,31.73828125,58.10546875
1771543619.532375,5.859375,20.99609375,-15.625,10.7421875,29.296875
1771543619.5362813,25.87890625,28.3203125,35.64453125,25.390625,41.9921875
1771543619.5401876,50.78125,28.3203125,51.7578125,42.96875,27.34375
1771543619.5440938,41.015625,33.203125,26.3671875,36.1328125,19.53125
1771543619.560125,12.20703125,34.1796875,4.39453125,15.625,48.828125
1771543619.5640314,20.01953125,33.69140625,17.08984375,20.01953125,54.6875
1771543619.5679376,50.78125,37.109375,37.109375,47.8515625,7.32421875
1771543619.5718439,47.36328125,38.0859375,37.109375,52.734375,-20.5078125
1771543619.57575,22.94921875,34.66796875,13.18359375,26.3671875,61.5234375
1771543619.5796564,17.578125,26.85546875,-1.953125,15.625,67.87109375
1771543619.5835626,40.0390625,28.3203125,22.4609375,38.57421875,39.0625
1771543619.5874689,44.43359375,32.2265625,36.62109375,50.29296875,66.89453125
1771543619.591375,15.625,30.2734375,27.83203125,24.90234375,67.3828125
1771543619.5952814,11.23046875,30.76171875,18.06640625,11.71875,-1.46484375
1771543619.5991876,35.64453125,30.76171875,17.578125,33.203125,10.25390625
1771543619.6030939,48.33984375,28.80859375,27.83203125,50.29296875,27.83203125
1771543619.591125,31.25,30.76171875,25.87890625,37.59765625,15.13671875
1771543619.5950313,19.53125,27.83203125,-0.9765625,18.06640625,42.48046875
1771543619.5989375,37.59765625,24.4140625,10.7421875,26.3671875,14.16015625
1771543619.6028438,49.8046875,29.296875,45.8984375,44.921875,11.23046875
1771543619.60675,23.4375,28.3203125,36.1328125,43.45703125,42.48046875
1771543619.6106563,2.44140625,27.34375,-18.5546875,20.01953125,40.0390625
1771543619.6145625,17.08984375,27.34375,-12.20703125,8.7890625,21.484375
1771543619.6184688,46.38671875,29.296875,40.52734375,28.3203125,43.45703125
1771543619.622375,41.50390625,32.2265625,45.41015625,36.1328125,57.6171875
1771543619.6262813,9.27734375,29.296875,6.34765625,23.4375,14.6484375
1771543619.6301875,5.37109375,26.3671875,-28.3203125,16.11328125,-2.44140625
1771543619.6340938,29.78515625,28.3203125,5.37109375,30.2734375,18.5546875
1771543619.650125,46.38671875,30.76171875,48.828125,42.96875,27.83203125
1771543619.6540313,31.25,26.3671875,4.8828125,23.92578125,92.28515625
1771543619.6579375,20.5078125,20.01953125,-29.78515625,9.765625,63.4765625
1771543619.6618438,41.50390625,18.06640625,10.7421875,26.3671875,18.06640625
1771543619.66575,41.9921875,20.99609375,36.1328125,41.50390625,5.859375
1771543619.6696563,16.6015625,24.90234375,1.46484375,33.69140625,17.08984375
1771543619.6735625,-3.90625,22.94921875,-26.85546875,6.8359375,33.203125
1771543619.6774688,14.16015625,26.85546875,19.53125,16.11328125,50.29296875
1771543619.681375,62.98828125,30.2734375,61.03515625,60.05859375,83.49609375
1771543619.6852813,64.453125,30.2734375,33.203125,54.6875,6.34765625
1771543619.6891875,19.53125,31.25,-9.27734375,-6.8359375,-17.578125
1771543619.6930938,24.90234375,27.34375,-1.46484375,-14.6484375,-18.06640625
1771543619.696125,56.640625,29.296875,29.296875,28.3203125,-10.7421875
1771543619.7000313,42.48046875,34.66796875,19.04296875,40.0390625,15.625
1771543619.7039375,4.8828125,38.57421875,-5.37109375,7.32421875,21.97265625
1771543619.7078438,6.8359375,40.52734375,-14.16015625,-9.765625,40.52734375
1771543619.71175,49.8046875,40.0390625,-6.8359375,8.30078125,28.3203125
1771543619.7156563,55.17578125,41.50390625,-5.37109375,19.53125,-3.41796875
1771543619.7195625,8.30078125,45.41015625,-24.4140625,-6.34765625,36.62109375
1771543619.7234688,1.46484375,51.26953125,-35.64453125,-22.94921875,75.1953125
1771543619.727375,6.8359375,57.6171875,-28.80859375,-7.8125,35.64453125
1771543619.7312813,8.7890625,61.03515625,-26.3671875,5.859375,33.69140625
1771543619.7351875,1.46484375,59.5703125,-26.3671875,4.39453125,39.0625
1771543619.7390938,-14.6484375,54.6875,-34.1796875,-8.7890625,25.390625
1771543619.740125,7.8125,50.78125,-35.64453125,-15.13671875,3.90625
1771543619.7440312,50.78125,48.33984375,-2.44140625,9.27734375,12.6953125
1771543619.7479374,51.26953125,47.8515625,1.46484375,10.25390625,4.8828125
1771543619.7518437,9.765625,49.31640625,-30.76171875,-9.765625,-11.23046875
1771543619.75575,14.16015625,48.33984375,-35.15625,-1.953125,47.36328125
1771543619.7596562,49.8046875,46.38671875,-18.06640625,20.99609375,73.73046875
1771543619.7635624,60.546875,47.36328125,-2.44140625,33.69140625,14.16015625
1771543619.7674687,33.203125,46.38671875,-13.18359375,17.08984375,47.36328125
1771543619.771375,24.4140625,41.9921875,-41.9921875,6.34765625,0.9765625
1771543619.7752812,52.734375,33.69140625,-20.99609375,25.390625,26.85546875
1771543619.7791874,64.453125,33.69140625,33.69140625,41.50390625,98.14453125
1771543619.7830937,41.9921875,42.48046875,5.859375,23.92578125,19.53125
1771543619.785125,21.97265625,41.015625,-31.25,0.0,47.8515625
1771543619.7890313,44.43359375,37.59765625,0.0,17.578125,41.015625
1771543619.7929375,68.359375,36.62109375,34.1796875,44.921875,1.953125
1771543619.7968438,46.38671875,41.9921875,21.484375,40.0390625,10.25390625
1771543619.80075,21.97265625,43.9453125,-8.7890625,14.16015625,44.921875
1771543619.8046563,39.0625,35.15625,-0.9765625,12.6953125,54.6875
1771543619.8085625,69.3359375,34.66796875,24.4140625,39.0625,-27.83203125
1771543619.8124688,50.78125,35.15625,34.1796875,48.33984375,-12.6953125
1771543619.816375,20.99609375,28.80859375,-6.8359375,23.4375,57.12890625
1771543619.8202813,20.99609375,25.87890625,-11.71875,13.671875,16.6015625
1771543619.8241875,43.9453125,31.25,43.45703125,33.69140625,-10.25390625
1771543619.8280938,64.94140625,38.57421875,50.78125,55.17578125,35.64453125
1771543619.830125,34.1796875,35.15625,8.30078125,32.2265625,64.453125
1771543619.8340313,15.13671875,30.2734375,-7.32421875,3.90625,114.2578125
1771543619.8379376,43.45703125,35.15625,13.18359375,27.83203125,106.4453125
1771543619.8418438,56.640625,41.015625,23.92578125,50.78125,17.578125
1771543619.84575,34.66796875,41.50390625,-0.48828125,34.66796875,43.9453125
1771543619.8496563,21.484375,36.1328125,-33.203125,10.25390625,52.734375
1771543619.8535626,40.0390625,33.69140625,-0.48828125,17.08984375,68.359375
1771543619.8574688,61.03515625,31.73828125,25.87890625,37.59765625,99.609375
1771543619.861375,42.48046875,28.3203125,-10.7421875,36.1328125,45.41015625
1771543619.8652813,3.90625,26.85546875,-22.4609375,10.25390625,0.0
1771543619.8691876,10.7421875,27.83203125,-8.7890625,6.8359375,9.27734375
1771543619.8730938,36.62109375,36.1328125,16.11328125,32.71484375,44.921875
1771543619.876125,34.1796875,39.55078125,29.296875,41.015625,42.96875
1771543619.8800313,8.30078125,36.1328125,2.44140625,14.6484375,44.921875
1771543619.8839376,10.25390625,33.69140625,-13.671875,0.0,31.73828125
1771543619.8878438,46.38671875,34.1796875,9.27734375,19.04296875,15.625
1771543619.89175,72.265625,35.64453125,34.1796875,34.1796875,44.921875
1771543619.8956563,39.0625,32.71484375,2.9296875,19.53125,64.94140625
1771543619.8995626,-4.8828125,29.296875,-30.76171875,10.25390625,23.4375
1771543619.9034688,9.765625,22.94921875,-16.11328125,28.3203125,-21.97265625
1771543619.907375,32.71484375,22.94921875,21.97265625,48.33984375,-16.11328125
1771543619.9112813,20.99609375,29.296875,27.83203125,41.50390625,33.203125
1771543619.9151876,5.37109375,28.3203125,-20.01953125,12.6953125,60.546875
1771543619.9190938,30.2734375,24.90234375,-17.08984375,11.23046875,55.6640625
1771543619.921125,53.7109375,29.78515625,32.71484375,45.8984375,19.53125
1771543619.9250312,30.76171875,36.1328125,37.59765625,51.26953125,-18.5546875
1771543619.9289374,4.39453125,31.25,-3.90625,19.53125,37.59765625
1771543619.9328437,15.625,27.83203125,-18.5546875,15.13671875,-11.23046875
1771543619.93675,40.0390625,33.203125,23.92578125,38.57421875,-5.859375
1771543619.9406562,45.8984375,33.203125,41.50390625,45.41015625,98.14453125
1771543619.9445624,21.484375,25.390625,-5.859375,27.83203125,91.30859375
1771543619.9484687,14.6484375,20.5078125,-33.69140625,8.30078125,71.2890625
1771543619.952375,42.48046875,25.87890625,17.08984375,18.06640625,52.734375
1771543619.9562812,51.26953125,35.64453125,41.015625,43.45703125,24.90234375
1771543619.9601874,30.2734375,42.48046875,2.44140625,25.390625,17.578125
1771543619.9640937,20.01953125,39.0625,-19.53125,6.34765625,35.64453125
1771543619.967125,46.875,24.4140625,-3.90625,34.1796875,55.6640625
1771543619.9710312,82.03125,26.85546875,19.53125,51.7578125,30.2734375
1771543619.9749374,68.359375,36.62109375,-1.46484375,33.69140625,-28.80859375
1771543619.9788437,28.80859375,28.80859375,-22.4609375,3.41796875,-26.3671875
1771543619.98275,17.08984375,25.87890625,4.8828125,6.8359375,43.45703125
1771543619.9866562,29.78515625,28.3203125,14.6484375,33.203125,22.4609375
1771543619.9905624,30.2734375,29.78515625,-3.41796875,43.9453125,-9.27734375
1771543619.9944687,13.18359375,32.2265625,-28.3203125,25.390625,-4.8828125
1771543619.998375,9.27734375,29.296875,-6.8359375,11.23046875,-12.20703125
1771543620.0022812,14.6484375,27.34375,23.4375,21.97265625,-13.671875
1771543620.0061874,29.296875,26.85546875,35.64453125,35.64453125,11.71875
1771543620.0100937,12.6953125,21.97265625,13.671875,20.01953125,45.8984375
1771543620.026125,-3.41796875,18.5546875,-11.23046875,-2.44140625,7.32421875
1771543620.0300312,20.99609375,19.04296875,8.30078125,20.99609375,18.06640625
1771543620.0339375,33.69140625,22.94921875,31.25,51.7578125,53.7109375
1771543620.0378437,-0.9765625,27.34375,9.27734375,41.50390625,22.4609375
1771543620.04175,-28.3203125,21.97265625,-15.625,13.18359375,5.37109375
1771543620.0456562,2.44140625,17.08984375,-4.39453125,20.99609375,56.640625
1771543620.0495625,45.8984375,23.4375,-0.48828125,37.109375,24.4140625
1771543620.0534687,37.109375,29.296875,15.13671875,28.80859375,41.50390625
1771543620.057375,-1.46484375,16.11328125,-0.9765625,23.92578125,44.921875
1771543620.0612812,3.41796875,10.25390625,-15.625,24.4140625,12.20703125
1771543620.0651875,39.0625,26.3671875,20.01953125,33.203125,34.1796875
1771543620.0690937,51.7578125,37.109375,35.15625,41.50390625,6.34765625
1771543620.071125,17.578125,35.15625,2.9296875,19.04296875,6.34765625
1771543620.0750313,-0.48828125,32.71484375,-11.71875,12.6953125,25.390625
1771543620.0789375,24.90234375,37.109375,18.5546875,32.2265625,19.04296875
1771543620.0828438,45.41015625,39.55078125,40.0390625,40.52734375,11.71875
1771543620.08675,34.66796875,36.1328125,10.25390625,24.4140625,27.34375
1771543620.0906563,19.53125,29.296875,-25.87890625,0.0,12.6953125
1771543620.0945625,39.55078125,28.80859375,-1.46484375,16.11328125,16.11328125
1771543620.0984688,68.359375,33.203125,40.0390625,41.50390625,83.49609375
1771543620.102375,43.45703125,29.296875,19.53125,31.73828125,25.87890625
1771543620.1062813,14.6484375,34.1796875,-30.76171875,16.6015625,-30.2734375
1771543620.1101875,35.15625,39.55078125,-14.6484375,16.6015625,14.16015625
1771543620.1140938,59.5703125,31.25,31.73828125,33.69140625,15.13671875
1771543620.115125,45.41015625,27.83203125,18.06640625,34.66796875,19.53125
1771543620.1190312,16.6015625,27.34375,-40.0390625,12.6953125,-0.48828125
1771543620.1229374,27.34375,27.83203125,-19.04296875,11.23046875,35.64453125
1771543620.1268437,55.17578125,18.5546875,33.203125,36.1328125,63.96484375
1771543620.13075,52.734375,14.6484375,21.97265625,44.921875,51.7578125
1771543620.1346562,20.99609375,26.3671875,-23.4375,22.4609375,20.5078125
1771543620.1385624,10.7421875,32.2265625,-31.25,-0.48828125,-7.8125
1771543620.1424687,32.2265625,36.62109375,13.671875,19.53125,46.875
1771543620.146375,50.29296875,34.1796875,32.71484375,43.9453125,117.1875
1771543620.1502812,30.76171875,23.4375,-13.18359375,20.01953125,66.89453125
1771543620.1541874,9.27734375,14.16015625,-23.4375,0.48828125,19.04296875
1771543620.1580937,37.59765625,12.6953125,18.06640625,25.390625,13.671875
1771543620.161125,59.5703125,18.06640625,45.41015625,58.59375,67.87109375
1771543620.1650312,43.45703125,30.2734375,29.78515625,46.875,63.4765625
1771543620.1689374,29.296875,41.9921875,-7.32421875,18.5546875,2.44140625
1771543620.1728437,44.921875,48.828125,-4.39453125,18.5546875,8.30078125
1771543620.17675,69.3359375,47.8515625,10.25390625,20.5078125,33.203125
1771543620.1806562,55.17578125,38.0859375,-0.48828125,22.4609375,3.90625
1771543620.1845624,12.20703125,35.15625,-23.92578125,4.8828125,-24.90234375
1771543620.1884687,11.71875,40.0390625,-20.01953125,-3.41796875,9.27734375
1771543620.192375,42.96875,41.9921875,-5.37109375,22.4609375,53.22265625
1771543620.1962812,55.17578125,41.50390625,10.7421875,30.76171875,50.29296875
1771543620.2001874,32.71484375,37.59765625,0.0,18.5546875,6.34765625
1771543620.2040937,20.01953125,32.71484375,-18.06640625,14.6484375,15.13671875
1771543620.206125,43.45703125,35.15625,0.48828125,28.3203125,47.8515625
1771543620.2100313,67.87109375,39.0625,33.203125,43.9453125,27.83203125
1771543620.2139375,45.8984375,40.0390625,22.4609375,31.73828125,45.41015625
1771543620.2178438,22.4609375,41.50390625,-22.94921875,11.71875,4.8828125
1771543620.22175,45.8984375,32.2265625,-11.23046875,26.3671875,5.37109375
1771543620.2256563,58.10546875,24.90234375,18.06640625,49.8046875,68.359375
1771543620.2295625,30.76171875,33.69140625,12.6953125,43.9453125,59.5703125
1771543620.2334688,3.41796875,30.2734375,-21.97265625,22.4609375,60.05859375
1771543620.237375,24.4140625,19.53125,-22.94921875,20.5078125,88.37890625
1771543620.2412813,55.17578125,19.53125,38.0859375,52.24609375,5.859375
1771543620.2451875,42.48046875,31.25,44.921875,51.7578125,-12.20703125
1771543620.2490938,7.32421875,29.296875,-10.25390625,14.16015625,61.03515625
1771543620.266125,12.6953125,11.23046875,-31.73828125,4.39453125,71.77734375
1771543620.2700312,45.8984375,17.578125,18.5546875,29.78515625,97.16796875
1771543620.2739375,52.734375,36.62109375,50.29296875,47.8515625,72.75390625
1771543620.2778437,26.85546875,42.96875,2.9296875,14.6484375,27.83203125
1771543620.28175,13.671875,38.57421875,-19.53125,-8.30078125,12.20703125
1771543620.2856562,44.43359375,31.73828125,14.16015625,22.4609375,-20.5078125
1771543620.2895625,66.40625,32.2265625,45.8984375,55.17578125,-2.9296875
1771543620.2934687,52.734375,30.76171875,15.625,39.55078125,26.3671875
1771543620.297375,29.78515625,26.85546875,-10.7421875,-0.48828125,-16.6015625
1771543620.3012812,37.59765625,25.390625,34.1796875,18.5546875,7.8125
1771543620.3051875,68.84765625,25.87890625,54.6875,46.38671875,55.6640625
1771543620.3090937,69.3359375,30.2734375,38.0859375,46.38671875,51.7578125
1771543620.311125,39.55078125,29.296875,11.71875,26.85546875,20.99609375
1771543620.3150313,29.78515625,24.4140625,20.99609375,25.390625,53.7109375
1771543620.3189375,37.109375,21.97265625,42.48046875,51.7578125,60.05859375
1771543620.3228438,41.015625,17.578125,44.921875,54.6875,33.203125
1771543620.32675,18.06640625,16.6015625,25.390625,27.83203125,86.42578125
1771543620.3306563,11.23046875,17.08984375,0.0,20.01953125,17.578125
1771543620.3345625,33.203125,20.01953125,18.06640625,41.50390625,-6.8359375
1771543620.3384688,44.921875,26.3671875,42.48046875,53.7109375,30.2734375
1771543620.342375,14.6484375,26.3671875,26.85546875,35.15625,-14.16015625
1771543620.3462813,-16.6015625,20.99609375,3.41796875,18.5546875,-9.765625
1771543620.3501875,11.23046875,19.04296875,9.27734375,35.64453125,47.8515625
1771543620.3540938,46.38671875,26.3671875,32.71484375,51.7578125,74.21875
1771543620.371125,38.0859375,34.66796875,43.45703125,45.41015625,44.921875
1771543620.3750312,22.4609375,29.296875,10.25390625,37.109375,39.0625
1771543620.3789375,26.3671875,19.04296875,19.04296875,38.57421875,-36.1328125
1771543620.3828437,34.1796875,16.11328125,64.453125,44.921875,-54.19921875
1771543620.38675,24.4140625,14.16015625,61.03515625,43.45703125,29.296875
1771543620.3906562,-11.71875,6.8359375,7.32421875,15.625,56.15234375
1771543620.3945625,-20.99609375,6.8359375,6.34765625,-0.9765625,73.73046875
1771543620.3984687,3.90625,6.34765625,58.59375,19.53125,50.78125
1771543620.402375,17.578125,5.859375,78.61328125,33.69140625,-13.18359375
1771543620.4062812,-17.08984375,4.8828125,39.55078125,7.8125,34.66796875
1771543620.4101875,-40.0390625,-5.859375,-3.90625,-12.20703125,27.34375
1771543620.4140937,-7.8125,-10.7421875,44.921875,2.9296875,44.921875
1771543620.386125,18.06640625,-6.8359375,105.46875,33.203125,120.60546875
1771543620.3900313,-0.48828125,0.48828125,61.03515625,33.69140625,58.59375
1771543620.3939376,-17.578125,0.9765625,30.2734375,14.6484375,65.4296875
1771543620.3978438,15.13671875,-0.48828125,62.98828125,23.92578125,82.51953125
1771543620.40175,45.41015625,4.8828125,87.890625,51.7578125,42.96875
1771543620.4056563,30.2734375,7.32421875,56.15234375,53.7109375,28.3203125
1771543620.4095626,-8.7890625,3.41796875,21.97265625,30.76171875,15.13671875
1771543620.4134688,5.859375,4.39453125,41.9921875,30.76171875,31.73828125
1771543620.417375,55.6640625,10.7421875,83.0078125,61.03515625,35.15625
1771543620.4212813,41.50390625,10.25390625,76.171875,65.91796875,39.55078125
1771543620.4251876,-8.30078125,5.37109375,27.83203125,33.203125,3.41796875
1771543620.4290938,-9.765625,4.39453125,33.69140625,19.04296875,10.7421875
1771543620.461125,27.83203125,4.8828125,79.1015625,43.45703125,19.53125
1771543620.4650311,47.8515625,5.37109375,77.63671875,64.94140625,-2.44140625
1771543620.4689374,22.94921875,5.859375,22.94921875,46.38671875,-34.66796875
1771543620.4728436,3.41796875,6.8359375,30.2734375,33.69140625,-42.48046875
1771543620.47675,35.15625,11.23046875,73.2421875,45.8984375,6.34765625
1771543620.4806561,71.2890625,19.53125,82.51953125,60.546875,4.8828125
1771543620.4845624,51.26953125,22.94921875,51.26953125,53.7109375,16.11328125
1771543620.4884686,14.6484375,14.6484375,24.90234375,33.69140625,17.578125
1771543620.492375,31.73828125,15.13671875,51.7578125,41.015625,19.04296875
1771543620.4962811,65.4296875,22.4609375,70.80078125,54.19921875,65.4296875
1771543620.5001874,47.8515625,21.484375,60.546875,52.24609375,41.015625
1771543620.5040936,20.5078125,18.5546875,43.9453125,33.203125,6.8359375
1771543620.491125,38.57421875,15.13671875,39.0625,27.83203125,24.4140625
1771543620.4950314,69.3359375,16.11328125,64.94140625,55.17578125,15.13671875
1771543620.4989376,50.78125,17.578125,74.21875,65.4296875,-19.53125
1771543620.5028439,0.9765625,17.578125,40.52734375,36.1328125,7.8125
1771543620.50675,6.34765625,18.06640625,18.5546875,28.3203125,14.16015625
1771543620.5106564,50.29296875,22.4609375,43.45703125,50.29296875,12.20703125
1771543620.5145626,71.2890625,26.85546875,78.61328125,71.2890625,36.1328125
1771543620.5184689,32.71484375,22.4609375,62.98828125,51.7578125,49.31640625
1771543620.522375,2.44140625,18.06640625,23.92578125,22.4609375,41.9921875
1771543620.5262814,20.99609375,12.20703125,43.9453125,46.875,14.6484375
1771543620.5301876,54.6875,12.6953125,91.30859375,67.87109375,68.359375
1771543620.5340939,51.26953125,16.11328125,70.3125,52.24609375,101.5625
1771543620.536125,17.578125,11.23046875,8.30078125,30.2734375,-11.71875
1771543620.5400312,29.296875,12.6953125,19.04296875,34.1796875,-32.2265625
1771543620.5439374,62.5,16.11328125,86.42578125,61.5234375,33.203125
1771543620.5478437,49.31640625,16.6015625,66.89453125,62.01171875,36.62109375
1771543620.55175,14.6484375,20.5078125,11.23046875,32.71484375,69.3359375
1771543620.5556562,23.92578125,20.5078125,12.20703125,30.76171875,82.03125
1771543620.5595624,60.546875,17.08984375,48.828125,65.91796875,71.77734375
1771543620.5634687,65.91796875,15.625,59.5703125,76.66015625,32.71484375
1771543620.567375,32.71484375,17.578125,-8.7890625,36.1328125,-20.5078125
1771543620.5712812,25.87890625,15.625,-23.4375,13.671875,-48.33984375
1771543620.5751874,55.17578125,10.7421875,32.71484375,42.96875,-17.578125
1771543620.5790937,65.4296875,11.23046875,34.1796875,69.3359375,21.484375
1771543620.581125,41.9921875,20.99609375,11.71875,53.7109375,46.38671875
1771543620.5850313,25.390625,28.80859375,1.46484375,29.78515625,70.80078125
1771543620.5889375,58.10546875,29.296875,18.5546875,44.921875,33.203125
1771543620.5928438,77.63671875,27.83203125,30.2734375,68.359375,-26.3671875
1771543620.59675,42.48046875,9.765625,-3.90625,58.59375,-20.99609375
1771543620.6006563,15.625,-4.8828125,-36.62109375,47.36328125,15.625
1771543620.6045625,50.29296875,13.671875,-18.06640625,52.734375,41.50390625
1771543620.6084688,83.0078125,28.80859375,-7.8125,60.546875,47.36328125
1771543620.612375,66.40625,36.62109375,-40.52734375,60.05859375,30.2734375
1771543620.6162813,33.203125,55.6640625,-68.359375,35.64453125,25.390625
1771543620.6201875,24.4140625,52.734375,-88.8671875,16.6015625,6.8359375
1771543620.6240938,49.8046875,32.71484375,-88.37890625,41.9921875,17.08984375
1771543620.626125,64.94140625,32.71484375,-94.7265625,62.5,46.38671875
1771543620.6300313,30.2734375,30.2734375,-138.671875,32.71484375,79.58984375
1771543620.6339376,18.06640625,20.01953125,-160.64453125,17.578125,67.87109375
1771543620.6378438,60.05859375,38.57421875,-112.3046875,53.7109375,76.66015625
1771543620.64175,58.59375,41.015625,-101.07421875,63.96484375,89.84375
1771543620.6456563,12.20703125,25.87890625,-159.1796875,24.4140625,39.0625
1771543620.6495626,-13.671875,25.87890625,-182.6171875,-2.44140625,56.15234375
1771543620.6534688,11.71875,32.2265625,-153.80859375,17.578125,54.19921875
1771543620.657375,39.55078125,39.0625,-106.4453125,46.875,8.30078125
1771543620.6612813,18.06640625,34.1796875,-96.19140625,36.62109375,34.1796875
1771543620.6651876,-13.671875,24.4140625,-135.7421875,0.0,46.38671875
1771543620.6690938,15.13671875,34.1796875,-124.0234375,9.27734375,35.15625
1771543620.671125,45.8984375,41.50390625,-79.58984375,35.64453125,63.96484375
1771543620.6750312,33.69140625,40.52734375,-71.2890625,42.96875,82.51953125
1771543620.6789374,1.46484375,36.62109375,-114.74609375,23.4375,47.36328125
1771543620.6828437,7.32421875,32.71484375,-124.0234375,8.30078125,5.37109375
1771543620.68675,40.52734375,30.76171875,-74.70703125,22.94921875,10.25390625
1771543620.6906562,42.48046875,37.109375,-50.29296875,37.109375,52.24609375
1771543620.6945624,5.37109375,41.50390625,-90.33203125,19.53125,58.10546875
1771543620.6984687,-20.01953125,37.109375,-125.9765625,-3.41796875,15.625
1771543620.702375,9.27734375,35.64453125,-72.75390625,19.04296875,9.765625
1771543620.7062812,38.57421875,37.109375,-35.15625,41.015625,8.7890625
1771543620.7101874,16.6015625,35.15625,-62.5,20.99609375,25.87890625
1771543620.7140937,-16.6015625,41.50390625,-84.47265625,-1.953125,80.078125
1771543620.715125,-3.90625,47.36328125,-67.3828125,10.25390625,63.96484375
1771543620.7190313,29.78515625,43.45703125,-33.203125,35.15625,36.1328125
1771543620.7229376,20.99609375,43.9453125,-36.1328125,33.69140625,17.578125
1771543620.7268438,-11.71875,39.0625,-65.4296875,9.27734375,20.5078125
1771543620.73075,3.41796875,33.203125,-63.4765625,10.25390625,33.203125
1771543620.7346563,38.0859375,37.109375,-29.78515625,35.64453125,19.53125
1771543620.7385626,35.15625,41.015625,-25.87890625,35.15625,22.94921875
1771543620.7424688,5.859375,45.41015625,-38.0859375,7.8125,46.875
1771543620.746375,-7.8125,44.43359375,-26.3671875,-12.20703125,54.6875
1771543620.7502813,13.18359375,39.55078125,-12.6953125,10.25390625,62.98828125
1771543620.7541876,38.0859375,40.0390625,-1.46484375,36.62109375,19.04296875
1771543620.7580938,15.13671875,41.50390625,-12.20703125,13.671875,-23.92578125
1771543620.776125,-3.41796875,37.59765625,-20.99609375,4.39453125,19.53125
1771543620.7800312,10.25390625,32.2265625,-0.9765625,13.671875,24.90234375
1771543620.7839375,18.06640625,35.64453125,30.76171875,33.69140625,-9.27734375
1771543620.7878437,-4.8828125,33.203125,27.83203125,27.83203125,35.15625
1771543620.79175,-26.3671875,29.296875,-2.44140625,-25.87890625,-5.859375
1771543620.7956562,0.0,31.73828125,24.4140625,-22.94921875,19.04296875
1771543620.7995625,13.18359375,31.73828125,69.82421875,21.484375,66.89453125
1771543620.8034687,-11.71875,34.1796875,79.1015625,11.71875,62.98828125
1771543620.807375,-31.73828125,33.69140625,59.5703125,-25.87890625,21.97265625
1771543620.8112812,-21.484375,31.73828125,49.31640625,-22.94921875,-3.90625
1771543620.8151875,6.34765625,34.1796875,85.9375,7.8125,52.734375
1771543620.8190937,11.23046875,38.57421875,113.28125,13.18359375,97.16796875
1771543620.807125,-20.99609375,38.0859375,73.2421875,-14.16015625,82.03125
1771543620.8110313,-28.3203125,36.62109375,52.734375,-31.73828125,1.953125
1771543620.8149376,-1.953125,35.64453125,104.4921875,-14.16015625,12.6953125
1771543620.8188438,24.4140625,36.1328125,147.94921875,20.01953125,71.2890625
1771543620.82275,0.48828125,36.62109375,101.07421875,12.6953125,66.89453125
1771543620.8266563,-38.0859375,29.78515625,49.8046875,-30.76171875,52.734375
1771543620.8305626,-25.390625,32.2265625,80.56640625,-26.85546875,35.15625
1771543620.8344688,20.5078125,38.57421875,128.41796875,9.27734375,55.17578125
1771543620.838375,7.8125,38.57421875,123.046875,9.27734375,25.390625
1771543620.8422813,-22.4609375,39.55078125,81.0546875,3.90625,-11.71875
1771543620.8461876,10.7421875,36.62109375,87.40234375,18.06640625,66.40625
1771543620.8500938,34.1796875,51.26953125,118.65234375,27.34375,82.51953125
1771543620.866125,36.1328125,56.640625,127.44140625,27.34375,82.03125
1771543620.8700314,22.94921875,43.9453125,124.0234375,22.4609375,86.9140625
1771543620.8739376,18.5546875,44.921875,104.00390625,13.671875,13.18359375
1771543620.8778439,34.66796875,44.43359375,152.83203125,30.2734375,-10.7421875
1771543620.88175,43.9453125,45.41015625,194.3359375,52.24609375,2.44140625
1771543620.8856564,18.5546875,41.015625,155.76171875,23.4375,37.109375
1771543620.8895626,-12.6953125,36.62109375,179.6875,-1.953125,95.21484375
1771543620.8934689,2.44140625,40.52734375,260.7421875,23.92578125,72.265625
1771543620.897375,34.1796875,38.57421875,302.24609375,45.41015625,7.8125
1771543620.9012814,8.7890625,37.109375,298.828125,25.87890625,36.1328125
1771543620.9051876,-4.8828125,35.15625,291.015625,-0.48828125,82.03125
1771543620.9090939,20.01953125,34.1796875,346.19140625,7.32421875,66.40625
1771543620.911125,31.73828125,35.15625,406.25,38.0859375,11.71875
1771543620.9150312,16.11328125,34.1796875,396.484375,25.390625,21.484375
1771543620.9189374,-22.4609375,32.71484375,357.421875,-12.6953125,49.8046875
1771543620.9228437,-4.39453125,32.2265625,366.69921875,1.46484375,31.25
1771543620.92675,27.83203125,30.76171875,412.59765625,40.52734375,15.625
1771543620.9306562,30.76171875,33.69140625,427.24609375,44.921875,6.34765625
1771543620.9345624,11.23046875,41.9921875,393.06640625,20.01953125,38.57421875
1771543620.9384687,0.48828125,36.1328125,371.09375,7.32421875,13.18359375
1771543620.942375,31.73828125,27.34375,404.296875,22.94921875,-11.71875
1771543620.9462812,37.109375,25.87890625,438.96484375,27.34375,-7.32421875
1771543620.9501874,3.41796875,29.296875,460.9375,4.39453125,-53.7109375
1771543620.9540937,-2.44140625,34.1796875,495.1171875,-9.765625,-20.5078125
1771543620.956125,27.83203125,33.203125,568.359375,7.32421875,-3.41796875
1771543620.9600313,54.19921875,35.64453125,669.43359375,31.73828125,24.90234375
1771543620.9639375,19.53125,32.2265625,664.0625,20.01953125,53.22265625
1771543620.9678438,-20.99609375,21.484375,564.94140625,3.41796875,6.34765625
1771543620.97175,-8.7890625,25.390625,564.94140625,17.08984375,46.38671875
1771543620.9756563,11.23046875,28.3203125,594.23828125,33.203125,78.61328125
1771543620.9795625,7.8125,38.57421875,587.890625,16.6015625,19.04296875
1771543620.9834688,-17.08984375,41.50390625,589.84375,-7.8125,34.1796875
1771543620.987375,-6.34765625,28.3203125,584.9609375,-0.48828125,73.73046875
1771543620.9912813,23.4375,30.2734375,677.734375,24.90234375,7.32421875
1771543620.9951875,29.296875,33.203125,763.671875,41.50390625,7.32421875
1771543620.9990938,1.46484375,29.78515625,706.0546875,11.23046875,59.08203125
1771543621.001125,-16.11328125,28.80859375,789.55078125,-14.6484375,52.734375
1771543621.0050313,17.08984375,30.76171875,960.44921875,10.7421875,46.38671875
1771543621.0089376,42.96875,30.76171875,-998.046875,30.76171875,-15.13671875
1771543621.0128438,22.4609375,27.34375,995.1171875,9.27734375,-23.4375
1771543621.01675,0.0,22.94921875,999.51171875,-20.01953125,13.671875
1771543621.0206563,7.8125,21.484375,999.51171875,-1.46484375,3.90625
1771543621.0245626,4.8828125,25.390625,999.51171875,29.78515625,-8.7890625
1771543621.0284688,-31.25,25.390625,999.51171875,18.5546875,-6.34765625
1771543621.032375,-56.640625,17.08984375,999.51171875,-15.625,-3.41796875
1771543621.0362813,-24.90234375,16.11328125,-1000.0,-3.41796875,8.30078125
1771543621.0401876,9.765625,20.99609375,994.62890625,21.97265625,-4.8828125
1771543621.0440938,20.01953125,21.97265625,-997.0703125,19.04296875,42.48046875
1771543621.046125,-3.90625,18.06640625,960.9375,-0.9765625,60.05859375
1771543621.0500312,-16.11328125,17.08984375,789.55078125,-13.671875,20.5078125
1771543621.0539374,-0.9765625,20.5078125,550.78125,0.0,22.94921875
1771543621.0578437,7.8125,23.4375,288.0859375,15.625,9.27734375
1771543621.06175,-12.6953125,21.484375,-43.9453125,-10.25390625,100.5859375
1771543621.0656562,-18.06640625,20.99609375,-389.16015625,-30.76171875,120.1171875
1771543621.0695624,8.30078125,26.3671875,-585.44921875,0.48828125,71.77734375
1771543621.0734687,27.83203125,22.94921875,-625.48828125,24.4140625,95.21484375
1771543621.077375,-21.484375,11.71875,-635.25390625,33.69140625,106.93359375
1771543621.0812812,-80.56640625,9.27734375,-733.88671875,26.85546875,63.96484375
1771543621.0851874,-48.828125,17.08984375,-714.35546875,48.33984375,52.734375
1771543621.0890937,-8.7890625,16.6015625,-660.15625,67.3828125,77.63671875
1771543621.092125,-20.99609375,21.97265625,-765.625,1.953125,29.296875
1771543621.0960312,-25.390625,22.94921875,-861.81640625,-33.69140625,-6.34765625
1771543621.0999374,1.953125,12.20703125,-800.29296875,-3.41796875,0.9765625
1771543621.1038437,34.1796875,23.4375,-657.2265625,11.23046875,18.5546875
1771543621.10775,23.4375,29.78515625,-644.53125,9.27734375,-13.18359375
1771543621.1116562,-7.8125,19.04296875,-748.53515625,-9.765625,-53.7109375
1771543621.1155624,5.859375,16.11328125,-671.875,-17.08984375,54.19921875
1771543621.1194687,48.33984375,27.83203125,-496.58203125,20.01953125,46.38671875
1771543621.123375,59.08203125,34.1796875,-409.1796875,51.26953125,-19.53125
1771543621.1272812,37.109375,29.296875,-493.65234375,20.5078125,11.71875
1771543621.1311874,31.73828125,23.92578125,-520.01953125,4.8828125,1.953125
1771543621.1350937,70.3125,17.578125,-293.45703125,48.828125,-5.859375
1771543621.136125,93.75,20.01953125,-146.97265625,91.796875,73.2421875
1771543621.1400313,78.125,20.99609375,-252.44140625,85.44921875,88.8671875
1771543621.1439376,49.8046875,12.20703125,-347.65625,40.52734375,61.5234375
1771543621.1478438,56.15234375,13.671875,-237.3046875,57.12890625,36.62109375
1771543621.15175,84.9609375,18.06640625,-109.375,96.6796875,-46.875
1771543621.1556563,94.23828125,14.16015625,-145.99609375,96.19140625,-15.13671875
1771543621.1595626,86.42578125,11.71875,-237.79296875,62.01171875,65.4296875
1771543621.1634688,51.7578125,11.71875,-59.5703125,38.0859375,47.8515625
1771543621.167375,67.87109375,17.578125,194.82421875,75.1953125,16.11328125
1771543621.1712813,85.44921875,24.4140625,172.36328125,96.19140625,39.0625
1771543621.1751876,46.875,22.4609375,64.453125,54.19921875,31.73828125
1771543621.1790938,52.24609375,18.06640625,62.01171875,46.875,-30.2734375
1771543621.196125,101.07421875,21.484375,177.734375,66.40625,-52.734375
1771543621.2000313,109.86328125,21.97265625,196.77734375,66.89453125,44.921875
1771543621.2039375,69.3359375,14.16015625,26.3671875,49.31640625,75.68359375
1771543621.2078438,60.546875,15.13671875,3.90625,30.76171875,42.96875
1771543621.21175,78.125,20.01953125,148.92578125,61.03515625,28.80859375
1771543621.2156563,103.02734375,20.99609375,185.05859375,96.19140625,27.83203125
1771543621.2195625,87.890625,18.5546875,100.09765625,82.51953125,20.5078125
1771543621.2234688,54.6875,19.53125,43.45703125,40.52734375,5.37109375
1771543621.227375,67.3828125,21.484375,132.8125,57.12890625,37.109375
1771543621.2312813,103.02734375,20.99609375,194.82421875,89.35546875,56.15234375
1771543621.2351875,94.23828125,22.4609375,181.640625,80.078125,42.96875
1771543621.2390938,62.01171875,21.484375,115.234375,51.7578125,-0.9765625
1771543621.241125,61.5234375,15.625,45.41015625,34.1796875,-6.34765625
1771543621.2450314,91.796875,18.06640625,147.94921875,65.91796875,56.640625
1771543621.2489376,95.21484375,20.5078125,225.5859375,83.49609375,39.55078125
1771543621.2528439,58.10546875,14.16015625,69.3359375,38.57421875,5.859375
1771543621.25675,46.38671875,12.6953125,-61.03515625,13.18359375,31.25
1771543621.2606564,64.453125,9.27734375,20.01953125,40.0390625,40.52734375
1771543621.2645626,92.28515625,9.765625,123.046875,66.40625,56.15234375
1771543621.2684689,78.125,16.6015625,9.765625,51.26953125,41.9921875
1771543621.272375,46.875,14.6484375,-112.79296875,23.4375,31.25
1771543621.2762814,81.54296875,13.671875,-58.10546875,41.9921875,58.10546875
1771543621.2801876,117.67578125,12.6953125,83.49609375,80.56640625,36.62109375
1771543621.2840939,106.93359375,18.06640625,33.69140625,79.1015625,32.71484375
1771543621.286125,81.54296875,17.578125,-128.90625,43.45703125,52.24609375
1771543621.2900312,80.078125,14.16015625,-62.5,45.41015625,72.265625
1771543621.2939374,111.81640625,20.5078125,68.359375,77.1484375,53.7109375
1771543621.2978437,115.72265625,29.78515625,48.33984375,80.078125,83.984375
1771543621.30175,74.21875,28.80859375,-99.609375,40.0390625,62.01171875
1771543621.3056562,55.6640625,21.97265625,-105.46875,19.04296875,-8.30078125
1771543621.3095624,83.984375,20.99609375,73.73046875,52.24609375,18.06640625
1771543621.3134687,84.47265625,22.94921875,145.5078125,77.1484375,66.40625
1771543621.317375,38.57421875,20.01953125,-34.1796875,45.41015625,94.23828125
1771543621.3212812,16.6015625,14.16015625,-75.68359375,11.23046875,53.7109375
1771543621.3251874,44.921875,20.5078125,147.94921875,40.52734375,74.70703125
1771543621.3290937,72.265625,28.3203125,210.44921875,78.125,114.2578125
1771543621.331125,41.9921875,23.92578125,77.63671875,53.7109375,90.8203125
1771543621.3350313,14.16015625,19.53125,15.625,5.859375,63.4765625
1771543621.3389375,47.36328125,23.92578125,128.90625,17.08984375,82.51953125
1771543621.3428438,77.63671875,27.83203125,211.9140625,66.89453125,80.56640625
1771543621.34675,73.2421875,25.390625,139.6484375,51.7578125,-13.18359375
1771543621.3506563,36.62109375,22.4609375,35.64453125,19.53125,-5.37109375
1771543621.3545625,24.90234375,22.4609375,91.30859375,26.3671875,19.53125
1771543621.3584688,57.12890625,21.484375,201.171875,45.41015625,20.99609375
1771543621.362375,67.3828125,21.484375,195.3125,62.98828125,50.78125
1771543621.3662813,54.6875,24.90234375,121.58203125,10.7421875,8.7890625
1771543621.3701875,67.3828125,28.80859375,104.4921875,-23.4375,-24.4140625
1771543621.3740938,104.4921875,33.203125,191.89453125,26.3671875,-22.94921875
1771543621.376125,60.05859375,34.1796875,247.55859375,55.17578125,-2.44140625
1771543621.3800313,-33.69140625,26.85546875,162.109375,33.69140625,14.16015625
1771543621.3839376,-41.9921875,22.4609375,92.28515625,13.671875,-13.18359375
1771543621.3878438,1.46484375,22.94921875,169.921875,28.3203125,-3.41796875
1771543621.39175,33.203125,22.94921875,245.1171875,51.26953125,26.85546875
1771543621.3956563,12.6953125,18.06640625,150.87890625,31.25,3.90625
1771543621.3995626,-25.87890625,12.20703125,46.38671875,-1.953125,18.5546875
1771543621.4034688,3.90625,15.13671875,91.30859375,-2.9296875,74.70703125
1771543621.407375,36.62109375,16.6015625,204.58984375,26.3671875,109.375
1771543621.4112813,14.6484375,16.11328125,194.82421875,13.671875,65.91796875
1771543621.4151876,-23.4375,11.71875,58.10546875,-20.5078125,-0.9765625
1771543621.4190938,-20.5078125,7.8125,78.125,-20.5078125,13.671875
1771543621.422125,12.6953125,18.06640625,201.66015625,10.7421875,38.57421875
1771543621.4260314,20.5078125,27.83203125,199.21875,18.5546875,76.66015625
1771543621.4299376,4.8828125,34.1796875,35.15625,-10.25390625,46.38671875
1771543621.4338439,8.30078125,33.69140625,-0.9765625,-18.5546875,18.06640625
1771543621.43775,38.0859375,23.4375,125.9765625,5.37109375,55.17578125
1771543621.4416564,58.59375,20.5078125,167.96875,29.296875,91.30859375
1771543621.4455626,32.2265625,21.97265625,52.734375,-9.765625,91.796875
1771543621.4494689,-2.9296875,20.01953125,-56.15234375,-44.43359375,35.64453125
1771543621.453375,-11.23046875,20.99609375,80.078125,-18.06640625,26.3671875
1771543621.4572814,-6.8359375,26.85546875,207.51953125,43.45703125,42.48046875
1771543621.4611876,-10.25390625,29.296875,95.21484375,56.640625,57.12890625
1771543621.4650939,-28.3203125,23.92578125,-22.4609375,4.8828125,12.20703125
1771543621.465125,-3.41796875,19.04296875,45.8984375,10.7421875,-12.6953125
1771543621.4690313,42.96875,23.4375,157.71484375,40.52734375,76.171875
1771543621.4729376,43.45703125,21.484375,133.30078125,19.53125,58.59375
1771543621.4768438,-6.34765625,8.7890625,15.625,-34.66796875,26.85546875
1771543621.48075,-28.80859375,5.37109375,-13.18359375,-17.08984375,0.0
1771543621.4846563,21.97265625,4.8828125,93.75,46.38671875,26.85546875
1771543621.4885626,48.828125,6.8359375,99.609375,56.15234375,62.01171875
1771543621.4924688,5.37109375,8.7890625,-23.4375,7.8125,6.8359375
1771543621.496375,-15.13671875,8.7890625,-29.296875,-17.578125,8.7890625
1771543621.5002813,15.625,11.71875,49.31640625,11.71875,42.48046875
1771543621.5041876,48.33984375,15.13671875,97.65625,45.41015625,46.875
1771543621.5080938,50.78125,14.6484375,43.45703125,49.31640625,39.0625
1771543621.510125,49.31640625,13.671875,-34.66796875,17.08984375,20.99609375
1771543621.5140312,118.1640625,17.08984375,-8.30078125,20.99609375,21.484375
1771543621.5179374,147.4609375,18.06640625,49.31640625,61.5234375,65.91796875
1771543621.5218437,40.52734375,9.765625,-6.34765625,38.0859375,63.96484375
1771543621.52575,-55.17578125,2.9296875,-109.86328125,0.0,-24.4140625
1771543621.5296562,-21.484375,3.41796875,-77.1484375,3.41796875,4.39453125
1771543621.5335624,15.625,4.8828125,12.6953125,41.015625,-18.5546875
1771543621.5374687,8.7890625,6.8359375,52.734375,61.5234375,-12.6953125
1771543621.541375,-9.765625,6.34765625,-36.1328125,20.5078125,3.90625
1771543621.5452812,-14.6484375,2.9296875,-92.28515625,1.46484375,15.13671875
1771543621.5491874,32.2265625,8.30078125,4.8828125,30.76171875,83.0078125
1771543621.5530937,55.6640625,14.16015625,63.4765625,51.7578125,35.15625
1771543621.571125,23.92578125,12.20703125,-41.9921875,23.4375,7.32421875
1771543621.5750313,-4.39453125,5.37109375,-104.4921875,8.30078125,48.828125
1771543621.5789375,18.06640625,2.44140625,-7.32421875,69.82421875,4.8828125
1771543621.5828438,55.6640625,7.32421875,81.54296875,122.55859375,-31.73828125
1771543621.58675,31.73828125,8.7890625,14.16015625,98.14453125,19.53125
1771543621.5906563,2.44140625,3.41796875,-115.234375,13.671875,36.62109375
1771543621.5945625,38.0859375,5.37109375,-40.0390625,-18.5546875,79.1015625
1771543621.5984688,73.2421875,12.6953125,86.42578125,25.87890625,64.453125
1771543621.602375,69.3359375,13.18359375,16.11328125,34.1796875,-19.53125
1771543621.6062813,3.41796875,9.765625,-96.6796875,-1.953125,28.3203125
1771543621.6101875,3.90625,9.765625,-71.2890625,-6.34765625,73.73046875
1771543621.6140938,63.96484375,11.23046875,33.69140625,34.1796875,46.875
1771543621.615125,65.4296875,14.6484375,18.06640625,55.6640625,51.7578125
1771543621.6190312,47.36328125,16.11328125,-125.48828125,21.484375,6.8359375
1771543621.6229374,31.73828125,11.71875,-138.18359375,13.18359375,-43.45703125
1771543621.6268437,60.05859375,15.625,-21.484375,55.6640625,8.7890625
1771543621.63075,86.9140625,23.4375,2.9296875,66.89453125,56.15234375
1771543621.6346562,49.31640625,23.92578125,-116.69921875,41.015625,26.85546875
1771543621.6385624,-2.9296875,16.11328125,-172.8515625,25.87890625,-8.30078125
1771543621.6424687,25.390625,16.6015625,-62.98828125,38.57421875,44.43359375
1771543621.646375,84.47265625,23.92578125,-25.390625,69.82421875,38.0859375
1771543621.6502812,64.94140625,23.92578125,-123.53515625,67.3828125,43.45703125
1771543621.6541874,8.7890625,23.4375,-175.29296875,26.3671875,85.44921875
1771543621.6580937,19.53125,24.90234375,-133.30078125,32.71484375,23.92578125
1771543621.661125,69.3359375,27.34375,-67.87109375,63.4765625,-2.9296875
1771543621.6650312,58.10546875,31.25,-79.1015625,84.9609375,35.64453125
1771543621.6689374,20.5078125,26.3671875,-170.41015625,57.6171875,29.296875
1771543621.6728437,30.2734375,21.97265625,-169.921875,18.5546875,12.6953125
1771543621.67675,66.89453125,28.3203125,-71.2890625,57.12890625,61.03515625
1771543621.6806562,87.40234375,29.78515625,-76.66015625,92.28515625,50.78125
1771543621.6845624,53.22265625,23.4375,-181.15234375,49.8046875,17.578125
1771543621.6884687,34.66796875,22.94921875,-203.61328125,19.53125,6.8359375
1771543621.692375,59.5703125,27.34375,-145.99609375,42.96875,39.55078125
1771543621.6962812,80.078125,32.71484375,-78.125,77.1484375,53.22265625
1771543621.7001874,70.3125,32.2265625,-100.09765625,62.98828125,54.6875
1771543621.7040937,45.8984375,24.90234375,-184.5703125,31.73828125,13.18359375
1771543621.707125,30.76171875,24.90234375,-113.76953125,21.97265625,-19.53125
1771543621.7110312,36.1328125,24.90234375,-32.71484375,42.96875,15.625
1771543621.7149374,38.57421875,21.97265625,-90.33203125,39.55078125,7.32421875
1771543621.7188437,-6.8359375,19.04296875,-188.96484375,-22.4609375,10.7421875
1771543621.72275,6.8359375,14.16015625,-157.71484375,-19.04296875,42.48046875
1771543621.7266562,57.6171875,15.13671875,-44.921875,24.90234375,70.80078125
1771543621.7305624,59.08203125,16.11328125,-62.5,32.2265625,52.24609375
1771543621.7344687,15.625,14.16015625,-198.2421875,-4.39453125,20.5078125
1771543621.738375,-16.11328125,11.71875,-228.515625,-14.6484375,-10.25390625
1771543621.7422812,10.7421875,18.5546875,-86.9140625,37.109375,21.484375
1771543621.7461874,52.734375,22.94921875,-42.96875,70.80078125,119.140625
1771543621.7500937,6.8359375,20.99609375,-172.8515625,49.8046875,111.81640625
1771543621.750125,-33.69140625,16.6015625,-220.703125,2.44140625,47.8515625
1771543621.7540312,21.484375,19.04296875,-114.74609375,29.296875,38.0859375
1771543621.7579374,53.7109375,26.3671875,-56.640625,80.078125,81.54296875
1771543621.7618437,30.2734375,19.53125,-151.85546875,61.03515625,26.85546875
1771543621.76575,21.484375,5.859375,-224.12109375,40.0390625,-4.39453125
1771543621.7696562,38.0859375,6.8359375,-139.6484375,47.36328125,33.69140625
1771543621.7735624,60.05859375,17.08984375,-56.15234375,62.01171875,-19.53125
1771543621.7774687,53.22265625,19.04296875,-121.09375,56.15234375,21.484375
1771543621.781375,0.0,24.90234375,-211.42578125,18.06640625,81.0546875
1771543621.7852812,7.8125,33.69140625,-125.48828125,-1.46484375,75.68359375
1771543621.7891874,50.78125,23.4375,-31.25,35.64453125,71.77734375
1771543621.7930937,71.2890625,18.06640625,-46.38671875,64.94140625,5.37109375
1771543621.796125,39.55078125,25.390625,-135.25390625,36.62109375,3.90625
1771543621.8000312,10.25390625,24.90234375,-155.2734375,3.90625,59.5703125
1771543621.8039374,52.734375,22.4609375,-80.078125,36.1328125,89.84375
1771543621.8078437,72.75390625,19.53125,-49.31640625,80.078125,54.6875
1771543621.81175,30.76171875,17.08984375,-135.7421875,52.734375,2.44140625
1771543621.8156562,11.23046875,21.484375,-211.9140625,14.6484375,13.18359375
1771543621.8195624,37.59765625,34.66796875,-138.18359375,29.296875,69.82421875
1771543621.8234687,79.58984375,40.52734375,-83.984375,88.37890625,88.37890625
1771543621.827375,72.75390625,31.25,-124.51171875,78.61328125,17.578125
1771543621.8312812,13.18359375,20.01953125,-176.26953125,31.25,-80.078125
1771543621.8351874,26.3671875,19.04296875,-133.30078125,51.7578125,-18.5546875
1771543621.8390937,76.171875,36.62109375,-44.921875,84.9609375,50.29296875
1771543621.841125,65.91796875,42.48046875,-60.546875,71.2890625,78.125
1771543621.8450313,20.01953125,33.69140625,-180.6640625,27.83203125,78.61328125
1771543621.8489375,18.06640625,30.76171875,-172.8515625,7.32421875,41.50390625
1771543621.8528438,52.24609375,31.73828125,-59.5703125,33.69140625,46.875
1771543621.85675,77.63671875,41.50390625,-43.45703125,62.01171875,56.15234375
1771543621.8606563,43.45703125,38.57421875,-148.4375,34.1796875,60.05859375
1771543621.8645625,3.41796875,28.3203125,-208.49609375,-8.7890625,25.390625
1771543621.8684688,33.69140625,32.2265625,-98.14453125,20.99609375,33.69140625
1771543621.872375,61.03515625,41.50390625,-8.30078125,58.59375,17.578125
1771543621.8762813,27.34375,41.015625,-100.09765625,36.1328125,-35.15625
1771543621.8801875,2.44140625,34.66796875,-163.57421875,2.9296875,4.39453125
1771543621.8840938,35.64453125,31.25,-69.3359375,25.390625,63.96484375
1771543621.886125,62.01171875,33.69140625,12.6953125,75.1953125,76.171875
1771543621.8900313,51.7578125,35.64453125,-66.89453125,68.84765625,56.640625
1771543621.8939376,14.6484375,35.15625,-166.50390625,3.90625,20.99609375
1771543621.8978438,-4.8828125,25.390625,-104.4921875,-0.9765625,56.15234375
1771543621.90175,56.640625,24.4140625,-8.7890625,54.6875,86.9140625
1771543621.9056563,88.8671875,46.875,-36.62109375,88.8671875,41.50390625
1771543621.9095626,33.69140625,42.96875,-154.296875,47.8515625,0.48828125
1771543621.9134688,23.4375,18.06640625,-131.34765625,12.20703125,7.8125
1771543621.917375,53.7109375,17.578125,-18.5546875,38.57421875,64.453125
1771543621.9212813,62.01171875,27.34375,-18.5546875,62.5,31.25
1771543621.9251876,18.06640625,20.5078125,-107.91015625,33.203125,15.625
1771543621.9290938,-1.46484375,19.04296875,-139.16015625,2.44140625,60.546875
1771543621.932125,51.26953125,33.69140625,-52.24609375,31.73828125,66.40625
1771543621.9360313,75.68359375,42.48046875,-9.27734375,66.40625,95.21484375
1771543621.9399376,42.48046875,39.55078125,-82.51953125,46.38671875,88.8671875
1771543621.9438438,18.5546875,36.62109375,-136.23046875,13.18359375,9.27734375
1771543621.94775,39.55078125,28.80859375,-79.1015625,21.97265625,31.25
1771543621.9516563,78.125,29.78515625,-9.27734375,63.96484375,81.54296875
1771543621.9555626,73.2421875,38.57421875,-48.33984375,74.70703125,1.953125
1771543621.9594688,16.11328125,38.0859375,-120.60546875,32.2265625,6.34765625
1771543621.963375,12.20703125,34.66796875,-96.6796875,2.44140625,30.2734375
1771543621.9672813,74.21875,34.66796875,-36.62109375,41.015625,25.87890625
1771543621.9711876,81.0546875,41.50390625,-16.11328125,69.82421875,38.0859375
1771543621.9750938,33.203125,40.0390625,-80.078125,25.87890625,36.1328125
1771543621.991125,25.87890625,33.203125,-121.58203125,4.39453125,-1.46484375
1771543621.9950314,47.8515625,35.15625,-34.66796875,37.109375,-26.3671875
1771543621.9989376,66.89453125,42.96875,26.3671875,66.40625,10.7421875
1771543622.0028439,46.875,40.0390625,-61.03515625,34.66796875,-14.16015625
1771543622.00675,16.11328125,34.66796875,-128.90625,5.37109375,-46.38671875
1771543622.0106564,52.734375,38.0859375,-79.1015625,24.90234375,47.36328125
1771543622.0145626,85.44921875,44.921875,13.18359375,58.10546875,63.96484375
1771543622.0184689,58.10546875,50.78125,-3.41796875,52.24609375,37.59765625
1771543622.022375,19.04296875,35.64453125,-116.2109375,18.06640625,-8.7890625
1771543622.0262814,22.94921875,19.04296875,-78.125,27.83203125,-27.34375
1771543622.0301876,55.17578125,24.4140625,30.76171875,59.5703125,36.62109375
1771543622.0340939,55.6640625,33.203125,15.13671875,52.24609375,103.02734375
1771543622.037125,16.11328125,37.109375,-94.23828125,17.08984375,101.5625
1771543622.0410314,3.41796875,37.109375,-99.12109375,2.9296875,-16.6015625
1771543622.0449376,34.1796875,42.96875,-0.48828125,31.25,-51.26953125
1771543622.0488439,56.640625,44.921875,12.6953125,39.0625,-1.953125
1771543622.05275,30.76171875,41.50390625,-94.7265625,1.46484375,3.41796875
1771543622.0566564,4.39453125,39.0625,-116.2109375,-13.18359375,46.875
1771543622.0605626,35.15625,38.57421875,-28.3203125,20.01953125,17.08984375
1771543622.0644689,50.78125,40.0390625,21.97265625,51.7578125,12.6953125
1771543622.068375,27.34375,41.50390625,-65.4296875,13.671875,90.8203125
1771543622.0722814,7.32421875,39.0625,-128.90625,-14.16015625,87.40234375
1771543622.0761876,12.20703125,35.15625,-23.92578125,7.32421875,32.2265625
1771543622.0800939,48.828125,37.59765625,33.69140625,31.73828125,1.953125
1771543622.096125,42.48046875,41.50390625,-29.78515625,37.59765625,2.44140625
1771543622.1000311,5.37109375,38.57421875,-104.00390625,5.859375,-34.1796875
1771543622.1039374,25.390625,32.2265625,-57.6171875,9.765625,-36.1328125
1771543622.1078436,59.08203125,28.3203125,17.08984375,50.29296875,-6.8359375
1771543622.11175,61.03515625,28.3203125,-3.90625,59.08203125,2.9296875
1771543622.1156561,25.390625,36.62109375,-90.8203125,16.11328125,14.16015625
1771543622.1195624,-2.9296875,41.9921875,-90.8203125,-4.8828125,34.66796875
1771543622.1234686,33.69140625,43.9453125,-8.30078125,31.73828125,8.30078125
1771543622.127375,62.5,41.015625,1.46484375,51.26953125,9.765625
1771543622.1312811,20.99609375,38.57421875,-48.33984375,14.16015625,11.71875
1771543622.1351874,-6.34765625,37.59765625,-56.640625,-15.625,22.94921875
1771543622.1390936,40.0390625,33.69140625,8.7890625,15.13671875,81.0546875
1771543622.126125,64.94140625,39.55078125,57.12890625,45.8984375,41.015625
1771543622.1300313,13.18359375,37.109375,-5.37109375,23.92578125,71.2890625
1771543622.1339376,-15.13671875,30.76171875,-84.9609375,-14.6484375,71.2890625
1771543622.1378438,14.16015625,38.57421875,-41.9921875,-4.39453125,28.3203125
1771543622.14175,51.26953125,37.109375,39.0625,45.41015625,41.9921875
1771543622.1456563,35.15625,35.15625,-1.46484375,42.96875,59.5703125
1771543622.1495626,-12.20703125,35.64453125,-97.65625,4.8828125,30.2734375
1771543622.1534688,9.765625,31.25,-62.01171875,11.71875,-25.87890625
1771543622.157375,39.0625,39.0625,33.69140625,50.29296875,13.18359375
1771543622.1612813,42.96875,42.48046875,36.62109375,51.26953125,32.2265625
1771543622.1651876,22.94921875,38.0859375,-49.8046875,3.41796875,2.44140625
1771543622.1690938,-3.41796875,30.2734375,-104.00390625,-12.20703125,-19.04296875
1771543622.171125,33.69140625,32.2265625,-2.9296875,25.87890625,28.80859375
1771543622.1750312,62.01171875,41.50390625,74.21875,52.734375,40.0390625
1771543622.1789374,18.5546875,18.06640625,-26.3671875,24.90234375,21.484375
1771543622.1828437,-5.859375,11.23046875,-75.1953125,9.765625,66.89453125
1771543622.18675,44.43359375,43.9453125,-0.48828125,45.41015625,60.05859375
1771543622.1906562,68.359375,51.26953125,45.8984375,65.91796875,39.55078125
1771543622.1945624,7.8125,39.55078125,-15.13671875,28.80859375,94.7265625
1771543622.1984687,-24.90234375,39.0625,-108.3984375,-19.04296875,73.2421875
1771543622.202375,26.85546875,43.9453125,-30.76171875,7.8125,41.9921875
1771543622.2062812,61.03515625,43.45703125,75.68359375,51.7578125,79.1015625
1771543622.2101874,38.57421875,39.55078125,30.76171875,40.52734375,54.19921875
1771543622.2140937,-0.48828125,34.66796875,-63.4765625,3.41796875,37.109375
1771543622.215125,22.94921875,33.203125,-40.0390625,9.27734375,12.6953125
1771543622.2190313,46.38671875,39.55078125,47.36328125,58.10546875,8.7890625
1771543622.2229376,36.62109375,40.0390625,34.1796875,75.1953125,51.7578125
1771543622.2268438,10.25390625,34.66796875,-53.7109375,20.01953125,60.546875
1771543622.23075,5.37109375,34.66796875,-61.03515625,12.6953125,49.31640625
1771543622.2346563,45.41015625,34.66796875,12.20703125,59.08203125,54.6875
1771543622.2385626,65.91796875,34.66796875,27.34375,62.98828125,-2.44140625
1771543622.2424688,44.43359375,36.62109375,-34.1796875,31.73828125,-12.6953125
1771543622.246375,14.6484375,30.76171875,-46.38671875,1.46484375,13.671875
1771543622.2502813,37.109375,23.92578125,11.71875,36.62109375,31.25
1771543622.2541876,62.5,32.2265625,57.12890625,90.33203125,7.8125
1771543622.2580938,49.31640625,40.0390625,18.5546875,65.4296875,11.23046875
1771543622.262125,6.34765625,34.1796875,-56.640625,10.25390625,30.76171875
1771543622.2660313,18.5546875,28.80859375,-48.828125,9.765625,32.71484375
1771543622.2699375,66.40625,35.64453125,28.3203125,36.62109375,40.0390625
1771543622.2738438,53.7109375,41.9921875,35.64453125,41.9921875,2.9296875
1771543622.27775,6.8359375,26.3671875,-45.41015625,13.18359375,7.32421875
1771543622.2816563,14.6484375,17.578125,-57.12890625,15.625,61.5234375
1771543622.2855625,53.22265625,29.296875,14.16015625,39.55078125,47.8515625
1771543622.2894688,63.96484375,35.15625,60.05859375,55.17578125,6.34765625
1771543622.293375,30.76171875,34.1796875,-16.11328125,32.2265625,0.0
1771543622.2972813,-13.18359375,16.6015625,-70.80078125,2.44140625,8.7890625
1771543622.3011875,26.85546875,21.97265625,15.625,40.52734375,47.8515625
1771543622.3050938,62.98828125,46.38671875,79.1015625,67.3828125,62.98828125
1771543622.320125,36.1328125,44.921875,8.7890625,37.109375,86.9140625
1771543622.3240314,-4.8828125,39.55078125,-72.75390625,0.48828125,92.28515625
1771543622.3279376,12.20703125,36.62109375,-12.20703125,19.04296875,73.73046875
1771543622.3318439,50.78125,38.57421875,63.4765625,57.12890625,100.09765625
1771543622.33575,31.25,38.0859375,2.9296875,37.109375,77.1484375
1771543622.3396564,-8.7890625,31.25,-106.93359375,-8.30078125,-0.48828125
1771543622.3435626,4.8828125,23.4375,-85.44921875,-0.48828125,33.69140625
1771543622.3474689,45.41015625,30.2734375,48.33984375,35.64453125,53.7109375
1771543622.351375,43.45703125,36.1328125,65.4296875,53.7109375,50.29296875
1771543622.3552814,4.39453125,19.53125,-37.59765625,26.3671875,39.55078125
1771543622.3591876,-4.8828125,10.7421875,-53.22265625,2.44140625,-14.16015625
1771543622.3630939,36.1328125,25.87890625,35.15625,42.48046875,7.8125
1771543622.366125,53.22265625,40.52734375,60.05859375,74.21875,57.6171875
1771543622.3700314,23.92578125,41.9921875,-31.25,32.2265625,-8.30078125
1771543622.3739376,6.8359375,40.52734375,-63.4765625,-6.8359375,-19.53125
1771543622.3778439,40.0390625,38.57421875,18.06640625,26.85546875,35.15625
1771543622.38175,62.01171875,35.15625,63.96484375,66.89453125,44.921875
1771543622.3856564,35.64453125,33.69140625,-11.71875,56.640625,19.04296875
1771543622.3895626,5.859375,27.83203125,-76.171875,12.6953125,14.6484375
1771543622.3934689,23.92578125,27.34375,-17.08984375,8.30078125,23.92578125
1771543622.397375,61.03515625,29.296875,37.59765625,38.57421875,5.859375
1771543622.4012814,51.7578125,25.390625,-27.34375,35.64453125,-38.57421875
1771543622.4051876,20.5078125,32.71484375,-69.3359375,-6.34765625,-12.20703125
1771543622.4090939,6.34765625,31.25,-14.6484375,-4.8828125,86.42578125
1771543622.411125,22.94921875,25.390625,47.8515625,39.55078125,74.21875
1771543622.4150312,50.78125,32.2265625,56.640625,57.6171875,-5.859375
1771543622.4189374,19.04296875,30.76171875,-20.01953125,22.4609375,-33.69140625
1771543622.4228437,-6.8359375,28.3203125,-50.29296875,-13.18359375,-32.2265625
1771543622.42675,25.87890625,35.15625,21.97265625,26.3671875,-9.765625
1771543622.4306562,51.7578125,39.55078125,52.734375,56.640625,7.8125
1771543622.4345624,25.390625,26.3671875,-17.08984375,21.97265625,33.69140625
1771543622.4384687,2.9296875,11.71875,-46.38671875,-2.44140625,88.37890625
1771543622.442375,41.9921875,20.5078125,0.48828125,28.3203125,65.4296875
1771543622.4462812,67.87109375,34.66796875,62.01171875,63.4765625,53.22265625
1771543622.4501874,40.52734375,31.25,44.43359375,43.9453125,28.80859375
1771543622.4540937,4.39453125,13.671875,-54.19921875,9.27734375,-1.953125
1771543622.456125,6.34765625,16.11328125,-25.87890625,13.18359375,30.2734375
1771543622.4600313,43.45703125,31.73828125,71.77734375,56.640625,69.82421875
1771543622.4639375,35.64453125,40.0390625,41.9921875,74.70703125,-4.39453125
1771543622.4678438,-10.25390625,44.921875,-66.40625,29.296875,-49.31640625
1771543622.47175,-3.90625,36.62109375,-60.05859375,17.578125,-1.953125
1771543622.4756563,40.0390625,36.62109375,30.2734375,48.828125,0.0
1771543622.4795625,59.5703125,31.73828125,61.03515625,60.546875,21.97265625
1771543622.4834688,21.97265625,22.4609375,-30.76171875,25.390625,38.57421875
1771543622.487375,-5.37109375,27.34375,-85.9375,9.27734375,51.26953125
1771543622.4912813,25.87890625,31.25,26.3671875,35.64453125,62.5
1771543622.4951875,60.546875,38.0859375,79.1015625,60.05859375,60.546875
1771543622.4990938,35.64453125,41.50390625,-31.73828125,35.64453125,1.46484375
1771543622.501125,-0.48828125,35.64453125,-84.47265625,-5.37109375,-39.0625
1771543622.5050313,15.625,32.2265625,4.39453125,21.484375,25.390625
1771543622.5089376,43.9453125,35.64453125,65.4296875,64.453125,35.15625
1771543622.5128438,29.296875,37.59765625,23.92578125,47.36328125,3.41796875
1771543622.51675,1.46484375,32.71484375,-50.78125,8.7890625,11.23046875
1771543622.5206563,22.4609375,26.85546875,-41.015625,24.4140625,-14.16015625
1771543622.5245626,58.10546875,28.3203125,50.78125,61.5234375,-15.625
1771543622.5284688,58.10546875,25.87890625,38.57421875,67.87109375,67.87109375
1771543622.532375,24.4140625,24.4140625,-58.59375,14.6484375,75.68359375
1771543622.5362813,15.625,33.203125,-36.62109375,-6.8359375,31.73828125
1771543622.5401876,42.96875,38.0859375,33.203125,38.0859375,-2.44140625
1771543622.5440938,59.08203125,33.203125,53.22265625,60.05859375,-35.64453125
1771543622.546125,39.55078125,31.73828125,-9.27734375,32.2265625,24.90234375
1771543622.5500312,4.39453125,30.2734375,-56.640625,15.625,34.1796875
1771543622.5539374,18.06640625,26.85546875,11.71875,44.921875,24.90234375
1771543622.5578437,49.8046875,16.11328125,61.03515625,67.3828125,8.7890625
1771543622.56175,38.0859375,20.01953125,18.06640625,48.828125,1.46484375
1771543622.5656562,15.625,35.64453125,-50.78125,5.37109375,54.6875
1771543622.5695624,23.4375,34.66796875,-23.92578125,12.20703125,74.21875
1771543622.5734687,46.38671875,30.2734375,37.109375,44.921875,49.31640625
1771543622.577375,41.9921875,27.83203125,39.55078125,49.8046875,60.05859375
1771543622.5812812,20.01953125,28.80859375,-37.59765625,22.4609375,27.83203125
1771543622.5851874,12.20703125,31.25,-45.41015625,17.08984375,-41.015625
1771543622.5890937,21.484375,36.1328125,48.33984375,32.2265625,32.71484375
1771543622.591125,31.73828125,36.62109375,64.453125,32.2265625,76.171875
1771543622.5950313,0.48828125,34.1796875,-32.71484375,4.39453125,29.296875
1771543622.5989375,-22.94921875,32.2265625,-65.91796875,-31.25,16.6015625
1771543622.6028438,7.8125,23.4375,10.7421875,-3.41796875,13.671875
1771543622.60675,27.83203125,16.6015625,62.01171875,26.3671875,-4.8828125
1771543622.6106563,-23.92578125,19.53125,-10.25390625,-2.9296875,18.5546875
1771543622.6145625,-38.57421875,23.92578125,-94.23828125,-35.15625,50.78125
1771543622.6184688,1.46484375,29.296875,-41.50390625,-23.4375,52.24609375
1771543622.622375,12.20703125,31.25,57.12890625,23.4375,33.203125
1771543622.6262813,-2.44140625,30.76171875,15.13671875,16.11328125,39.55078125
1771543622.6301875,-25.390625,37.109375,-66.40625,-31.73828125,20.01953125
1771543622.6340938,-13.671875,43.9453125,-13.18359375,-7.8125,51.26953125
1771543622.636125,12.20703125,38.57421875,53.7109375,35.15625,21.97265625
1771543622.6400313,19.04296875,33.203125,22.4609375,27.83203125,-21.97265625
1771543622.6439376,-15.625,24.4140625,-56.15234375,-13.671875,71.2890625
1771543622.6478438,-15.13671875,7.8125,-37.59765625,-20.5078125,80.078125
1771543622.65175,34.66796875,30.76171875,54.6875,31.25,41.9921875
1771543622.6556563,36.62109375,51.7578125,52.734375,52.734375,13.18359375
1771543622.6595626,-5.859375,39.55078125,-55.6640625,15.625,0.9765625
1771543622.6634688,-14.6484375,35.15625,-59.5703125,-14.16015625,-2.44140625
1771543622.667375,12.20703125,38.57421875,37.109375,14.16015625,4.8828125
1771543622.6712813,41.9921875,37.59765625,59.5703125,55.6640625,19.04296875
1771543622.6751876,24.90234375,27.34375,-6.34765625,34.1796875,22.4609375
1771543622.6790938,17.578125,31.73828125,-41.9921875,10.25390625,88.8671875
1771543622.695125,43.9453125,41.015625,16.11328125,40.0390625,62.5
1771543622.6990314,55.6640625,46.875,57.12890625,62.5,-13.18359375
1771543622.7029376,33.203125,46.38671875,20.5078125,30.2734375,46.38671875
1771543622.7068439,-9.765625,37.59765625,-58.59375,-4.39453125,83.0078125
1771543622.71075,0.48828125,38.57421875,-41.9921875,0.48828125,0.9765625
1771543622.7146564,38.0859375,38.0859375,14.16015625,37.59765625,33.69140625
1771543622.7185626,49.8046875,40.0390625,20.5078125,61.03515625,56.640625
1771543622.7224689,23.92578125,38.0859375,-22.4609375,29.78515625,35.64453125
1771543622.726375,19.04296875,34.66796875,-39.55078125,2.44140625,42.48046875
1771543622.7302814,55.17578125,42.96875,26.85546875,30.2734375,76.66015625
1771543622.7341876,73.73046875,46.875,66.40625,71.2890625,58.59375
1771543622.7380939,35.15625,34.1796875,2.9296875,43.9453125,32.2265625
1771543622.744125,3.41796875,25.87890625,-57.12890625,18.5546875,32.2265625
1771543622.7480311,31.73828125,32.71484375,0.0,41.50390625,-11.71875
1771543622.7519374,60.05859375,33.69140625,66.89453125,67.87109375,-25.390625
1771543622.7558436,39.55078125,31.25,9.27734375,55.17578125,-24.90234375
1771543622.75975,9.27734375,28.80859375,-68.359375,21.484375,3.41796875
1771543622.7636561,21.97265625,25.87890625,-26.3671875,20.01953125,58.10546875
1771543622.7675624,51.7578125,36.1328125,60.546875,58.59375,73.2421875
1771543622.7714686,48.33984375,53.7109375,42.96875,66.40625,46.875
1771543622.775375,15.13671875,52.734375,-79.1015625,17.578125,-17.08984375
1771543622.7792811,16.11328125,38.0859375,-76.171875,-9.27734375,21.97265625
1771543622.7831874,47.36328125,41.015625,41.015625,43.45703125,47.8515625
1771543622.7870936,51.26953125,44.921875,62.98828125,78.125,37.109375
1771543622.786125,28.80859375,35.64453125,-51.26953125,28.80859375,9.27734375
1771543622.7900312,-0.9765625,30.2734375,-84.9609375,-3.90625,24.4140625
1771543622.7939374,6.8359375,33.203125,23.92578125,17.08984375,64.453125
1771543622.7978437,38.0859375,39.55078125,66.89453125,62.98828125,73.2421875
1771543622.80175,6.8359375,8.7890625,-48.828125,38.0859375,31.25
1771543622.8056562,10.25390625,5.37109375,-96.6796875,26.3671875,-20.5078125
1771543622.8095624,73.2421875,49.31640625,30.76171875,76.171875,39.55078125
1771543622.8134687,64.453125,47.36328125,75.68359375,69.82421875,47.8515625
1771543622.817375,2.9296875,30.2734375,-47.8515625,14.16015625,25.87890625
1771543622.8212812,-33.69140625,24.4140625,-123.53515625,-26.85546875,42.48046875
1771543622.8251874,0.9765625,35.15625,-23.92578125,7.8125,50.78125
1771543622.8290937,40.52734375,32.2265625,50.29296875,52.24609375,49.8046875
1771543622.846125,38.0859375,25.390625,11.23046875,43.9453125,53.22265625
1771543622.8500311,12.6953125,33.203125,-76.66015625,16.11328125,36.1328125
1771543622.8539374,5.859375,33.203125,-69.3359375,13.671875,15.13671875
1771543622.8578436,34.66796875,35.15625,-10.7421875,41.015625,14.6484375
1771543622.86175,47.8515625,41.015625,-3.41796875,55.17578125,78.125
1771543622.8656561,15.13671875,34.1796875,-70.3125,33.203125,114.2578125
1771543622.8695624,1.46484375,26.85546875,-97.65625,16.6015625,15.13671875
1771543622.8734686,28.3203125,31.73828125,-24.4140625,39.0625,36.62109375
1771543622.877375,46.875,40.0390625,3.41796875,60.05859375,77.1484375
1771543622.8812811,22.4609375,41.9921875,-35.15625,33.203125,65.91796875
1771543622.8851874,-7.8125,37.109375,-86.9140625,7.32421875,108.3984375
1771543622.8890936,13.671875,26.3671875,-57.12890625,28.3203125,52.24609375
1771543622.876125,56.640625,19.53125,16.6015625,63.96484375,-5.859375
1771543622.8800313,50.78125,31.73828125,-7.32421875,63.4765625,70.80078125
1771543622.8839376,10.7421875,41.015625,-99.12109375,22.94921875,113.76953125
1771543622.8878438,17.578125,40.0390625,-85.9375,20.99609375,48.828125
1771543622.89175,53.7109375,43.45703125,8.7890625,52.24609375,40.52734375
1771543622.8956563,51.26953125,43.9453125,-4.39453125,56.15234375,64.94140625
1771543622.8995626,14.6484375,38.0859375,-102.5390625,25.390625,46.875
1771543622.9034688,10.25390625,34.1796875,-101.5625,7.32421875,37.109375
1771543622.907375,33.69140625,34.1796875,-7.32421875,44.921875,48.828125
1771543622.9112813,51.26953125,28.3203125,27.34375,64.94140625,84.9609375
1771543622.9151876,27.34375,25.390625,-65.91796875,45.41015625,65.4296875
1771543622.9190938,6.34765625,21.97265625,-139.6484375,9.765625,83.984375
1771543622.921125,40.0390625,16.6015625,-50.78125,23.92578125,89.35546875
1771543622.9250312,80.078125,42.96875,44.43359375,89.84375,-4.8828125
1771543622.9289374,72.265625,64.94140625,-33.69140625,77.1484375,2.9296875
1771543622.9328437,-9.27734375,36.1328125,-132.32421875,0.48828125,29.78515625
1771543622.93675,-35.64453125,22.94921875,-76.66015625,-16.11328125,-21.484375
1771543622.9406562,10.25390625,27.34375,6.8359375,20.99609375,14.6484375
1771543622.9445624,-26.85546875,-6.8359375,-51.26953125,9.765625,80.078125
1771543622.9484687,-48.828125,13.671875,-157.71484375,-6.8359375,37.109375
1771543622.952375,-15.625,54.19921875,-85.9375,1.46484375,-34.66796875
1771543622.9562812,-22.4609375,51.26953125,38.0859375,-1.46484375,31.73828125
1771543622.9601874,-47.8515625,46.875,7.32421875,-22.4609375,18.5546875
1771543622.9640937,-95.21484375,11.71875,-103.515625,-87.890625,-36.1328125
1771543622.966125,-89.35546875,-2.44140625,-108.88671875,-81.0546875,18.06640625
1771543622.9700313,-37.59765625,-6.8359375,-8.30078125,-18.06640625,102.05078125
1771543622.9739375,-23.4375,-6.8359375,39.55078125,-19.53125,140.13671875
1771543622.9778438,-67.3828125,-5.37109375,-32.2265625,-57.12890625,87.40234375
1771543622.98175,-84.47265625,4.8828125,-66.40625,-59.5703125,1.953125
1771543622.9856563,-72.265625,-18.5546875,-8.7890625,-56.640625,-14.16015625
1771543622.9895625,-31.73828125,-9.27734375,44.43359375,-26.85546875,53.22265625
1771543622.9934688,-11.71875,36.1328125,19.53125,-11.23046875,51.7578125
1771543622.997375,-56.15234375,33.203125,-38.0859375,-55.17578125,-25.390625
1771543623.0012813,-52.734375,36.62109375,25.390625,-49.31640625,41.9921875
1771543623.0051875,-14.16015625,40.0390625,108.88671875,1.46484375,35.15625
1771543623.0090938,-7.32421875,52.24609375,116.2109375,20.01953125,-0.9765625
1771543623.011125,-33.69140625,56.15234375,77.1484375,4.8828125,21.484375
1771543623.0150313,-7.32421875,51.7578125,85.44921875,21.484375,-21.484375
1771543623.0189376,21.484375,35.15625,167.96875,45.41015625,-29.78515625
1771543623.0228438,18.5546875,24.4140625,208.0078125,45.41015625,33.203125
1771543623.02675,-4.39453125,18.5546875,102.5390625,15.625,57.12890625
1771543623.0306563,-1.46484375,21.97265625,42.48046875,4.8828125,33.69140625
1771543623.0345626,41.50390625,31.73828125,150.390625,41.015625,33.203125
1771543623.0384688,54.19921875,30.2734375,209.9609375,67.87109375,37.59765625
1771543623.042375,23.4375,28.3203125,98.14453125,40.0390625,70.80078125
1771543623.0462813,8.30078125,27.34375,-1.46484375,13.671875,64.94140625
1771543623.0501876,28.3203125,25.390625,42.96875,28.80859375,47.8515625
1771543623.0540938,51.7578125,40.0390625,178.22265625,60.546875,56.15234375
1771543623.071125,50.29296875,41.9921875,164.55078125,55.6640625,47.36328125
1771543623.0750313,17.08984375,28.80859375,42.96875,2.44140625,32.2265625
1771543623.0789375,23.92578125,36.62109375,59.5703125,-4.8828125,23.4375
1771543623.0828438,53.7109375,39.0625,148.4375,39.55078125,3.41796875
1771543623.08675,46.875,36.62109375,117.67578125,42.48046875,11.71875
1771543623.0906563,19.04296875,37.59765625,-41.015625,17.08984375,12.6953125
1771543623.0945625,18.06640625,35.15625,-36.1328125,20.99609375,9.765625
1771543623.0984688,42.96875,28.3203125,86.9140625,42.48046875,53.22265625
1771543623.102375,62.01171875,25.87890625,56.15234375,65.4296875,22.94921875
1771543623.1062813,37.109375,31.25,-61.03515625,39.0625,-21.97265625
1771543623.1101875,5.859375,27.34375,-72.75390625,2.9296875,44.921875
1771543623.1140938,32.71484375,13.671875,40.52734375,39.55078125,46.875
1771543623.116125,65.91796875,26.3671875,102.5390625,81.54296875,50.29296875
1771543623.1200314,41.50390625,34.1796875,15.625,61.03515625,38.57421875
1771543623.1239376,1.953125,21.484375,-34.66796875,13.18359375,-18.5546875
1771543623.1278439,31.73828125,32.71484375,49.31640625,33.203125,0.0
1771543623.13175,68.359375,46.38671875,111.81640625,87.40234375,-17.08984375
1771543623.1356564,46.38671875,26.3671875,55.17578125,81.0546875,31.25
1771543623.1395626,38.0859375,13.671875,-21.484375,56.15234375,36.1328125
1771543623.1434689,62.5,26.3671875,56.640625,71.2890625,11.23046875
1771543623.147375,88.8671875,35.64453125,151.85546875,99.609375,63.96484375
1771543623.1512814,65.91796875,20.5078125,86.42578125,64.453125,33.203125
1771543623.1551876,-6.8359375,22.4609375,-11.71875,-3.41796875,-14.6484375
1771543623.1590939,-26.85546875,36.1328125,-16.6015625,-13.671875,-32.2265625
1771543623.160125,2.9296875,19.04296875,78.125,36.1328125,10.25390625
1771543623.1640313,29.78515625,9.765625,133.7890625,51.7578125,87.890625
1771543623.1679375,-11.71875,-5.859375,23.92578125,-10.25390625,36.62109375
1771543623.1718438,-44.43359375,-6.8359375,-38.57421875,-38.0859375,12.20703125
1771543623.17575,-8.30078125,12.6953125,54.6875,13.671875,56.15234375
1771543623.1796563,41.50390625,34.1796875,128.41796875,53.22265625,40.0390625
1771543623.1835625,23.92578125,22.4609375,48.33984375,24.90234375,53.22265625
1771543623.1874688,-15.625,0.48828125,-52.24609375,-9.27734375,64.94140625
1771543623.191375,-4.8828125,8.7890625,-28.3203125,4.39453125,62.98828125
1771543623.1952813,27.34375,13.671875,53.22265625,38.57421875,59.5703125
1771543623.1991875,39.0625,18.06640625,61.5234375,59.08203125,10.25390625
1771543623.2030938,19.04296875,25.87890625,-38.0859375,33.203125,30.76171875
1771543623.206125,23.92578125,31.73828125,-11.23046875,26.3671875,106.93359375
1771543623.2100313,53.22265625,35.64453125,88.8671875,71.77734375,64.453125
1771543623.2139375,54.19921875,29.78515625,93.75,97.16796875,44.43359375
1771543623.2178438,16.11328125,15.13671875,-15.13671875,56.15234375,58.59375
1771543623.22175,-1.46484375,18.5546875,-45.8984375,34.1796875,58.59375
1771543623.2256563,15.625,22.4609375,46.38671875,33.69140625,41.9921875
1771543623.2295625,43.45703125,23.4375,104.00390625,50.29296875,32.71484375
1771543623.2334688,33.203125,36.1328125,14.16015625,56.15234375,51.7578125
1771543623.237375,6.34765625,40.0390625,-87.40234375,16.6015625,68.84765625
1771543623.2412813,22.4609375,41.50390625,31.25,13.18359375,50.29296875
1771543623.2451875,59.08203125,41.015625,142.08984375,52.734375,29.296875
1771543623.2490938,61.5234375,37.109375,45.8984375,48.828125,16.6015625
1771543623.250125,33.69140625,29.78515625,-46.38671875,17.08984375,8.7890625
1771543623.2540312,49.31640625,15.13671875,15.625,22.4609375,54.6875
1771543623.2579374,75.68359375,23.92578125,97.65625,65.91796875,54.19921875
1771543623.2618437,70.3125,46.875,72.265625,90.33203125,36.1328125
1771543623.26575,33.69140625,60.546875,-35.15625,60.546875,0.48828125
1771543623.2696562,16.11328125,43.9453125,-51.26953125,26.3671875,-32.2265625
1771543623.2735624,39.55078125,33.69140625,53.22265625,51.7578125,6.8359375
1771543623.2774687,52.734375,40.52734375,69.3359375,80.56640625,7.8125
1771543623.281375,29.296875,33.69140625,-10.25390625,43.9453125,2.44140625
1771543623.2852812,19.04296875,35.15625,13.671875,18.06640625,45.41015625
1771543623.2891874,49.8046875,36.62109375,89.84375,64.453125,-11.71875
1771543623.2930937,75.68359375,27.34375,117.67578125,93.26171875,-25.87890625
1771543623.296125,64.94140625,4.8828125,22.4609375,65.4296875,15.13671875
1771543623.3000312,33.203125,-5.37109375,-48.33984375,40.52734375,-1.953125
1771543623.3039374,41.50390625,25.87890625,31.25,39.55078125,38.57421875
1771543623.3078437,65.91796875,47.36328125,111.328125,64.94140625,41.9921875
1771543623.31175,40.0390625,55.17578125,53.7109375,48.33984375,32.2265625
1771543623.3156562,4.8828125,55.17578125,-67.87109375,-5.37109375,14.16015625
1771543623.3195624,1.953125,43.45703125,-34.1796875,7.32421875,7.8125
1771543623.3234687,32.2265625,41.9921875,61.03515625,30.76171875,59.5703125
1771543623.327375,48.33984375,40.0390625,84.9609375,47.8515625,52.734375
1771543623.3312812,16.6015625,37.109375,9.765625,40.0390625,41.9921875
1771543623.3351874,6.34765625,35.15625,-29.296875,12.20703125,76.171875
1771543623.3390937,48.828125,48.33984375,66.40625,40.52734375,40.0390625
1771543623.341125,74.70703125,62.5,119.140625,62.5,15.13671875
1771543623.3450313,36.1328125,45.8984375,-4.8828125,14.16015625,20.01953125
1771543623.3489375,1.953125,34.1796875,-74.70703125,-21.97265625,8.7890625
1771543623.3528438,36.62109375,27.83203125,19.53125,17.08984375,5.37109375
1771543623.35675,68.359375,24.4140625,84.47265625,42.96875,1.953125
1771543623.3606563,33.203125,33.69140625,8.30078125,18.06640625,19.04296875
1771543623.3645625,-3.90625,25.390625,-83.0078125,-1.953125,83.49609375
1771543623.3684688,19.53125,23.4375,-7.8125,22.94921875,89.84375
1771543623.372375,47.36328125,32.2265625,98.6328125,54.19921875,17.08984375
1771543623.3762813,36.62109375,23.4375,41.50390625,53.7109375,46.875
1771543623.3801875,5.37109375,14.6484375,-64.453125,14.16015625,70.3125
1771543623.3840938,-8.7890625,31.73828125,-42.96875,11.23046875,40.0390625
1771543623.387125,27.83203125,46.38671875,62.01171875,44.43359375,30.2734375
1771543623.3910313,41.50390625,32.71484375,56.15234375,45.41015625,12.6953125
1771543623.3949375,4.39453125,32.2265625,-50.29296875,27.34375,-0.9765625
1771543623.3988438,0.0,37.59765625,-39.55078125,15.13671875,2.9296875
1771543623.40275,27.34375,27.34375,60.05859375,25.390625,81.0546875
1771543623.4066563,54.19921875,26.85546875,77.63671875,55.6640625,99.609375
1771543623.4105625,40.52734375,32.71484375,-7.32421875,43.45703125,67.3828125
1771543623.4144688,13.671875,35.15625,-31.73828125,7.8125,21.484375
1771543623.418375,26.85546875,40.0390625,53.7109375,34.1796875,7.8125
1771543623.4222813,60.05859375,40.0390625,99.609375,59.08203125,38.0859375
1771543623.4261875,40.0390625,33.203125,41.50390625,31.73828125,36.62109375
1771543623.4300938,2.9296875,30.2734375,-28.3203125,0.48828125,-11.23046875
1771543623.446125,37.59765625,34.66796875,20.5078125,23.4375,-54.19921875
1771543623.4500313,67.3828125,41.9921875,106.93359375,62.98828125,23.92578125
1771543623.4539375,64.453125,39.55078125,71.77734375,63.4765625,45.8984375
1771543623.4578438,37.59765625,30.2734375,-20.99609375,27.34375,-2.44140625
1771543623.46175,24.90234375,31.73828125,9.765625,17.08984375,4.8828125
1771543623.4656563,61.03515625,32.71484375,77.63671875,51.26953125,66.40625
1771543623.4695625,85.9375,29.296875,87.890625,55.17578125,82.03125
1771543623.4734688,42.48046875,32.71484375,39.0625,12.20703125,41.015625
1771543623.477375,11.23046875,37.109375,4.8828125,2.9296875,9.765625
1771543623.4812813,41.50390625,33.203125,88.8671875,37.59765625,17.578125
1771543623.4851875,72.75390625,32.71484375,145.5078125,62.01171875,69.82421875
1771543623.4890938,44.43359375,34.66796875,63.96484375,46.875,76.66015625
1771543623.491125,18.5546875,27.34375,-21.484375,-2.9296875,18.5546875
1771543623.4950314,45.8984375,32.2265625,40.0390625,15.625,-30.76171875
1771543623.4989376,83.49609375,51.7578125,139.16015625,64.94140625,-27.83203125
1771543623.5028439,65.4296875,42.48046875,95.703125,52.734375,-1.953125
1771543623.50675,18.5546875,19.53125,-12.20703125,15.13671875,6.34765625
1771543623.5106564,20.99609375,9.765625,16.11328125,12.20703125,-9.27734375
1771543623.5145626,48.33984375,8.7890625,114.2578125,50.78125,26.85546875
1771543623.5184689,52.24609375,24.90234375,111.81640625,55.6640625,30.76171875
1771543623.522375,22.4609375,27.34375,25.87890625,22.4609375,59.5703125
1771543623.5262814,3.90625,6.8359375,-9.27734375,2.44140625,52.734375
1771543623.5301876,28.80859375,5.859375,102.05078125,24.4140625,13.671875
1771543623.5340939,47.8515625,25.390625,147.94921875,51.7578125,-19.04296875
1771543623.536125,13.18359375,40.52734375,46.875,14.16015625,-26.85546875
1771543623.5400312,-11.23046875,36.1328125,11.23046875,-28.80859375,33.203125
1771543623.5439374,-10.25390625,29.78515625,91.796875,-12.6953125,49.8046875
1771543623.5478437,-0.48828125,30.2734375,139.16015625,19.04296875,61.03515625
1771543623.55175,-0.48828125,16.6015625,49.31640625,15.13671875,49.8046875
1771543623.5556562,-12.20703125,5.37109375,-25.87890625,-14.6484375,-2.9296875
1771543623.5595624,-0.9765625,5.859375,46.38671875,-4.8828125,2.9296875
1771543623.5634687,22.94921875,12.20703125,127.9296875,36.62109375,24.4140625
1771543623.567375,32.2265625,19.04296875,62.5,37.59765625,33.203125
1771543623.5712812,-0.48828125,22.4609375,-33.69140625,-6.8359375,24.90234375
1771543623.5751874,2.44140625,33.203125,35.64453125,9.765625,40.0390625
1771543623.5790937,45.41015625,32.2265625,116.69921875,60.05859375,77.1484375
1771543623.580125,55.6640625,19.04296875,92.7734375,58.10546875,84.47265625
1771543623.5840313,23.4375,19.53125,-2.44140625,22.4609375,68.359375
1771543623.5879376,-0.48828125,24.4140625,-33.203125,4.8828125,29.296875
1771543623.5918438,21.484375,24.90234375,34.66796875,30.76171875,33.203125
1771543623.59575,44.921875,31.73828125,62.98828125,48.33984375,48.33984375
1771543623.5996563,33.203125,33.203125,-20.5078125,33.203125,-22.4609375
1771543623.6035626,4.8828125,19.53125,-71.2890625,4.8828125,-35.15625
1771543623.6074688,19.04296875,20.01953125,-18.5546875,13.671875,30.76171875
1771543623.611375,36.62109375,29.78515625,20.5078125,54.6875,23.4375
1771543623.6152813,21.484375,38.57421875,-8.7890625,45.41015625,48.828125
1771543623.6191876,-0.48828125,34.1796875,-73.2421875,-9.27734375,63.96484375
1771543623.6230938,7.8125,10.25390625,-49.8046875,0.9765625,29.296875
1771543623.626125,50.29296875,1.46484375,31.73828125,53.22265625,40.0390625
1771543623.6300313,50.29296875,21.97265625,32.2265625,45.41015625,44.43359375
1771543623.6339376,9.765625,40.0390625,-80.078125,4.8828125,18.06640625
1771543623.6378438,-3.41796875,37.59765625,-81.0546875,-3.41796875,23.4375
1771543623.64175,30.2734375,36.1328125,13.18359375,33.69140625,77.63671875
1771543623.6456563,57.6171875,46.875,23.4375,58.10546875,82.51953125
1771543623.6495626,26.3671875,49.8046875,-60.05859375,20.5078125,12.6953125
1771543623.6534688,-8.30078125,33.203125,-103.02734375,-17.578125,63.4765625
1771543623.657375,16.11328125,24.4140625,-21.97265625,13.18359375,99.609375
1771543623.6612813,51.7578125,31.25,52.24609375,64.453125,39.55078125
1771543623.6651876,40.0390625,39.55078125,-38.57421875,43.45703125,-15.13671875
1771543623.6690938,12.20703125,44.921875,-109.375,9.27734375,35.15625
1771543623.675125,21.484375,28.80859375,-70.3125,19.53125,38.0859375
1771543623.6790311,59.5703125,32.2265625,4.8828125,62.5,-26.85546875
1771543623.6829374,63.4765625,31.73828125,-22.94921875,69.82421875,-18.06640625
1771543623.6868436,21.484375,3.41796875,-127.44140625,14.6484375,-21.484375
1771543623.69075,28.80859375,16.11328125,-76.66015625,10.7421875,-1.953125
1771543623.6946561,57.12890625,22.4609375,-10.7421875,44.921875,-3.41796875
1771543623.6985624,49.31640625,21.484375,-50.29296875,54.6875,42.48046875
1771543623.7024686,25.390625,45.8984375,-144.04296875,14.6484375,23.92578125
1771543623.706375,7.32421875,40.52734375,-107.91015625,-12.6953125,39.0625
1771543623.7102811,20.01953125,6.34765625,-19.53125,13.671875,50.29296875
1771543623.7141874,30.76171875,5.859375,-20.01953125,29.296875,21.97265625
1771543623.7180936,-4.39453125,25.87890625,-95.703125,6.8359375,5.37109375
1771543623.746125,-17.578125,39.0625,-115.234375,-8.30078125,-3.41796875
1771543623.7500312,8.7890625,42.48046875,-25.390625,20.99609375,51.7578125
1771543623.7539375,32.2265625,30.76171875,14.16015625,52.24609375,55.6640625
1771543623.7578437,17.578125,30.2734375,-53.7109375,32.71484375,57.12890625
1771543623.76175,-10.25390625,36.62109375,-109.86328125,-12.20703125,17.578125
1771543623.7656562,5.859375,36.62109375,-57.6171875,2.44140625,46.38671875
1771543623.7695625,34.66796875,21.97265625,-14.16015625,26.85546875,121.58203125
1771543623.7734687,29.78515625,-2.44140625,-52.24609375,32.2265625,88.8671875
1771543623.777375,-3.90625,10.7421875,-80.56640625,4.8828125,26.85546875
1771543623.7812812,0.48828125,41.50390625,-49.8046875,-3.90625,26.3671875
1771543623.7851875,33.69140625,43.9453125,22.4609375,38.57421875,50.78125
1771543623.7890937,41.015625,38.57421875,23.4375,58.10546875,34.1796875
1771543623.761125,2.44140625,31.25,-62.5,24.90234375,-4.8828125
1771543623.7650313,3.90625,25.87890625,-83.984375,-3.90625,7.32421875
1771543623.7689376,44.921875,30.2734375,-7.8125,20.01953125,20.01953125
1771543623.7728438,54.19921875,20.01953125,34.1796875,54.6875,0.48828125
1771543623.77675,41.50390625,29.296875,-32.2265625,26.85546875,38.0859375
1771543623.7806563,11.71875,45.8984375,-91.30859375,-6.8359375,64.94140625
1771543623.7845626,18.06640625,42.96875,-35.64453125,18.06640625,10.7421875
1771543623.7884688,41.50390625,43.9453125,40.52734375,45.8984375,22.94921875
1771543623.792375,25.87890625,42.96875,-4.39453125,34.1796875,28.80859375
1771543623.7962813,5.37109375,40.0390625,-94.7265625,2.44140625,-10.25390625
1771543623.8001876,27.83203125,38.57421875,-49.8046875,27.34375,-29.78515625
1771543623.8040938,53.7109375,36.1328125,53.22265625,59.5703125,9.765625
1771543623.821125,46.38671875,33.69140625,41.015625,48.33984375,69.82421875
1771543623.8250313,15.13671875,31.73828125,-72.265625,15.625,81.54296875
1771543623.8289375,-3.90625,27.83203125,-87.890625,-2.9296875,57.6171875
1771543623.8328438,34.66796875,44.921875,44.43359375,40.52734375,99.12109375
1771543623.83675,69.82421875,60.546875,68.84765625,83.0078125,93.26171875
1771543623.8406563,38.0859375,28.80859375,-64.94140625,29.296875,41.50390625
1771543623.8445625,-2.9296875,10.7421875,-92.7734375,-25.390625,41.50390625
1771543623.8484688,14.16015625,29.296875,12.6953125,13.18359375,28.3203125
1771543623.852375,42.96875,29.78515625,61.03515625,61.03515625,9.27734375
1771543623.8562813,15.625,18.06640625,-7.8125,25.87890625,28.3203125
1771543623.8601875,8.7890625,26.3671875,-48.828125,7.8125,55.17578125
1771543623.8640938,32.2265625,42.48046875,20.99609375,48.33984375,50.29296875
1771543623.866125,41.50390625,34.66796875,55.17578125,49.31640625,23.4375
1771543623.8700314,33.69140625,31.73828125,-14.6484375,26.85546875,23.92578125
1771543623.8739376,-4.8828125,34.1796875,-77.1484375,-5.859375,-39.55078125
1771543623.8778439,5.37109375,24.90234375,-15.13671875,4.8828125,-28.3203125
1771543623.88175,33.69140625,32.2265625,61.5234375,47.36328125,36.1328125
1771543623.8856564,33.69140625,41.015625,36.62109375,48.828125,86.9140625
1771543623.8895626,5.859375,41.50390625,-40.52734375,20.01953125,45.41015625
1771543623.8934689,3.90625,42.96875,-16.6015625,10.7421875,29.78515625
1771543623.897375,51.26953125,36.1328125,52.734375,42.96875,66.89453125
1771543623.9012814,65.4296875,27.83203125,46.38671875,68.84765625,75.68359375
1771543623.9051876,28.3203125,23.92578125,2.9296875,26.3671875,50.29296875
1771543623.9090939,-0.48828125,20.5078125,-4.8828125,6.34765625,37.59765625
1771543623.910125,11.71875,13.671875,35.64453125,29.78515625,61.03515625
1771543623.9140313,25.390625,19.53125,68.359375,36.1328125,34.66796875
1771543623.9179375,17.578125,30.2734375,9.765625,30.2734375,-8.7890625
1771543623.9218438,8.30078125,37.109375,-51.26953125,6.8359375,0.0
1771543623.92575,17.08984375,35.15625,0.0,8.30078125,-11.71875
1771543623.9296563,34.66796875,27.83203125,67.87109375,33.69140625,30.76171875
1771543623.9335625,17.578125,26.85546875,33.203125,29.78515625,47.36328125
1771543623.9374688,-20.99609375,19.04296875,-35.64453125,-0.9765625,-22.94921875
1771543623.941375,-6.8359375,17.08984375,-24.90234375,0.9765625,-6.8359375
1771543623.9452813,33.69140625,27.34375,54.6875,27.34375,0.48828125
1771543623.9491875,41.9921875,43.45703125,84.47265625,47.36328125,-21.484375
1771543623.9530938,1.46484375,42.96875,-15.625,22.4609375,41.015625
1771543623.956125,-19.53125,8.7890625,-38.57421875,-7.32421875,57.6171875
1771543623.9600313,35.64453125,6.34765625,60.05859375,46.38671875,36.1328125
1771543623.9639375,72.75390625,32.2265625,105.46875,84.47265625,28.3203125
1771543623.9678438,20.01953125,32.2265625,9.27734375,39.55078125,4.39453125
1771543623.97175,-22.94921875,25.390625,-62.01171875,-6.8359375,28.80859375
1771543623.9756563,7.8125,28.80859375,14.6484375,8.7890625,36.62109375
1771543623.9795625,50.78125,31.25,92.28515625,48.33984375,61.03515625
1771543623.9834688,46.875,30.2734375,39.0625,48.33984375,76.171875
1771543623.987375,21.484375,25.390625,-45.8984375,21.97265625,36.1328125
1771543623.9912813,33.203125,12.20703125,26.85546875,35.15625,48.828125
1771543623.9951875,62.98828125,20.5078125,115.234375,68.84765625,69.3359375
1771543623.9990938,57.6171875,33.69140625,77.1484375,80.56640625,39.55078125
1771543624.001125,7.8125,28.3203125,-7.8125,33.203125,43.9453125
1771543624.0050313,-4.39453125,35.64453125,0.0,8.7890625,40.0390625
1771543624.0089376,36.62109375,32.2265625,73.2421875,35.64453125,49.31640625
1771543624.0128438,54.19921875,31.73828125,75.68359375,61.5234375,57.12890625
1771543624.01675,21.484375,43.9453125,8.30078125,37.59765625,59.08203125
1771543624.0206563,-0.48828125,32.2265625,-8.30078125,0.9765625,70.3125
1771543624.0245626,33.203125,26.3671875,71.2890625,35.64453125,63.96484375
1771543624.0284688,74.21875,42.96875,100.09765625,62.98828125,43.45703125
1771543624.032375,34.1796875,43.9453125,17.578125,26.3671875,60.05859375
1771543624.0362813,-9.27734375,36.1328125,-13.18359375,4.39453125,25.87890625
1771543624.0401876,14.6484375,36.1328125,36.62109375,16.11328125,11.23046875
1771543624.0440938,26.85546875,27.83203125,79.1015625,32.71484375,68.84765625
1771543624.046125,9.27734375,12.20703125,37.59765625,31.73828125,41.015625
1771543624.0500312,-12.6953125,17.08984375,-24.4140625,0.0,-10.25390625
1771543624.0539374,-1.46484375,30.2734375,15.13671875,11.71875,10.7421875
1771543624.0578437,31.25,29.296875,84.9609375,42.96875,42.48046875
1771543624.06175,30.2734375,27.83203125,64.94140625,40.0390625,-2.9296875
1771543624.0656562,-6.34765625,27.34375,-10.7421875,24.90234375,45.41015625
1771543624.0695624,-11.23046875,28.3203125,-5.37109375,16.6015625,35.15625
1771543624.0734687,27.34375,22.94921875,49.8046875,40.52734375,0.0
1771543624.077375,49.8046875,7.8125,87.40234375,63.4765625,49.8046875
1771543624.0812812,27.83203125,4.8828125,41.015625,47.36328125,-17.578125
1771543624.0851874,19.04296875,9.765625,-4.39453125,21.484375,-37.109375
1771543624.0890937,49.31640625,21.97265625,62.5,52.24609375,-11.23046875
1771543624.091125,71.2890625,41.9921875,118.1640625,93.26171875,25.87890625
1771543624.0950313,45.8984375,50.78125,54.19921875,70.3125,71.77734375
1771543624.0989375,0.48828125,40.52734375,-29.296875,22.4609375,73.73046875
1771543624.1028438,2.9296875,25.87890625,20.5078125,20.5078125,41.9921875
1771543624.10675,50.29296875,24.4140625,106.93359375,62.98828125,51.26953125
1771543624.1106563,37.109375,29.296875,64.453125,53.7109375,82.03125
1771543624.1145625,-12.20703125,20.01953125,-43.45703125,-9.27734375,33.203125
1771543624.1184688,-4.39453125,10.7421875,-13.18359375,-10.7421875,50.29296875
1771543624.122375,36.62109375,25.87890625,84.9609375,35.15625,51.7578125
1771543624.1262813,49.8046875,40.52734375,74.70703125,36.62109375,32.71484375
1771543624.1301875,21.484375,33.69140625,0.48828125,18.06640625,3.41796875
1771543624.1340938,24.90234375,27.34375,13.671875,17.578125,-29.78515625
1771543624.136125,50.29296875,20.99609375,90.33203125,55.6640625,6.34765625
1771543624.1400313,59.08203125,8.30078125,100.09765625,80.56640625,38.0859375
1771543624.1439376,22.94921875,8.7890625,15.625,34.1796875,52.734375
1771543624.1478438,4.39453125,24.90234375,-14.6484375,-11.71875,50.29296875
1771543624.15175,27.34375,27.83203125,56.15234375,10.25390625,63.4765625
1771543624.1556563,45.41015625,28.80859375,79.58984375,61.5234375,11.71875
1771543624.1595626,40.52734375,36.62109375,30.2734375,56.15234375,-25.87890625
1771543624.1634688,3.90625,27.83203125,-0.48828125,29.296875,18.06640625
1771543624.167375,6.8359375,35.15625,45.41015625,24.4140625,23.92578125
1771543624.1712813,49.8046875,53.7109375,98.6328125,54.6875,33.69140625
1771543624.1751876,46.875,50.78125,63.96484375,54.19921875,40.0390625
1771543624.1790938,32.2265625,57.6171875,20.01953125,18.06640625,25.390625
1771543624.196125,31.25,61.03515625,33.69140625,36.1328125,12.6953125
1771543624.2000313,20.99609375,41.9921875,76.171875,52.734375,23.92578125
1771543624.2039375,17.08984375,27.83203125,86.42578125,53.7109375,49.31640625
1771543624.2078438,7.8125,21.484375,23.92578125,22.4609375,11.71875
1771543624.21175,11.71875,14.6484375,4.8828125,14.16015625,7.32421875
1771543624.2156563,35.64453125,14.16015625,54.19921875,43.9453125,-0.9765625
1771543624.2195625,48.33984375,17.578125,99.12109375,52.24609375,20.01953125
1771543624.2234688,18.06640625,26.85546875,65.91796875,40.52734375,43.9453125
1771543624.227375,-11.23046875,38.57421875,10.7421875,15.625,9.27734375
1771543624.2312813,14.6484375,30.2734375,51.7578125,28.80859375,63.96484375
1771543624.2351875,42.96875,15.13671875,112.3046875,55.17578125,73.73046875
1771543624.2390938,36.1328125,24.90234375,72.75390625,52.24609375,74.70703125
1771543624.241125,5.859375,40.52734375,-13.671875,19.04296875,100.09765625
1771543624.2450314,3.41796875,31.25,16.11328125,-5.37109375,74.21875
1771543624.2489376,33.203125,27.34375,93.75,21.484375,53.7109375
1771543624.2528439,41.015625,45.8984375,75.68359375,21.97265625,22.94921875
1771543624.25675,4.39453125,41.9921875,-8.7890625,-29.78515625,14.6484375
1771543624.2606564,-13.671875,28.80859375,-21.484375,-39.0625,14.6484375
1771543624.2645626,24.90234375,39.55078125,52.24609375,1.46484375,40.0390625
1771543624.2684689,43.9453125,49.8046875,82.03125,25.87890625,39.0625
1771543624.272375,7.8125,50.29296875,0.48828125,-16.11328125,48.33984375
1771543624.2762814,-9.27734375,46.875,-41.015625,-28.80859375,19.04296875
1771543624.2801876,3.41796875,31.73828125,46.875,-0.48828125,-24.90234375
1771543624.2840939,1.46484375,24.90234375,84.9609375,6.8359375,33.69140625
1771543624.286125,-23.4375,33.203125,8.7890625,-4.39453125,10.7421875
1771543624.2900312,-41.015625,39.55078125,-29.78515625,-21.484375,7.8125
1771543624.2939374,-1.953125,42.96875,29.78515625,2.44140625,41.50390625
1771543624.2978437,26.3671875,42.96875,87.890625,22.4609375,20.99609375
1771543624.30175,14.16015625,41.015625,44.921875,9.765625,32.71484375
1771543624.3056562,-12.20703125,40.52734375,-20.99609375,-10.7421875,16.11328125
1771543624.3095624,7.32421875,40.52734375,25.87890625,1.46484375,-24.90234375
1771543624.3134687,55.6640625,43.45703125,111.328125,46.38671875,30.76171875
1771543624.317375,60.546875,46.875,70.80078125,57.12890625,32.71484375
1771543624.3212812,20.5078125,48.828125,-6.8359375,26.85546875,13.18359375
1771543624.3251874,17.08984375,47.8515625,31.25,20.5078125,48.33984375
1771543624.3290937,55.17578125,48.33984375,87.40234375,46.38671875,31.25
1771543624.331125,68.359375,47.36328125,97.16796875,67.3828125,-10.7421875
1771543624.3350313,42.96875,40.52734375,41.9921875,41.50390625,-6.8359375
1771543624.3389375,38.0859375,36.1328125,9.765625,18.5546875,-10.25390625
1771543624.3428438,62.5,34.66796875,72.75390625,39.55078125,33.69140625
1771543624.34675,68.359375,35.64453125,113.28125,63.4765625,77.63671875
1771543624.3506563,46.38671875,38.57421875,55.17578125,40.52734375,13.671875
1771543624.3545625,18.5546875,42.96875,9.765625,-3.41796875,2.9296875
1771543624.3584688,23.92578125,45.41015625,54.6875,25.87890625,28.3203125
1771543624.362375,61.5234375,54.19921875,86.9140625,65.91796875,39.0625
1771543624.3662813,65.91796875,53.22265625,80.078125,49.31640625,79.58984375
1771543624.3701875,17.578125,42.48046875,26.3671875,11.71875,56.640625
1771543624.3740938,17.578125,42.96875,13.18359375,0.9765625,20.01953125
1771543624.390125,53.7109375,44.43359375,83.0078125,35.64453125,51.26953125
1771543624.3940313,54.19921875,48.33984375,108.3984375,60.546875,57.12890625
1771543624.3979375,21.97265625,47.8515625,36.1328125,25.390625,-14.6484375
1771543624.4018438,4.39453125,36.62109375,9.765625,1.953125,20.5078125
1771543624.40575,28.3203125,33.69140625,79.58984375,41.50390625,63.4765625
1771543624.4096563,48.828125,32.71484375,102.05078125,66.40625,20.01953125
1771543624.4135625,19.04296875,30.76171875,38.57421875,39.0625,32.2265625
1771543624.4174688,-9.765625,23.4375,-13.671875,5.859375,33.69140625
1771543624.421375,12.20703125,28.3203125,52.24609375,3.90625,22.94921875
1771543624.4252813,32.2265625,34.1796875,120.1171875,39.0625,2.9296875
1771543624.4291875,24.90234375,22.4609375,60.05859375,48.33984375,17.08984375
1771543624.4330938,2.9296875,12.20703125,-8.7890625,12.6953125,-4.8828125
1771543624.420125,16.11328125,17.578125,32.2265625,20.5078125,-23.92578125
1771543624.4240313,47.36328125,34.66796875,104.4921875,54.6875,17.08984375
1771543624.4279375,39.55078125,34.1796875,83.0078125,55.6640625,55.17578125
1771543624.4318438,12.6953125,27.34375,9.27734375,18.06640625,77.63671875
1771543624.43575,10.25390625,29.296875,23.92578125,1.46484375,60.05859375
1771543624.4396563,38.0859375,28.80859375,83.0078125,34.66796875,1.46484375
1771543624.4435625,49.8046875,35.64453125,77.63671875,46.38671875,16.6015625
1771543624.4474688,21.484375,42.48046875,2.44140625,5.859375,9.765625
1771543624.451375,13.671875,38.57421875,-3.90625,-11.23046875,9.765625
1771543624.4552813,54.19921875,32.71484375,63.96484375,32.2265625,49.31640625
1771543624.4591875,62.98828125,35.64453125,82.51953125,61.5234375,27.34375
1771543624.4630938,35.64453125,43.9453125,37.59765625,20.5078125,46.38671875
1771543624.466125,19.04296875,44.43359375,8.7890625,-5.37109375,82.03125
1771543624.4700313,21.97265625,32.71484375,43.45703125,24.90234375,40.52734375
1771543624.4739375,49.31640625,34.66796875,78.125,59.5703125,18.5546875
1771543624.4778438,43.9453125,42.96875,38.57421875,53.7109375,49.8046875
1771543624.48175,9.765625,30.76171875,4.39453125,20.5078125,30.76171875
1771543624.4856563,27.83203125,23.4375,36.1328125,28.3203125,23.92578125
1771543624.4895625,72.265625,37.109375,86.42578125,64.453125,87.890625
1771543624.4934688,79.58984375,35.64453125,74.70703125,73.73046875,44.921875
1771543624.497375,44.921875,27.34375,32.71484375,47.8515625,-8.7890625
1771543624.5012813,38.57421875,31.73828125,36.1328125,34.66796875,50.78125
1771543624.5051875,59.5703125,41.015625,91.796875,64.453125,73.73046875
1771543624.5090938,70.80078125,53.22265625,98.14453125,80.078125,67.3828125
1771543624.512125,38.0859375,59.5703125,34.66796875,39.0625,47.8515625
1771543624.5160313,13.671875,52.734375,12.6953125,12.6953125,46.38671875
1771543624.5199375,49.31640625,48.828125,55.17578125,45.41015625,45.41015625
1771543624.5238438,80.078125,50.78125,101.5625,72.75390625,-4.8828125
1771543624.52775,62.98828125,43.9453125,59.5703125,36.1328125,-22.4609375
1771543624.5316563,34.1796875,29.296875,-5.37109375,10.7421875,27.34375
1771543624.5355625,40.0390625,29.78515625,27.83203125,40.52734375,27.83203125
1771543624.5394688,74.21875,40.0390625,115.234375,72.265625,60.546875
1771543624.543375,66.89453125,40.52734375,101.07421875,54.19921875,75.68359375
1771543624.5472813,16.6015625,36.1328125,11.71875,12.20703125,32.2265625
1771543624.5511875,15.625,35.64453125,26.3671875,19.53125,5.859375
1771543624.5550938,43.45703125,38.57421875,101.5625,53.7109375,40.52734375
1771543624.571125,50.78125,36.62109375,94.7265625,55.6640625,52.24609375
1771543624.5750313,11.23046875,27.83203125,10.7421875,31.25,28.3203125
1771543624.5789375,-8.30078125,20.01953125,-3.41796875,38.57421875,-12.6953125
1771543624.5828438,15.13671875,20.01953125,75.1953125,52.734375,-12.6953125
1771543624.58675,36.62109375,21.97265625,102.5390625,46.38671875,37.109375
1771543624.5906563,17.578125,21.97265625,14.16015625,22.4609375,60.05859375
1771543624.5945625,-4.39453125,23.4375,-31.73828125,-11.23046875,53.7109375
1771543624.5984688,23.4375,31.25,64.453125,18.06640625,50.78125
1771543624.602375,55.6640625,29.296875,116.2109375,62.98828125,31.25
1771543624.6062813,33.203125,20.5078125,55.17578125,45.41015625,0.0
1771543624.6101875,-9.765625,18.5546875,-6.34765625,7.8125,8.7890625
1771543624.6140938,-2.44140625,14.6484375,25.87890625,4.8828125,16.11328125
1771543624.616125,35.15625,25.390625,83.984375,33.203125,11.71875
1771543624.6200314,26.85546875,31.73828125,69.3359375,47.36328125,26.85546875
1771543624.6239376,-11.23046875,23.4375,6.34765625,6.8359375,5.37109375
1771543624.6278439,2.44140625,26.3671875,8.30078125,-12.6953125,-27.34375
1771543624.63175,44.921875,32.71484375,64.94140625,40.0390625,23.92578125
1771543624.6356564,54.19921875,28.80859375,62.98828125,69.82421875,84.9609375
1771543624.6395626,24.90234375,28.3203125,-1.953125,33.69140625,72.75390625
1771543624.6434689,6.34765625,24.4140625,2.9296875,16.6015625,35.64453125
1771543624.647375,26.3671875,21.97265625,61.5234375,44.43359375,38.0859375
1771543624.6512814,49.8046875,23.4375,69.82421875,53.22265625,43.9453125
1771543624.6551876,32.71484375,29.78515625,46.38671875,25.390625,-11.23046875
1771543624.6590939,11.23046875,36.62109375,17.578125,4.39453125,-14.16015625
1771543624.661125,34.1796875,27.83203125,36.62109375,18.06640625,-13.18359375
1771543624.6650312,57.6171875,12.6953125,92.28515625,51.26953125,-28.3203125
1771543624.6689374,37.59765625,15.625,72.265625,43.45703125,27.83203125
1771543624.6728437,5.37109375,27.34375,9.27734375,3.90625,15.13671875
1771543624.67675,7.8125,31.25,32.2265625,21.484375,13.671875
1771543624.6806562,37.59765625,30.76171875,88.37890625,60.05859375,40.0390625
1771543624.6845624,38.57421875,29.78515625,74.70703125,48.828125,46.38671875
1771543624.6884687,5.37109375,30.2734375,19.04296875,14.16015625,54.6875
1771543624.692375,1.953125,27.34375,0.9765625,2.44140625,89.35546875
1771543624.6962812,30.2734375,22.94921875,56.640625,29.78515625,74.70703125
1771543624.7001874,40.0390625,28.3203125,110.83984375,50.29296875,14.6484375
1771543624.7040937,14.6484375,31.25,49.31640625,36.1328125,22.4609375
1771543624.706125,-4.39453125,26.3671875,22.4609375,9.27734375,118.1640625
1771543624.7100313,25.87890625,28.3203125,81.54296875,20.01953125,91.30859375
1771543624.7139375,55.17578125,31.73828125,105.95703125,57.12890625,-8.30078125
1771543624.7178438,20.01953125,17.578125,44.921875,27.34375,41.015625
1771543624.72175,-4.39453125,18.06640625,-6.8359375,3.90625,55.17578125
1771543624.7256563,23.4375,31.25,41.50390625,36.62109375,7.32421875
1771543624.7295625,39.0625,31.25,102.05078125,68.359375,46.38671875
1771543624.7334688,42.48046875,34.1796875,65.91796875,73.2421875,57.6171875
1771543624.737375,19.04296875,26.3671875,-15.625,30.76171875,45.8984375
1771543624.7412813,5.37109375,21.484375,26.85546875,15.625,78.125
1771543624.7451875,25.87890625,25.87890625,112.79296875,32.71484375,61.5234375
