timestamps,TP9,AF7,AF8,TP10,Right AUX
1771706771.750125,33.203125,43.45703125,34.66796875,53.22265625,9.765625
1771706771.7540312,38.0859375,43.9453125,35.15625,55.6640625,44.921875
1771706771.7579374,52.24609375,41.50390625,33.203125,52.734375,29.78515625
1771706771.7618437,37.59765625,39.55078125,33.69140625,55.6640625,22.94921875
1771706771.76575,27.34375,37.109375,26.85546875,50.29296875,27.34375
1771706771.7696562,36.1328125,39.55078125,26.85546875,41.50390625,29.296875
1771706771.7735624,24.4140625,42.96875,29.78515625,37.59765625,-12.6953125
1771706771.7774687,17.578125,38.0859375,29.78515625,27.34375,-38.57421875
1771706771.781375,22.4609375,35.15625,33.203125,31.73828125,56.15234375
1771706771.7852812,28.3203125,41.015625,31.25,41.015625,63.96484375
1771706771.7891874,38.57421875,42.48046875,26.85546875,40.0390625,3.90625
1771706771.7930937,37.109375,37.109375,27.83203125,38.0859375,-12.20703125
1771706771.810125,32.2265625,39.55078125,23.92578125,33.203125,31.73828125
1771706771.8140314,39.0625,42.48046875,20.01953125,40.52734375,67.3828125
1771706771.8179376,44.43359375,37.59765625,20.5078125,36.62109375,42.96875
1771706771.8218439,38.57421875,35.15625,26.85546875,29.296875,44.921875
1771706771.82575,32.71484375,28.3203125,28.3203125,34.66796875,62.5
1771706771.8296564,37.109375,25.87890625,21.484375,40.0390625,46.38671875
1771706771.8335626,37.109375,33.69140625,21.97265625,46.38671875,27.34375
1771706771.8374689,33.203125,39.0625,29.78515625,45.41015625,-27.34375
1771706771.841375,33.203125,35.15625,38.0859375,45.8984375,15.13671875
1771706771.8452814,31.25,32.71484375,35.15625,47.8515625,89.84375
1771706771.8491876,46.38671875,34.66796875,33.203125,45.41015625,41.9921875
1771706771.8530939,53.22265625,32.71484375,32.71484375,43.9453125,53.7109375
1771706771.869125,27.83203125,30.76171875,23.4375,41.50390625,66.40625
1771706771.8730311,23.4375,29.296875,27.83203125,34.66796875,57.6171875
1771706771.8769374,34.66796875,33.69140625,36.62109375,34.1796875,27.83203125
1771706771.8808436,30.76171875,38.57421875,34.66796875,31.73828125,-15.625
1771706771.88475,13.671875,34.1796875,27.83203125,21.97265625,32.71484375
1771706771.8886561,6.8359375,34.1796875,24.4140625,15.13671875,74.70703125
1771706771.8925624,16.6015625,30.76171875,27.83203125,16.6015625,-28.3203125
1771706771.8964686,24.4140625,35.64453125,38.57421875,29.296875,-43.9453125
1771706771.900375,25.390625,47.8515625,37.59765625,17.08984375,28.80859375
1771706771.9042811,13.671875,41.015625,31.25,6.8359375,-3.41796875
1771706771.9081874,15.13671875,39.0625,29.296875,16.6015625,-3.90625
1771706771.9120936,23.92578125,39.55078125,17.08984375,7.32421875,3.90625
1771706771.929125,25.87890625,46.38671875,11.71875,5.859375,14.16015625
1771706771.9330313,23.4375,46.875,16.11328125,8.30078125,64.453125
1771706771.9369376,20.99609375,39.55078125,20.99609375,9.27734375,20.01953125
1771706771.9408438,29.296875,38.0859375,24.90234375,18.5546875,1.953125
1771706771.94475,30.2734375,39.55078125,26.3671875,13.671875,62.01171875
1771706771.9486563,32.71484375,39.55078125,27.83203125,9.27734375,33.69140625
1771706771.9525626,31.73828125,36.62109375,25.390625,7.32421875,5.859375
1771706771.9564688,29.78515625,41.9921875,29.296875,16.11328125,43.45703125
1771706771.960375,33.69140625,44.43359375,29.78515625,15.13671875,25.390625
1771706771.9642813,36.1328125,39.0625,24.4140625,8.7890625,10.25390625
1771706771.9681876,30.76171875,41.9921875,21.97265625,11.23046875,-3.90625
1771706771.9720938,23.4375,40.52734375,22.94921875,10.7421875,-18.5546875
1771706772.079125,32.2265625,35.15625,25.390625,14.16015625,-15.13671875
1771706772.0830312,25.87890625,41.015625,20.99609375,8.30078125,6.8359375
1771706772.0869374,19.04296875,42.48046875,17.578125,-1.953125,19.53125
1771706772.0908437,28.3203125,31.73828125,26.3671875,2.9296875,69.82421875
1771706772.09475,28.80859375,31.25,27.83203125,-1.46484375,81.54296875
1771706772.0986562,30.2734375,43.9453125,25.390625,-12.20703125,26.85546875
1771706772.1025624,26.3671875,49.31640625,23.92578125,-6.34765625,13.671875
1771706772.1064687,32.2265625,42.48046875,20.99609375,-3.41796875,39.55078125
1771706772.110375,42.48046875,37.109375,31.73828125,14.6484375,46.38671875
1771706772.1142812,38.57421875,34.66796875,29.78515625,19.04296875,17.578125
1771706772.1181874,32.2265625,35.64453125,18.06640625,-4.8828125,35.64453125
1771706772.1220937,24.90234375,36.1328125,21.484375,-1.46484375,65.4296875
1771706772.140125,38.57421875,41.9921875,31.73828125,12.20703125,35.64453125
1771706772.1440313,54.6875,45.8984375,33.69140625,13.18359375,-30.76171875
1771706772.1479375,44.921875,41.015625,26.85546875,7.32421875,-15.625
1771706772.1518438,42.48046875,45.8984375,22.4609375,9.27734375,17.578125
1771706772.15575,50.29296875,47.36328125,26.3671875,13.18359375,-11.71875
1771706772.1596563,43.9453125,44.43359375,32.2265625,15.625,32.2265625
1771706772.1635625,37.59765625,47.8515625,22.94921875,2.9296875,85.44921875
1771706772.1674688,39.0625,45.8984375,20.99609375,-6.34765625,76.171875
1771706772.171375,35.64453125,45.8984375,20.01953125,0.48828125,34.1796875
1771706772.1752813,25.87890625,50.78125,23.92578125,2.44140625,36.1328125
1771706772.1791875,19.53125,41.50390625,25.390625,-11.23046875,-10.25390625
1771706772.1830938,17.08984375,44.43359375,25.87890625,-15.625,-20.5078125
1771706772.184125,9.765625,46.38671875,34.66796875,-18.5546875,60.546875
1771706772.1880312,8.7890625,42.48046875,40.0390625,-22.4609375,53.7109375
1771706772.1919374,4.39453125,50.78125,36.1328125,-35.15625,14.16015625
1771706772.1958437,-1.953125,55.17578125,44.921875,-44.921875,14.16015625
1771706772.19975,-8.7890625,50.78125,50.78125,-43.45703125,37.109375
1771706772.2036562,-21.97265625,54.19921875,41.9921875,-56.640625,47.36328125
1771706772.2075624,-20.5078125,66.40625,44.43359375,-54.6875,95.703125
1771706772.2114687,-32.71484375,63.96484375,47.36328125,-58.10546875,79.58984375
1771706772.215375,-62.01171875,62.5,47.36328125,-83.49609375,74.21875
1771706772.2192812,-52.734375,73.2421875,42.48046875,-83.49609375,32.2265625
1771706772.2231874,-31.73828125,78.125,47.8515625,-58.10546875,-6.8359375
1771706772.2270937,-77.63671875,79.58984375,65.91796875,-87.890625,32.71484375
1771706772.259125,-120.60546875,80.078125,76.171875,-127.9296875,68.359375
1771706772.2630312,-105.46875,83.49609375,82.51953125,-124.51171875,36.62109375
1771706772.2669375,-128.90625,87.890625,102.05078125,-147.4609375,-4.39453125
1771706772.2708437,-149.90234375,91.796875,112.79296875,-157.2265625,-32.71484375
1771706772.27475,-169.43359375,86.9140625,114.74609375,-181.640625,-6.34765625
1771706772.2786562,-186.5234375,73.73046875,116.69921875,-186.03515625,12.6953125
1771706772.2825625,-189.453125,73.73046875,118.65234375,-183.10546875,36.62109375
1771706772.2864687,-196.77734375,71.2890625,129.8828125,-198.73046875,29.78515625
1771706772.290375,-201.171875,72.265625,135.7421875,-201.66015625,-10.25390625
1771706772.2942812,-204.1015625,71.77734375,130.859375,-204.1015625,7.8125
1771706772.2981875,-202.1484375,61.5234375,131.34765625,-204.58984375,-10.25390625
1771706772.3020937,-178.7109375,58.10546875,132.32421875,-195.3125,37.59765625
1771706772.304125,-159.1796875,65.91796875,125.48828125,-181.640625,62.5
1771706772.3080313,-179.6875,70.80078125,124.0234375,-181.640625,-5.37109375
1771706772.3119376,-174.8046875,64.94140625,121.09375,-176.26953125,-44.43359375
1771706772.3158438,-149.90234375,44.921875,110.3515625,-154.78515625,14.6484375
1771706772.31975,-145.99609375,27.83203125,102.5390625,-140.13671875,50.78125
1771706772.3236563,-125.9765625,35.64453125,90.33203125,-123.53515625,14.16015625
1771706772.3275626,-104.98046875,37.59765625,85.44921875,-112.79296875,-56.640625
1771706772.3314688,-90.33203125,28.3203125,74.21875,-91.30859375,-40.0390625
1771706772.335375,-42.48046875,28.3203125,68.359375,-52.734375,41.015625
1771706772.3392813,-29.296875,32.2265625,63.96484375,-41.9921875,27.34375
1771706772.3431876,-41.015625,27.34375,46.875,-43.9453125,39.55078125
1771706772.3470938,-1.46484375,27.34375,36.1328125,-8.30078125,41.50390625
1771706772.364125,24.90234375,19.53125,31.73828125,20.5078125,2.44140625
1771706772.3680313,21.97265625,11.23046875,24.90234375,17.08984375,43.9453125
1771706772.3719375,40.0390625,13.671875,11.71875,26.85546875,58.10546875
1771706772.3758438,51.26953125,16.11328125,8.7890625,46.875,6.34765625
1771706772.37975,52.734375,14.6484375,10.25390625,57.12890625,0.9765625
1771706772.3836563,68.359375,16.11328125,-7.32421875,62.01171875,41.9921875
1771706772.3875625,70.3125,21.484375,-8.7890625,71.2890625,29.296875
1771706772.3914688,75.68359375,21.484375,4.8828125,83.984375,69.3359375
1771706772.395375,85.9375,20.01953125,-2.44140625,98.14453125,42.96875
1771706772.3992813,92.7734375,16.11328125,-7.32421875,99.609375,-19.53125
1771706772.4031875,104.4921875,14.6484375,-7.8125,101.07421875,-7.32421875
1771706772.4070938,118.65234375,13.18359375,-5.859375,109.375,0.9765625
1771706772.409125,121.09375,13.671875,-5.37109375,111.81640625,13.671875
1771706772.4130313,113.76953125,18.06640625,-10.7421875,106.4453125,18.06640625
1771706772.4169376,106.93359375,18.5546875,-15.13671875,106.4453125,20.5078125
1771706772.4208438,102.05078125,15.13671875,-15.625,105.95703125,-11.23046875
1771706772.42475,110.3515625,18.5546875,-12.6953125,108.3984375,-8.7890625
1771706772.4286563,107.421875,21.484375,-13.18359375,109.86328125,36.62109375
1771706772.4325626,95.21484375,15.625,-8.7890625,101.07421875,1.46484375
1771706772.4364688,107.421875,18.5546875,-4.8828125,104.4921875,-9.27734375
1771706772.440375,111.81640625,23.92578125,-3.90625,108.3984375,48.33984375
1771706772.4442813,111.328125,21.97265625,-5.859375,106.4453125,78.61328125
1771706772.4481876,104.98046875,18.5546875,-8.7890625,107.421875,11.71875
1771706772.4520938,101.07421875,19.04296875,-1.46484375,116.69921875,1.46484375
1771706772.499125,99.609375,21.484375,1.46484375,116.2109375,8.7890625
1771706772.5030313,92.28515625,16.6015625,-5.859375,98.14453125,-0.48828125
1771706772.5069375,86.9140625,15.625,-7.32421875,97.65625,19.53125
1771706772.5108438,89.35546875,19.04296875,-1.953125,101.07421875,25.390625
1771706772.51475,97.16796875,20.99609375,0.9765625,102.5390625,42.96875
1771706772.5186563,92.28515625,20.99609375,0.9765625,105.95703125,48.33984375
1771706772.5225625,89.35546875,18.06640625,3.90625,99.12109375,35.15625
1771706772.5264688,86.42578125,15.625,5.859375,95.703125,13.671875
1771706772.530375,81.54296875,21.484375,7.8125,89.35546875,20.01953125
1771706772.5342813,83.49609375,24.90234375,11.71875,82.03125,63.4765625
1771706772.5381875,91.30859375,23.92578125,13.671875,82.03125,103.515625
1771706772.5420938,87.890625,18.5546875,8.7890625,78.61328125,17.578125
1771706772.529125,75.68359375,15.13671875,9.27734375,79.1015625,2.44140625
1771706772.5330312,73.2421875,23.4375,14.16015625,76.171875,47.36328125
1771706772.5369375,69.82421875,25.87890625,14.6484375,68.359375,60.05859375
1771706772.5408437,68.84765625,23.4375,10.25390625,73.2421875,62.5
1771706772.54475,75.1953125,26.3671875,11.71875,77.63671875,-7.32421875
1771706772.5486562,79.58984375,28.3203125,8.7890625,72.75390625,12.6953125
1771706772.5525625,75.1953125,23.92578125,10.25390625,67.87109375,50.29296875
1771706772.5564687,71.2890625,25.390625,20.99609375,73.2421875,-10.25390625
1771706772.560375,62.98828125,28.3203125,24.4140625,76.66015625,-18.5546875
1771706772.5642812,68.84765625,31.73828125,20.99609375,66.40625,39.55078125
1771706772.5681875,75.1953125,33.69140625,14.6484375,69.82421875,52.24609375
1771706772.5720937,63.96484375,30.76171875,15.625,75.68359375,53.22265625
1771706772.534125,59.5703125,24.90234375,12.20703125,70.3125,21.484375
1771706772.5380313,60.546875,28.80859375,9.765625,70.3125,25.390625
1771706772.5419376,63.4765625,37.59765625,10.7421875,66.89453125,19.04296875
1771706772.5458438,62.01171875,32.71484375,12.6953125,66.89453125,-22.94921875
1771706772.54975,54.6875,19.04296875,15.625,67.3828125,-17.08984375
1771706772.5536563,55.6640625,19.53125,19.53125,67.3828125,-1.953125
1771706772.5575626,67.3828125,33.69140625,19.53125,69.82421875,37.59765625
1771706772.5614688,72.265625,34.1796875,13.671875,67.3828125,18.06640625
1771706772.565375,62.5,29.78515625,21.97265625,71.2890625,12.20703125
1771706772.5692813,58.59375,24.4140625,20.01953125,67.3828125,40.0390625
1771706772.5731876,62.01171875,29.78515625,16.11328125,66.89453125,23.92578125
1771706772.5770938,67.87109375,38.0859375,21.97265625,66.89453125,6.34765625
1771706772.539125,62.98828125,28.3203125,21.97265625,56.640625,0.48828125
1771706772.5430312,39.55078125,24.90234375,17.578125,49.8046875,42.96875
1771706772.5469375,42.96875,34.1796875,18.5546875,44.43359375,69.82421875
1771706772.5508437,58.10546875,35.64453125,16.11328125,44.921875,67.3828125
1771706772.55475,51.7578125,33.203125,6.8359375,42.48046875,58.10546875
1771706772.5586562,45.41015625,31.73828125,14.6484375,47.36328125,43.45703125
1771706772.5625625,41.50390625,37.59765625,22.4609375,53.22265625,73.2421875
1771706772.5664687,34.66796875,34.1796875,19.04296875,41.015625,3.90625
1771706772.570375,48.33984375,32.71484375,25.390625,30.76171875,11.71875
1771706772.5742812,50.29296875,35.64453125,32.2265625,26.3671875,88.8671875
1771706772.5781875,26.3671875,39.55078125,40.0390625,25.87890625,23.4375
1771706772.5820937,29.78515625,39.55078125,39.55078125,21.484375,3.41796875
1771706772.547125,29.78515625,35.15625,22.4609375,9.27734375,21.97265625
1771706772.5510314,23.92578125,42.48046875,24.4140625,-0.48828125,34.1796875
1771706772.5549376,16.6015625,53.22265625,34.66796875,-1.953125,12.6953125
1771706772.5588439,2.9296875,60.546875,34.1796875,-4.8828125,-6.34765625
1771706772.56275,-4.8828125,60.05859375,34.1796875,-14.16015625,39.55078125
1771706772.5666564,-15.625,55.17578125,35.64453125,-27.83203125,47.8515625
1771706772.5705626,-25.390625,62.98828125,38.57421875,-39.55078125,-6.34765625
1771706772.5744689,-21.484375,68.359375,52.24609375,-39.0625,21.484375
1771706772.578375,-32.2265625,72.265625,54.19921875,-51.26953125,65.4296875
1771706772.5822814,-49.8046875,80.078125,55.17578125,-62.5,23.92578125
1771706772.5861876,-67.3828125,80.56640625,61.03515625,-77.1484375,20.99609375
1771706772.5900939,-83.49609375,82.51953125,63.96484375,-97.16796875,65.91796875
1771706772.574125,-84.9609375,85.9375,74.70703125,-106.93359375,56.640625
1771706772.5780313,-100.5859375,82.51953125,79.58984375,-111.81640625,45.41015625
1771706772.5819376,-120.60546875,88.37890625,80.56640625,-111.81640625,19.04296875
1771706772.5858438,-134.765625,92.28515625,89.35546875,-126.46484375,56.15234375
1771706772.58975,-153.80859375,86.42578125,96.6796875,-150.87890625,97.65625
1771706772.5936563,-146.97265625,87.40234375,95.21484375,-148.4375,78.125
1771706772.5975626,-138.671875,89.35546875,104.98046875,-146.484375,78.125
1771706772.6014688,-152.34375,83.984375,111.81640625,-156.73828125,29.78515625
1771706772.605375,-153.80859375,79.58984375,105.95703125,-154.78515625,-31.73828125
1771706772.6092813,-125.0,85.44921875,99.12109375,-141.11328125,-16.6015625
1771706772.6131876,-125.48828125,84.9609375,100.09765625,-145.5078125,54.6875
1771706772.6170938,-127.9296875,75.1953125,100.09765625,-145.01953125,40.52734375
1771706772.592125,-102.05078125,66.89453125,86.9140625,-123.046875,-12.6953125
1771706772.5960312,-81.0546875,67.3828125,79.1015625,-104.98046875,49.8046875
1771706772.5999374,-76.66015625,74.21875,65.4296875,-97.16796875,52.24609375
1771706772.6038437,-73.2421875,65.91796875,50.29296875,-84.9609375,34.1796875
1771706772.60775,-48.828125,49.8046875,45.8984375,-65.4296875,40.52734375
1771706772.6116562,-18.06640625,42.96875,34.66796875,-45.41015625,54.19921875
1771706772.6155624,-5.859375,45.8984375,21.484375,-29.296875,69.82421875
1771706772.6194687,-0.48828125,41.015625,12.20703125,-17.578125,-20.5078125
1771706772.623375,17.578125,39.0625,12.6953125,7.32421875,25.87890625
1771706772.6272812,46.875,35.64453125,5.37109375,35.15625,51.26953125
1771706772.6311874,63.4765625,27.34375,-9.765625,47.8515625,44.921875
1771706772.6350937,65.91796875,30.2734375,-23.4375,54.19921875,28.80859375
1771706772.595125,73.2421875,26.85546875,-21.484375,68.359375,-17.578125
1771706772.5990312,91.796875,18.5546875,-11.23046875,80.078125,-3.41796875
1771706772.6029375,107.421875,15.625,-15.625,87.40234375,-3.41796875
1771706772.6068437,117.67578125,16.6015625,-19.04296875,92.28515625,12.20703125
1771706772.61075,125.9765625,16.6015625,-16.11328125,94.23828125,23.4375
1771706772.6146562,132.32421875,14.16015625,-13.18359375,107.421875,-5.37109375
1771706772.6185625,136.71875,9.765625,-11.23046875,109.86328125,-6.8359375
1771706772.6224687,137.6953125,10.7421875,-12.20703125,107.421875,13.671875
1771706772.626375,134.765625,12.20703125,-13.671875,111.81640625,26.85546875
1771706772.6302812,123.046875,5.37109375,-13.671875,106.93359375,-19.04296875
1771706772.6341875,120.60546875,1.953125,-10.7421875,104.4921875,-2.9296875
1771706772.6380937,124.51171875,6.34765625,-6.34765625,110.3515625,47.8515625
1771706772.606125,121.09375,3.90625,-8.7890625,120.60546875,1.953125
1771706772.6100314,119.62890625,7.32421875,-3.41796875,128.41796875,43.45703125
1771706772.6139376,123.046875,12.20703125,2.44140625,125.48828125,98.14453125
1771706772.6178439,131.34765625,7.32421875,-0.48828125,131.8359375,76.66015625
1771706772.62175,122.55859375,4.8828125,-4.39453125,132.8125,51.7578125
1771706772.6256564,107.91015625,3.41796875,-3.41796875,118.1640625,74.70703125
1771706772.6295626,107.91015625,5.37109375,-4.39453125,117.67578125,85.9375
1771706772.6334689,114.74609375,7.8125,-5.37109375,125.48828125,30.76171875
1771706772.637375,117.67578125,5.859375,0.48828125,129.39453125,59.08203125
1771706772.6412814,113.76953125,9.27734375,-0.48828125,120.60546875,62.5
1771706772.6451876,113.76953125,15.625,1.46484375,121.09375,8.30078125
1771706772.6490939,101.5625,9.765625,6.8359375,125.0,10.7421875
1771706772.649125,95.21484375,7.32421875,6.8359375,124.0234375,40.0390625
1771706772.6530313,100.5859375,11.23046875,3.41796875,125.9765625,41.50390625
1771706772.6569376,97.16796875,6.8359375,2.44140625,126.953125,61.03515625
1771706772.6608438,109.86328125,14.6484375,3.41796875,129.8828125,43.9453125
1771706772.66475,117.1875,23.4375,5.859375,132.8125,34.1796875
1771706772.6686563,99.12109375,16.6015625,-0.48828125,130.859375,52.734375
1771706772.6725626,121.09375,15.625,-0.48828125,127.9296875,82.03125
1771706772.6764688,143.5546875,21.484375,10.7421875,123.046875,71.2890625
1771706772.680375,150.390625,25.390625,11.23046875,114.2578125,49.31640625
1771706772.6842813,149.90234375,24.4140625,14.16015625,114.74609375,64.453125
1771706772.6881876,106.93359375,20.01953125,17.578125,125.0,66.40625
1771706772.6920938,66.89453125,17.578125,18.06640625,133.30078125,85.9375
1771706772.679125,65.4296875,18.5546875,19.04296875,135.25390625,91.30859375
1771706772.6830313,91.30859375,23.92578125,14.16015625,126.46484375,69.82421875
1771706772.6869376,94.7265625,28.3203125,10.7421875,122.0703125,47.36328125
1771706772.6908438,67.87109375,31.25,15.625,128.41796875,51.26953125
1771706772.69475,64.94140625,27.34375,19.53125,123.53515625,12.6953125
1771706772.6986563,83.49609375,22.94921875,15.13671875,121.09375,29.78515625
1771706772.7025626,81.54296875,25.87890625,18.5546875,115.72265625,-18.06640625
1771706772.7064688,73.73046875,30.2734375,27.34375,114.2578125,-77.1484375
1771706772.710375,72.265625,25.87890625,21.97265625,111.328125,-32.2265625
1771706772.7142813,69.82421875,19.04296875,17.08984375,92.7734375,1.46484375
1771706772.7181876,74.21875,25.87890625,18.06640625,86.9140625,62.5
1771706772.7220938,77.63671875,32.2265625,22.4609375,98.14453125,64.453125
1771706772.723125,79.1015625,35.15625,23.4375,94.23828125,64.453125
1771706772.7270312,87.40234375,30.76171875,20.01953125,81.0546875,91.796875
1771706772.7309375,91.796875,24.4140625,20.5078125,89.35546875,78.125
1771706772.7348437,80.078125,30.2734375,17.08984375,86.9140625,55.6640625
1771706772.73875,68.84765625,32.2265625,16.6015625,81.0546875,41.9921875
1771706772.7426562,74.70703125,24.90234375,17.08984375,83.984375,0.9765625
1771706772.7465625,82.03125,28.80859375,19.04296875,88.37890625,-1.46484375
1771706772.7504687,77.1484375,32.2265625,21.97265625,85.9375,29.78515625
1771706772.754375,73.73046875,27.34375,20.99609375,77.63671875,50.78125
1771706772.7582812,83.49609375,28.80859375,19.04296875,83.984375,5.37109375
1771706772.7621875,85.9375,33.69140625,22.4609375,85.44921875,-1.46484375
1771706772.7660937,72.265625,35.64453125,26.3671875,76.171875,45.41015625
1771706772.769125,66.40625,32.2265625,23.4375,74.70703125,16.11328125
1771706772.7730312,78.61328125,31.73828125,19.04296875,67.3828125,17.08984375
1771706772.7769375,78.61328125,33.203125,19.04296875,63.96484375,30.2734375
1771706772.7808437,76.66015625,36.1328125,20.99609375,65.91796875,-28.80859375
1771706772.78475,69.3359375,38.0859375,20.5078125,66.40625,0.9765625
1771706772.7886562,56.640625,39.55078125,24.4140625,61.5234375,38.57421875
1771706772.7925625,62.98828125,37.109375,25.390625,63.96484375,4.8828125
1771706772.7964687,61.5234375,35.15625,19.53125,60.546875,20.01953125
1771706772.800375,52.734375,36.1328125,18.5546875,46.875,20.99609375
1771706772.8042812,51.7578125,31.73828125,20.99609375,43.9453125,0.9765625
1771706772.8081875,54.6875,30.76171875,21.484375,40.52734375,8.7890625
1771706772.8120937,56.640625,35.15625,21.484375,44.43359375,32.71484375
1771706772.813125,41.015625,30.76171875,20.5078125,47.8515625,34.66796875
1771706772.8170311,36.1328125,33.203125,28.3203125,56.640625,48.33984375
1771706772.8209374,44.921875,43.45703125,37.59765625,60.05859375,62.01171875
1771706772.8248436,43.9453125,41.50390625,30.76171875,60.546875,22.4609375
1771706772.82875,42.48046875,32.2265625,29.78515625,61.5234375,3.90625
1771706772.8326561,44.43359375,28.80859375,32.2265625,54.6875,86.42578125
1771706772.8365624,43.9453125,28.3203125,36.62109375,53.7109375,59.5703125
1771706772.8404686,53.22265625,29.78515625,39.55078125,50.29296875,3.90625
1771706772.844375,40.0390625,31.25,40.0390625,43.45703125,34.66796875
1771706772.8482811,23.92578125,25.87890625,37.59765625,40.0390625,5.37109375
1771706772.8521874,38.57421875,26.3671875,32.2265625,40.52734375,47.36328125
1771706772.8560936,54.6875,32.2265625,36.62109375,44.43359375,60.546875
1771706772.873125,48.33984375,37.59765625,40.0390625,43.45703125,23.92578125
1771706772.8770313,34.1796875,33.69140625,30.2734375,32.2265625,8.7890625
1771706772.8809376,30.2734375,27.83203125,26.3671875,28.80859375,30.76171875
1771706772.8848438,33.69140625,29.78515625,31.73828125,28.80859375,31.73828125
1771706772.88875,41.015625,29.78515625,29.296875,29.296875,-2.9296875
1771706772.8926563,36.62109375,33.69140625,31.25,34.66796875,42.48046875
1771706772.8965626,36.1328125,33.69140625,31.25,28.80859375,44.921875
1771706772.9004688,39.55078125,35.15625,29.78515625,26.3671875,50.78125
1771706772.904375,37.109375,40.0390625,32.71484375,25.87890625,61.5234375
1771706772.9082813,34.66796875,33.69140625,30.76171875,25.87890625,2.44140625
1771706772.9121876,29.296875,30.76171875,32.71484375,24.90234375,4.8828125
1771706772.9160938,42.96875,32.2265625,31.73828125,24.4140625,31.25
1771706772.919125,64.453125,29.296875,24.4140625,32.2265625,36.1328125
1771706772.9230313,52.734375,28.80859375,27.34375,30.2734375,3.90625
1771706772.9269376,26.3671875,32.71484375,33.203125,34.1796875,0.48828125
1771706772.9308438,11.71875,33.203125,38.57421875,48.828125,67.87109375
1771706772.93475,32.71484375,34.66796875,36.1328125,45.8984375,119.140625
1771706772.9386563,50.78125,33.203125,29.296875,37.109375,53.7109375
1771706772.9425626,34.1796875,33.203125,31.73828125,35.15625,55.17578125
1771706772.9464688,22.94921875,34.1796875,30.2734375,31.73828125,24.90234375
1771706772.950375,32.2265625,34.66796875,25.87890625,36.1328125,-16.11328125
1771706772.9542813,40.0390625,41.015625,28.80859375,34.1796875,20.99609375
1771706772.9581876,38.57421875,43.45703125,36.1328125,26.85546875,44.43359375
1771706772.9620938,21.97265625,40.0390625,39.55078125,27.34375,43.45703125
1771706772.978125,18.5546875,35.64453125,34.1796875,25.87890625,23.92578125
1771706772.9820313,23.4375,36.1328125,26.85546875,27.34375,40.52734375
1771706772.9859376,18.06640625,36.62109375,23.92578125,28.80859375,0.48828125
1771706772.9898438,23.92578125,42.48046875,30.76171875,25.87890625,-37.109375
1771706772.99375,35.15625,46.38671875,40.52734375,22.94921875,4.39453125
1771706772.9976563,35.15625,36.62109375,32.2265625,23.92578125,50.78125
1771706773.0015626,37.59765625,38.57421875,28.80859375,17.08984375,33.69140625
1771706773.0054688,39.0625,40.0390625,32.71484375,15.625,49.8046875
1771706773.009375,36.62109375,36.1328125,27.83203125,17.578125,129.39453125
1771706773.0132813,30.76171875,42.96875,28.3203125,16.6015625,103.02734375
1771706773.0171876,20.99609375,38.0859375,35.15625,20.99609375,34.1796875
1771706773.0210938,22.4609375,33.203125,33.69140625,17.578125,-7.8125
1771706773.023125,33.69140625,41.9921875,27.34375,24.4140625,1.46484375
1771706773.0270312,41.9921875,47.8515625,30.76171875,30.2734375,59.5703125
1771706773.0309374,38.0859375,48.828125,33.203125,16.6015625,29.296875
1771706773.0348437,37.59765625,37.59765625,29.78515625,13.18359375,40.52734375
1771706773.03875,41.015625,32.2265625,29.78515625,20.5078125,20.01953125
1771706773.0426562,38.0859375,39.0625,27.83203125,21.484375,-41.50390625
1771706773.0465624,33.69140625,41.50390625,27.83203125,14.16015625,14.16015625
1771706773.0504687,33.203125,40.52734375,30.76171875,16.11328125,45.41015625
1771706773.054375,32.71484375,42.96875,34.66796875,18.06640625,61.03515625
1771706773.0582812,41.50390625,47.36328125,33.203125,16.11328125,65.91796875
1771706773.0621874,42.96875,53.22265625,34.66796875,18.06640625,-20.01953125
1771706773.0660937,35.15625,48.33984375,34.1796875,13.18359375,-20.99609375
1771706773.054125,30.2734375,41.015625,29.78515625,10.25390625,76.171875
1771706773.0580313,32.2265625,41.50390625,24.90234375,10.7421875,28.80859375
1771706773.0619376,29.296875,40.0390625,30.2734375,16.6015625,1.46484375
1771706773.0658438,31.25,41.50390625,32.71484375,17.08984375,42.96875
1771706773.06975,29.78515625,45.41015625,36.1328125,15.13671875,40.0390625
1771706773.0736563,31.73828125,40.52734375,35.64453125,14.6484375,84.47265625
1771706773.0775626,34.1796875,38.0859375,32.2265625,10.25390625,70.3125
1771706773.0814688,25.390625,45.8984375,32.71484375,16.6015625,43.9453125
1771706773.085375,24.4140625,50.29296875,31.25,21.97265625,45.41015625
1771706773.0892813,18.06640625,39.55078125,35.15625,19.53125,1.46484375
1771706773.0931876,18.06640625,37.59765625,34.1796875,17.578125,-19.53125
1771706773.0970938,25.390625,40.0390625,29.296875,16.11328125,37.109375
1771706773.098125,20.01953125,41.015625,35.15625,18.5546875,61.03515625
1771706773.1020312,11.71875,41.9921875,35.64453125,19.53125,-6.8359375
1771706773.1059375,24.4140625,39.0625,29.296875,20.01953125,-4.39453125
1771706773.1098437,20.01953125,41.50390625,32.71484375,22.4609375,10.7421875
1771706773.11375,13.18359375,46.875,34.1796875,21.484375,0.48828125
1771706773.1176562,24.90234375,40.52734375,36.62109375,26.3671875,44.921875
1771706773.1215625,17.578125,35.64453125,28.80859375,27.83203125,54.6875
1771706773.1254687,12.6953125,32.71484375,20.01953125,18.06640625,55.17578125
1771706773.129375,9.27734375,30.76171875,28.80859375,19.04296875,57.12890625
1771706773.1332812,4.39453125,32.71484375,39.0625,24.90234375,33.69140625
1771706773.1371875,6.8359375,34.1796875,40.52734375,30.76171875,61.03515625
1771706773.1410937,14.6484375,36.62109375,36.62109375,38.0859375,46.38671875
1771706773.144125,20.5078125,39.55078125,39.55078125,42.96875,67.87109375
1771706773.1480312,14.6484375,40.52734375,39.55078125,31.73828125,69.82421875
1771706773.1519375,12.20703125,43.45703125,35.64453125,16.6015625,3.90625
1771706773.1558437,9.765625,38.0859375,37.109375,23.92578125,38.57421875
1771706773.15975,6.34765625,34.66796875,41.015625,29.78515625,40.0390625
1771706773.1636562,7.8125,35.15625,46.38671875,28.80859375,65.91796875
1771706773.1675625,5.37109375,41.50390625,39.0625,20.5078125,34.66796875
1771706773.1714687,0.9765625,40.52734375,29.296875,20.5078125,21.97265625
1771706773.175375,11.71875,33.69140625,35.64453125,23.92578125,75.1953125
1771706773.1792812,17.578125,42.48046875,37.109375,22.4609375,14.6484375
1771706773.1831875,19.53125,42.48046875,26.85546875,20.01953125,27.83203125
1771706773.1870937,20.5078125,30.76171875,28.3203125,18.06640625,92.7734375
1771706773.189125,10.25390625,28.80859375,35.15625,14.6484375,34.66796875
1771706773.1930313,17.08984375,33.203125,35.64453125,20.5078125,15.13671875
1771706773.1969376,9.27734375,35.64453125,38.0859375,26.85546875,20.99609375
1771706773.2008438,6.34765625,37.59765625,36.1328125,26.3671875,29.296875
1771706773.20475,18.5546875,36.62109375,31.25,24.4140625,25.87890625
1771706773.2086563,31.25,38.0859375,33.69140625,20.5078125,43.9453125
1771706773.2125626,24.90234375,37.59765625,32.71484375,15.625,101.07421875
1771706773.2164688,16.11328125,35.64453125,31.25,16.6015625,95.703125
1771706773.220375,31.25,38.0859375,27.83203125,15.625,104.98046875
1771706773.2242813,34.66796875,36.1328125,25.390625,16.11328125,39.55078125
1771706773.2281876,26.85546875,36.1328125,21.97265625,16.6015625,-19.04296875
1771706773.2320938,17.578125,36.1328125,21.97265625,16.11328125,24.90234375
1771706773.234125,18.06640625,37.109375,28.3203125,15.625,-41.9921875
1771706773.2380311,18.06640625,36.62109375,30.76171875,16.6015625,-53.7109375
1771706773.2419374,18.5546875,32.71484375,31.25,17.08984375,48.828125
1771706773.2458436,18.06640625,35.15625,35.15625,13.18359375,50.29296875
1771706773.24975,14.6484375,36.1328125,35.64453125,16.6015625,42.96875
1771706773.2536561,8.7890625,33.69140625,31.73828125,15.13671875,26.85546875
1771706773.2575624,8.7890625,32.71484375,29.78515625,10.25390625,3.41796875
1771706773.2614686,13.671875,34.66796875,33.203125,9.27734375,50.78125
1771706773.265375,14.16015625,33.69140625,32.71484375,11.23046875,37.109375
1771706773.2692811,27.34375,38.0859375,32.2265625,15.625,-14.16015625
1771706773.2731874,44.43359375,40.52734375,34.66796875,6.8359375,7.8125
1771706773.2770936,29.78515625,33.69140625,32.71484375,-0.9765625,11.23046875
1771706773.280125,15.13671875,36.1328125,35.15625,8.30078125,-17.08984375
1771706773.2840312,20.5078125,40.0390625,37.59765625,11.71875,-50.78125
1771706773.2879374,33.69140625,40.0390625,38.0859375,6.34765625,-26.85546875
1771706773.2918437,29.78515625,39.0625,34.1796875,-1.46484375,28.3203125
1771706773.29575,28.80859375,42.48046875,37.109375,-0.9765625,16.6015625
1771706773.2996562,42.48046875,49.31640625,42.96875,0.9765625,-49.31640625
1771706773.3035624,40.52734375,47.36328125,36.62109375,-8.30078125,-61.03515625
1771706773.3074687,19.04296875,46.38671875,33.203125,-13.671875,37.109375
1771706773.311375,1.953125,49.31640625,38.0859375,-7.32421875,67.87109375
1771706773.3152812,-4.39453125,47.8515625,38.57421875,-12.20703125,2.44140625
1771706773.3191874,-2.44140625,48.33984375,42.96875,-17.578125,35.15625
1771706773.3230937,6.34765625,50.29296875,51.26953125,-11.71875,56.640625
1771706773.339125,-7.32421875,53.7109375,51.7578125,-21.484375,25.87890625
1771706773.3430312,-17.578125,57.6171875,53.22265625,-31.25,41.9921875
1771706773.3469374,-21.484375,54.19921875,45.8984375,-40.0390625,39.0625
1771706773.3508437,-31.25,49.31640625,46.38671875,-49.8046875,46.38671875
1771706773.35475,-42.48046875,64.94140625,57.12890625,-53.7109375,54.19921875
1771706773.3586562,-47.36328125,77.1484375,54.19921875,-63.4765625,62.98828125
1771706773.3625624,-43.45703125,73.73046875,52.734375,-71.77734375,39.0625
1771706773.3664687,-52.24609375,74.21875,60.546875,-79.58984375,5.37109375
1771706773.370375,-64.453125,77.63671875,64.453125,-96.19140625,18.5546875
1771706773.3742812,-66.40625,84.47265625,65.4296875,-101.07421875,48.828125
1771706773.3781874,-80.56640625,96.6796875,69.82421875,-92.7734375,23.92578125
1771706773.3820937,-118.1640625,97.16796875,75.68359375,-126.953125,40.52734375
1771706773.384125,-143.5546875,95.21484375,83.49609375,-161.1328125,48.828125
1771706773.3880312,-146.97265625,103.515625,89.35546875,-155.76171875,62.01171875
1771706773.3919375,-155.76171875,106.4453125,90.8203125,-166.50390625,68.84765625
1771706773.3958437,-162.59765625,119.140625,94.7265625,-181.15234375,8.7890625
1771706773.39975,-172.36328125,126.953125,106.93359375,-190.4296875,54.6875
1771706773.4036562,-189.453125,115.72265625,109.86328125,-204.1015625,62.5
1771706773.4075625,-186.5234375,115.234375,104.00390625,-200.68359375,51.26953125
1771706773.4114687,-182.12890625,120.60546875,106.4453125,-191.89453125,81.54296875
1771706773.415375,-194.82421875,116.2109375,107.421875,-204.58984375,65.91796875
1771706773.4192812,-193.359375,110.3515625,105.46875,-204.58984375,59.08203125
1771706773.4231875,-187.98828125,99.609375,105.95703125,-195.80078125,-5.37109375
1771706773.4270937,-185.05859375,89.84375,114.2578125,-184.5703125,-41.50390625
1771706773.429125,-172.8515625,93.26171875,115.234375,-166.015625,-5.859375
1771706773.4330313,-162.59765625,96.6796875,107.421875,-166.9921875,52.24609375
1771706773.4369376,-156.25,93.75,105.95703125,-163.0859375,55.6640625
1771706773.4408438,-154.78515625,83.0078125,102.5390625,-149.90234375,14.16015625
1771706773.44475,-130.37109375,78.125,91.30859375,-133.7890625,12.20703125
1771706773.4486563,-112.79296875,79.58984375,83.49609375,-123.046875,48.33984375
1771706773.4525626,-107.421875,81.54296875,77.63671875,-108.3984375,3.41796875
1771706773.4564688,-78.61328125,73.2421875,72.75390625,-80.56640625,22.4609375
1771706773.460375,-64.453125,62.98828125,65.91796875,-64.453125,31.25
1771706773.4642813,-62.5,64.453125,55.17578125,-64.94140625,-12.6953125
1771706773.4681876,-39.55078125,60.05859375,43.45703125,-46.875,13.671875
1771706773.4720938,-13.18359375,52.24609375,37.59765625,-11.23046875,45.41015625
1771706773.474125,0.0,53.7109375,38.0859375,4.39453125,105.95703125
1771706773.4780312,12.6953125,49.31640625,22.4609375,6.8359375,45.41015625
1771706773.4819374,27.83203125,46.875,12.6953125,20.5078125,33.69140625
1771706773.4858437,30.2734375,46.38671875,8.7890625,27.34375,122.0703125
1771706773.48975,36.62109375,34.66796875,0.48828125,35.64453125,84.47265625
1771706773.4936562,59.5703125,31.25,-12.20703125,48.33984375,-16.6015625
1771706773.4975624,62.98828125,25.390625,-14.6484375,58.10546875,-1.953125
1771706773.5014687,51.26953125,19.53125,-15.13671875,65.91796875,41.50390625
1771706773.505375,68.359375,20.01953125,-14.6484375,73.2421875,26.3671875
1771706773.5092812,85.44921875,18.5546875,-7.8125,75.1953125,19.53125
1771706773.5131874,80.078125,14.6484375,-11.23046875,80.078125,15.13671875
1771706773.5170937,79.1015625,14.16015625,-7.32421875,89.35546875,74.70703125
1771706773.519125,94.23828125,19.04296875,-4.39453125,93.26171875,110.3515625
1771706773.5230312,110.83984375,9.765625,-9.765625,94.7265625,57.12890625
1771706773.5269375,107.421875,1.46484375,-8.30078125,97.65625,34.66796875
1771706773.5308437,96.19140625,6.8359375,-6.34765625,103.515625,0.0
1771706773.53475,84.47265625,5.859375,-7.32421875,109.375,1.46484375
1771706773.5386562,89.84375,6.34765625,-3.41796875,117.1875,87.890625
1771706773.5425625,102.05078125,7.8125,0.9765625,119.62890625,28.80859375
1771706773.5464687,106.4453125,10.7421875,0.9765625,121.09375,-3.41796875
1771706773.550375,112.3046875,16.11328125,0.48828125,125.0,35.64453125
1771706773.5542812,115.234375,15.13671875,9.27734375,123.046875,43.45703125
1771706773.5581875,104.00390625,3.41796875,4.8828125,109.375,42.96875
1771706773.5620937,105.95703125,0.9765625,-1.953125,105.95703125,17.08984375
1771706773.564125,106.4453125,9.765625,3.90625,108.3984375,65.4296875
1771706773.5680313,105.95703125,7.8125,5.859375,111.81640625,97.16796875
1771706773.5719376,111.328125,4.8828125,3.41796875,106.4453125,43.9453125
1771706773.5758438,104.00390625,11.71875,7.8125,94.7265625,47.36328125
1771706773.57975,102.5390625,14.16015625,9.765625,93.75,1.46484375
1771706773.5836563,103.02734375,14.6484375,13.18359375,96.6796875,-16.6015625
1771706773.5875626,101.5625,18.06640625,15.625,104.00390625,13.671875
1771706773.5914688,104.00390625,14.16015625,13.671875,101.5625,-21.484375
1771706773.595375,104.98046875,9.27734375,15.13671875,102.05078125,-19.04296875
1771706773.5992813,95.703125,6.34765625,11.23046875,102.05078125,-2.9296875
1771706773.6031876,94.7265625,10.7421875,14.6484375,102.05078125,29.296875
1771706773.6070938,102.5390625,17.578125,22.4609375,101.5625,66.40625
1771706773.609125,102.5390625,16.6015625,16.6015625,100.09765625,38.57421875
1771706773.6130311,95.703125,13.18359375,15.625,102.05078125,-1.46484375
1771706773.6169374,97.16796875,18.5546875,22.4609375,96.19140625,-35.64453125
1771706773.6208436,105.46875,23.92578125,23.4375,90.33203125,-41.015625
1771706773.62475,103.02734375,18.5546875,16.11328125,83.0078125,9.765625
1771706773.6286561,98.14453125,20.01953125,13.671875,81.54296875,59.08203125
1771706773.6325624,94.23828125,19.53125,16.6015625,86.9140625,-2.44140625
1771706773.6364686,97.16796875,21.484375,20.01953125,86.42578125,-17.578125
1771706773.640375,101.07421875,23.4375,22.4609375,89.35546875,8.30078125
1771706773.6442811,99.609375,23.92578125,24.4140625,97.65625,39.0625
1771706773.6481874,90.8203125,25.390625,25.87890625,101.07421875,62.01171875
1771706773.6520936,82.51953125,23.4375,23.4375,96.6796875,18.06640625
1771706773.653125,88.37890625,24.90234375,25.390625,96.19140625,-3.90625
1771706773.6570313,88.37890625,20.5078125,26.3671875,91.30859375,35.15625
1771706773.6609375,90.33203125,19.53125,25.390625,84.47265625,57.12890625
1771706773.6648438,99.12109375,24.90234375,25.390625,85.9375,35.64453125
1771706773.66875,91.30859375,25.87890625,24.90234375,89.84375,21.97265625
1771706773.6726563,73.2421875,29.78515625,24.4140625,91.796875,43.45703125
1771706773.6765625,70.80078125,23.4375,27.34375,85.44921875,62.5
1771706773.6804688,70.3125,21.484375,33.69140625,85.9375,32.2265625
1771706773.684375,67.87109375,27.34375,32.71484375,87.890625,-1.953125
1771706773.6882813,67.3828125,25.390625,28.80859375,84.47265625,21.97265625
1771706773.6921875,71.77734375,25.87890625,30.76171875,84.9609375,18.06640625
1771706773.6960938,61.03515625,27.34375,31.73828125,84.47265625,30.2734375
1771706773.729125,60.05859375,26.3671875,31.25,78.61328125,59.5703125
1771706773.7330313,70.3125,26.85546875,26.85546875,81.0546875,11.23046875
1771706773.7369375,69.82421875,25.390625,28.3203125,80.078125,21.97265625
1771706773.7408438,67.87109375,25.390625,34.66796875,78.125,69.3359375
1771706773.74475,68.359375,24.90234375,36.62109375,78.61328125,46.38671875
1771706773.7486563,77.1484375,30.76171875,37.59765625,75.68359375,72.75390625
1771706773.7525625,74.21875,37.59765625,37.59765625,73.73046875,59.5703125
1771706773.7564688,68.359375,37.109375,37.109375,66.89453125,50.78125
1771706773.760375,61.5234375,32.2265625,30.2734375,62.01171875,60.546875
1771706773.7642813,58.10546875,31.73828125,31.25,63.96484375,-8.7890625
1771706773.7681875,58.10546875,31.25,39.0625,61.03515625,-37.109375
1771706773.7720938,54.6875,31.25,34.1796875,56.640625,-6.34765625
1771706773.758125,43.45703125,34.66796875,33.203125,54.6875,36.1328125
1771706773.7620313,33.69140625,33.203125,34.1796875,51.26953125,30.76171875
1771706773.7659376,40.52734375,37.109375,31.25,46.38671875,63.4765625
1771706773.7698438,40.0390625,42.96875,34.66796875,46.38671875,90.8203125
1771706773.77375,32.71484375,35.15625,38.0859375,49.8046875,72.75390625
1771706773.7776563,41.50390625,39.0625,40.0390625,53.22265625,48.33984375
1771706773.7815626,49.31640625,45.41015625,40.0390625,48.828125,7.32421875
1771706773.7854688,31.25,36.1328125,39.0625,37.59765625,34.1796875
1771706773.789375,28.3203125,35.64453125,41.015625,39.0625,64.453125
1771706773.7932813,32.71484375,43.45703125,42.48046875,39.55078125,-31.73828125
1771706773.7971876,28.3203125,47.8515625,43.9453125,34.1796875,-65.4296875
1771706773.8010938,29.296875,52.24609375,50.78125,36.1328125,45.8984375
1771706773.818125,19.04296875,43.9453125,50.78125,23.4375,58.59375
1771706773.8220313,7.32421875,50.78125,46.38671875,16.11328125,21.484375
1771706773.8259375,2.9296875,62.5,57.6171875,20.01953125,17.578125
1771706773.8298438,-3.90625,56.640625,61.03515625,18.06640625,57.12890625
1771706773.83375,-20.01953125,54.6875,50.29296875,3.90625,23.92578125
1771706773.8376563,-28.3203125,55.6640625,47.36328125,-12.6953125,23.4375
1771706773.8415625,-28.3203125,66.40625,58.10546875,-20.01953125,94.23828125
1771706773.8454688,-35.15625,77.1484375,62.98828125,-27.83203125,67.87109375
1771706773.849375,-55.17578125,77.63671875,54.6875,-47.36328125,45.41015625
1771706773.8532813,-69.3359375,88.37890625,60.546875,-63.4765625,43.45703125
1771706773.8571875,-80.078125,96.6796875,72.265625,-81.54296875,38.57421875
1771706773.8610938,-96.19140625,101.5625,77.63671875,-101.07421875,55.17578125
1771706773.849125,-117.1875,109.375,82.51953125,-119.62890625,52.24609375
1771706773.8530312,-141.6015625,106.93359375,89.35546875,-141.6015625,40.52734375
1771706773.8569374,-159.1796875,104.00390625,101.07421875,-156.25,31.25
1771706773.8608437,-168.45703125,110.3515625,106.4453125,-169.43359375,39.55078125
1771706773.86475,-164.55078125,116.2109375,107.421875,-180.17578125,27.34375
1771706773.8686562,-180.17578125,114.2578125,107.421875,-190.91796875,-38.57421875
1771706773.8725624,-200.68359375,116.2109375,116.2109375,-188.4765625,-38.57421875
1771706773.8764687,-191.40625,112.79296875,125.9765625,-182.12890625,26.85546875
1771706773.880375,-188.4765625,99.609375,123.046875,-176.7578125,62.98828125
1771706773.8842812,-193.359375,98.6328125,118.65234375,-178.22265625,49.31640625
1771706773.8881874,-186.03515625,102.5390625,113.28125,-178.22265625,10.7421875
1771706773.8920937,-174.31640625,93.26171875,105.46875,-167.96875,30.76171875
1771706773.895125,-158.203125,86.42578125,100.09765625,-155.76171875,62.01171875
1771706773.8990312,-137.6953125,85.44921875,97.16796875,-135.25390625,43.45703125
1771706773.9029374,-120.60546875,83.984375,90.33203125,-118.1640625,34.66796875
1771706773.9068437,-98.14453125,82.03125,81.54296875,-105.46875,26.3671875
1771706773.91075,-75.1953125,78.125,73.73046875,-85.44921875,50.78125
1771706773.9146562,-63.96484375,67.87109375,62.01171875,-66.89453125,42.96875
1771706773.9185624,-53.7109375,65.91796875,50.78125,-46.875,22.94921875
1771706773.9224687,-41.9921875,68.359375,52.24609375,-24.90234375,20.5078125
1771706773.926375,-22.4609375,56.15234375,48.828125,-4.8828125,-3.90625
1771706773.9302812,-6.34765625,38.57421875,40.52734375,16.11328125,36.62109375
1771706773.9341874,12.20703125,35.64453125,26.85546875,23.4375,67.87109375
1771706773.9380937,37.109375,41.015625,16.11328125,31.73828125,46.38671875
1771706773.939125,55.17578125,41.9921875,15.13671875,49.31640625,21.97265625
1771706773.9430313,69.82421875,34.66796875,11.23046875,64.453125,32.2265625
1771706773.9469376,68.359375,27.34375,3.41796875,67.87109375,52.734375
1771706773.9508438,68.84765625,16.6015625,-10.25390625,71.77734375,-3.90625
1771706773.95475,88.37890625,13.671875,-14.6484375,88.37890625,-25.87890625
1771706773.9586563,97.16796875,16.6015625,-8.30078125,96.19140625,16.6015625
1771706773.9625626,96.19140625,6.34765625,-10.25390625,96.6796875,10.7421875
1771706773.9664688,101.5625,-2.44140625,-10.7421875,103.515625,25.87890625
1771706773.970375,104.00390625,-0.48828125,-5.859375,111.328125,2.9296875
1771706773.9742813,120.1171875,7.8125,-5.37109375,120.1171875,-18.5546875
1771706773.9781876,131.34765625,8.30078125,-3.41796875,130.859375,-10.7421875
1771706773.9820938,125.0,4.39453125,-8.30078125,129.8828125,12.6953125
1771706773.984125,128.41796875,6.34765625,-11.71875,131.34765625,-7.8125
1771706773.9880311,132.8125,2.9296875,-12.20703125,127.9296875,-18.06640625
1771706773.9919374,129.8828125,3.41796875,-8.30078125,120.1171875,6.34765625
1771706773.9958436,121.09375,4.8828125,-3.90625,121.09375,28.3203125
1771706773.99975,116.2109375,1.46484375,-3.90625,126.953125,31.25
1771706774.0036561,118.1640625,1.953125,0.0,130.859375,41.015625
1771706774.0075624,120.60546875,1.46484375,-0.9765625,123.046875,59.5703125
1771706774.0114686,126.953125,0.48828125,1.46484375,117.1875,23.4375
1771706774.015375,123.046875,0.9765625,6.34765625,119.140625,60.546875
1771706774.0192811,113.28125,2.44140625,7.32421875,119.140625,61.5234375
1771706774.0231874,119.140625,4.8828125,9.27734375,123.53515625,21.484375
1771706774.0270936,120.1171875,6.8359375,6.34765625,124.0234375,61.03515625
1771706774.074125,115.72265625,9.27734375,4.39453125,118.65234375,49.8046875
1771706774.0780313,120.1171875,6.34765625,7.32421875,124.0234375,46.875
1771706774.0819376,121.09375,5.37109375,8.30078125,124.51171875,35.15625
1771706774.0858438,124.0234375,9.765625,6.8359375,119.140625,69.82421875
1771706774.08975,120.1171875,11.23046875,7.8125,121.09375,90.33203125
1771706774.0936563,99.609375,10.7421875,11.23046875,122.55859375,18.06640625
1771706774.0975626,95.21484375,16.6015625,10.7421875,119.62890625,18.5546875
1771706774.1014688,97.65625,25.390625,12.20703125,117.67578125,61.03515625
1771706774.105375,93.26171875,22.4609375,12.6953125,115.72265625,36.1328125
1771706774.1092813,94.23828125,12.6953125,13.18359375,109.375,51.7578125
1771706774.1131876,99.12109375,8.7890625,14.6484375,105.46875,79.58984375
1771706774.1170938,98.6328125,13.671875,18.5546875,100.09765625,41.50390625
1771706774.078125,98.14453125,20.01953125,20.01953125,93.75,23.92578125
1771706774.0820312,96.19140625,18.06640625,15.625,95.21484375,27.34375
1771706774.0859375,95.703125,20.01953125,18.5546875,99.12109375,-6.8359375
1771706774.0898438,102.05078125,25.87890625,22.4609375,99.12109375,10.25390625
1771706774.09375,100.09765625,27.34375,18.06640625,97.65625,57.12890625
1771706774.0976562,89.84375,20.99609375,18.06640625,91.796875,67.87109375
1771706774.1015625,93.75,17.08984375,15.625,90.8203125,43.45703125
1771706774.1054688,95.703125,17.578125,12.20703125,88.8671875,27.34375
1771706774.109375,82.51953125,19.04296875,21.97265625,80.56640625,29.296875
1771706774.1132812,66.89453125,22.4609375,25.390625,71.77734375,22.94921875
1771706774.1171875,75.1953125,22.94921875,22.94921875,73.73046875,9.27734375
1771706774.1210938,77.1484375,20.99609375,24.90234375,82.03125,9.765625
1771706774.135125,61.5234375,22.4609375,28.80859375,77.1484375,-0.48828125
1771706774.1390312,62.01171875,24.4140625,22.94921875,72.75390625,53.7109375
1771706774.1429374,60.546875,19.53125,20.5078125,69.3359375,61.5234375
1771706774.1468437,59.08203125,17.08984375,22.94921875,61.03515625,-2.9296875
1771706774.15075,57.12890625,18.06640625,22.94921875,60.05859375,-3.41796875
1771706774.1546562,61.5234375,23.4375,32.71484375,65.91796875,36.1328125
1771706774.1585624,59.08203125,26.3671875,32.71484375,62.01171875,96.6796875
1771706774.1624687,54.6875,29.78515625,30.2734375,58.10546875,90.33203125
1771706774.166375,60.546875,28.80859375,27.83203125,57.6171875,11.71875
1771706774.1702812,55.6640625,23.4375,26.3671875,54.6875,-6.34765625
1771706774.1741874,45.41015625,23.4375,26.85546875,53.22265625,3.90625
1771706774.1780937,37.59765625,26.85546875,25.87890625,59.08203125,23.4375
1771706774.179125,45.41015625,27.83203125,25.390625,61.5234375,57.12890625
1771706774.1830313,53.22265625,28.3203125,22.4609375,52.734375,40.0390625
1771706774.1869376,56.15234375,32.2265625,23.92578125,51.26953125,58.59375
1771706774.1908438,59.5703125,32.71484375,27.83203125,55.17578125,119.62890625
1771706774.19475,62.01171875,25.87890625,28.3203125,53.7109375,99.609375
1771706774.1986563,56.640625,25.87890625,24.4140625,57.12890625,72.75390625
1771706774.2025626,44.921875,26.85546875,21.97265625,52.24609375,9.765625
1771706774.2064688,43.45703125,26.85546875,28.80859375,50.78125,10.25390625
1771706774.210375,49.31640625,35.15625,36.1328125,57.6171875,40.0390625
1771706774.2142813,53.7109375,41.015625,30.76171875,49.8046875,49.8046875
1771706774.2181876,58.10546875,33.203125,30.76171875,45.8984375,35.15625
1771706774.2220938,55.6640625,26.85546875,30.2734375,50.78125,-36.1328125
1771706774.224125,54.6875,31.73828125,27.83203125,50.78125,22.4609375
1771706774.2280312,59.08203125,33.203125,30.76171875,58.10546875,83.49609375
1771706774.2319374,56.640625,32.71484375,35.15625,56.640625,15.13671875
1771706774.2358437,49.8046875,30.76171875,30.2734375,46.38671875,-4.8828125
1771706774.23975,52.734375,29.78515625,29.296875,48.33984375,5.37109375
1771706774.2436562,57.6171875,33.203125,32.2265625,54.6875,8.7890625
1771706774.2475624,42.48046875,33.69140625,27.83203125,53.7109375,47.36328125
1771706774.2514687,34.66796875,31.73828125,30.2734375,49.31640625,55.6640625
1771706774.255375,38.0859375,30.76171875,37.109375,46.875,36.1328125
1771706774.2592812,40.0390625,33.69140625,31.25,45.8984375,26.3671875
1771706774.2631874,39.55078125,34.1796875,31.73828125,52.734375,9.27734375
1771706774.2670937,41.015625,34.66796875,35.15625,53.7109375,19.04296875
1771706774.284125,42.96875,34.1796875,28.3203125,49.31640625,20.5078125
1771706774.2880313,44.43359375,29.296875,26.85546875,48.828125,45.41015625
1771706774.2919376,51.7578125,30.76171875,27.34375,45.41015625,32.2265625
1771706774.2958438,50.78125,32.71484375,25.390625,44.43359375,14.16015625
1771706774.29975,42.96875,31.73828125,31.25,43.9453125,51.7578125
1771706774.3036563,33.203125,32.71484375,38.0859375,40.52734375,52.24609375
1771706774.3075626,36.62109375,37.109375,40.0390625,42.48046875,76.171875
1771706774.3114688,36.62109375,36.1328125,39.0625,33.69140625,49.8046875
1771706774.315375,28.80859375,38.0859375,33.69140625,24.4140625,44.43359375
1771706774.3192813,33.203125,40.52734375,32.71484375,28.3203125,36.1328125
1771706774.3231876,48.33984375,39.55078125,32.71484375,31.25,40.0390625
1771706774.3270938,50.29296875,42.96875,31.25,30.2734375,27.83203125
1771706774.314125,39.0625,43.45703125,31.25,30.2734375,22.4609375
1771706774.3180313,35.15625,39.0625,31.73828125,34.66796875,55.6640625
1771706774.3219376,45.41015625,43.45703125,36.1328125,36.62109375,14.6484375
1771706774.3258438,50.78125,46.38671875,36.1328125,35.15625,29.296875
1771706774.32975,39.55078125,39.0625,30.2734375,29.296875,29.296875
1771706774.3336563,35.64453125,38.57421875,34.1796875,29.296875,-15.13671875
1771706774.3375626,40.0390625,38.0859375,34.66796875,34.66796875,5.37109375
1771706774.3414688,40.52734375,31.73828125,30.76171875,35.15625,-16.11328125
1771706774.345375,33.203125,30.2734375,28.3203125,32.71484375,24.4140625
1771706774.3492813,27.34375,30.76171875,31.25,32.71484375,52.24609375
1771706774.3531876,33.203125,30.76171875,36.1328125,35.15625,19.53125
1771706774.3570938,41.50390625,35.15625,34.66796875,33.203125,45.8984375
1771706774.374125,38.0859375,42.48046875,35.64453125,34.66796875,36.1328125
1771706774.3780313,33.203125,37.109375,35.15625,40.0390625,-4.8828125
1771706774.3819375,31.73828125,33.203125,32.2265625,41.015625,13.671875
1771706774.3858438,27.34375,30.76171875,35.15625,41.50390625,32.2265625
1771706774.38975,31.73828125,31.25,39.0625,41.9921875,83.984375
1771706774.3936563,33.203125,34.66796875,37.109375,36.62109375,69.3359375
1771706774.3975625,31.25,33.203125,32.71484375,37.109375,41.9921875
1771706774.4014688,41.50390625,33.69140625,33.69140625,47.8515625,33.69140625
1771706774.405375,41.015625,38.57421875,31.73828125,42.48046875,22.4609375
1771706774.4092813,29.296875,37.59765625,35.64453125,35.15625,32.71484375
1771706774.4131875,39.55078125,35.15625,41.015625,37.59765625,-4.39453125
1771706774.4170938,42.48046875,35.64453125,35.15625,32.71484375,21.97265625
1771706774.419125,37.109375,30.76171875,34.1796875,31.25,22.94921875
1771706774.4230313,37.59765625,33.203125,29.296875,35.15625,5.37109375
1771706774.4269376,31.25,38.0859375,27.83203125,35.15625,74.70703125
1771706774.4308438,33.203125,37.109375,29.296875,36.1328125,59.5703125
1771706774.43475,42.96875,41.9921875,33.69140625,35.64453125,8.30078125
1771706774.4386563,42.96875,43.45703125,35.64453125,26.85546875,6.34765625
1771706774.4425626,32.71484375,40.0390625,29.296875,23.4375,36.1328125
1771706774.4464688,26.3671875,41.50390625,32.2265625,26.3671875,79.58984375
1771706774.450375,26.3671875,38.57421875,32.2265625,27.83203125,53.7109375
1771706774.4542813,26.3671875,34.66796875,24.4140625,23.92578125,26.85546875
1771706774.4581876,17.578125,35.64453125,32.71484375,20.99609375,9.27734375
1771706774.4620938,9.765625,34.1796875,40.52734375,26.3671875,24.4140625
1771706774.465125,23.92578125,31.25,34.1796875,27.34375,43.45703125
1771706774.4690313,38.0859375,34.1796875,32.71484375,31.25,23.92578125
1771706774.4729376,37.59765625,36.62109375,39.0625,32.2265625,3.90625
1771706774.4768438,42.48046875,36.1328125,36.62109375,33.69140625,-0.48828125
1771706774.48075,40.52734375,35.64453125,33.69140625,40.52734375,29.78515625
1771706774.4846563,39.55078125,38.0859375,40.52734375,43.45703125,79.1015625
1771706774.4885626,38.57421875,42.48046875,36.1328125,38.57421875,58.10546875
1771706774.4924688,21.484375,39.0625,27.34375,26.85546875,53.22265625
1771706774.496375,23.4375,33.69140625,28.80859375,21.97265625,83.984375
1771706774.5002813,23.92578125,28.80859375,29.78515625,19.53125,37.109375
1771706774.5041876,17.578125,29.78515625,35.15625,22.94921875,22.94921875
1771706774.5080938,27.83203125,36.1328125,37.59765625,32.71484375,41.015625
1771706774.513125,39.0625,38.0859375,37.109375,35.64453125,25.390625
1771706774.5170312,44.43359375,43.9453125,37.109375,37.59765625,6.8359375
1771706774.5209374,45.41015625,43.45703125,31.73828125,32.71484375,-12.20703125
1771706774.5248437,34.1796875,28.3203125,29.78515625,24.4140625,31.73828125
1771706774.52875,26.3671875,24.4140625,31.25,22.4609375,-0.48828125
1771706774.5326562,24.4140625,25.87890625,26.85546875,22.4609375,-17.08984375
1771706774.5365624,27.34375,27.34375,25.390625,21.97265625,23.92578125
1771706774.5404687,30.2734375,32.2265625,33.69140625,19.04296875,14.6484375
1771706774.544375,32.71484375,36.1328125,37.109375,21.97265625,39.55078125
1771706774.5482812,41.9921875,36.62109375,33.69140625,22.4609375,39.0625
1771706774.5521874,44.921875,38.57421875,35.15625,28.80859375,61.03515625
1771706774.5560937,26.85546875,36.62109375,34.66796875,32.71484375,53.7109375
1771706774.555125,9.27734375,31.73828125,30.76171875,27.83203125,5.37109375
1771706774.5590312,15.625,33.203125,31.73828125,28.80859375,26.3671875
1771706774.5629375,25.390625,39.55078125,32.71484375,27.34375,-15.13671875
1771706774.5668437,23.4375,39.55078125,37.109375,23.92578125,-9.765625
1771706774.57075,25.87890625,37.59765625,36.62109375,24.4140625,36.62109375
1771706774.5746562,30.76171875,41.9921875,30.76171875,26.85546875,58.59375
1771706774.5785625,32.71484375,41.015625,32.2265625,29.296875,32.71484375
1771706774.5824687,33.69140625,39.55078125,37.59765625,28.3203125,46.38671875
1771706774.586375,25.390625,37.109375,34.1796875,23.92578125,62.5
1771706774.5902812,28.80859375,39.55078125,33.69140625,25.390625,23.92578125
1771706774.5941875,34.66796875,43.9453125,36.62109375,23.92578125,28.3203125
1771706774.5980937,31.25,36.62109375,32.71484375,20.99609375,18.5546875
1771706774.599125,33.203125,41.50390625,33.203125,23.4375,40.0390625
1771706774.6030312,40.0390625,45.41015625,30.2734375,23.92578125,12.20703125
1771706774.6069374,38.0859375,38.0859375,26.85546875,22.94921875,-36.1328125
1771706774.6108437,32.71484375,35.64453125,32.2265625,24.4140625,28.3203125
1771706774.61475,38.0859375,39.55078125,33.69140625,28.80859375,93.75
1771706774.6186562,43.45703125,42.48046875,32.2265625,33.203125,69.82421875
1771706774.6225624,39.55078125,36.1328125,37.109375,36.62109375,50.29296875
1771706774.6264687,34.66796875,31.25,40.0390625,39.55078125,21.484375
1771706774.630375,35.64453125,34.1796875,39.0625,37.109375,-15.13671875
1771706774.6342812,35.15625,34.1796875,36.1328125,29.296875,1.46484375
1771706774.6381874,26.3671875,30.2734375,36.62109375,32.2265625,-6.8359375
1771706774.6420937,27.83203125,34.1796875,35.64453125,36.62109375,16.11328125
1771706774.644125,48.33984375,42.96875,32.2265625,34.66796875,7.8125
1771706774.6480312,45.41015625,41.015625,34.1796875,26.85546875,32.2265625
1771706774.6519375,33.69140625,36.62109375,31.25,19.04296875,85.44921875
1771706774.6558437,36.1328125,41.9921875,32.2265625,24.4140625,21.484375
1771706774.65975,24.4140625,37.59765625,36.1328125,24.90234375,26.3671875
1771706774.6636562,22.4609375,27.83203125,34.66796875,27.83203125,68.359375
1771706774.6675625,24.90234375,33.203125,34.66796875,28.80859375,54.19921875
1771706774.6714687,33.69140625,35.64453125,35.64453125,36.1328125,55.6640625
1771706774.675375,51.26953125,34.1796875,33.69140625,43.9453125,67.3828125
1771706774.6792812,40.52734375,42.48046875,29.296875,25.390625,36.1328125
1771706774.6831875,20.01953125,45.41015625,29.296875,12.20703125,-8.7890625
1771706774.6870937,17.08984375,40.52734375,26.3671875,8.30078125,-8.7890625
1771706774.689125,24.90234375,40.0390625,26.3671875,7.32421875,40.52734375
1771706774.6930313,19.04296875,42.48046875,31.25,0.0,-10.7421875
1771706774.6969376,12.20703125,39.55078125,32.2265625,-0.48828125,-9.27734375
1771706774.7008438,12.20703125,37.109375,41.9921875,22.4609375,28.3203125
1771706774.70475,15.13671875,38.0859375,42.48046875,25.390625,31.73828125
1771706774.7086563,17.08984375,38.0859375,32.71484375,20.5078125,86.42578125
1771706774.7125626,19.53125,36.62109375,30.76171875,20.5078125,50.29296875
1771706774.7164688,20.01953125,33.69140625,31.73828125,14.6484375,54.6875
1771706774.720375,10.7421875,36.1328125,33.203125,16.11328125,38.0859375
1771706774.7242813,18.06640625,40.0390625,35.15625,20.99609375,-18.5546875
1771706774.7281876,24.90234375,41.015625,34.66796875,20.99609375,44.43359375
1771706774.7320938,16.6015625,36.62109375,35.64453125,21.484375,81.54296875
1771706774.734125,21.484375,35.15625,37.59765625,30.2734375,51.26953125
1771706774.7380311,33.69140625,39.55078125,38.57421875,36.1328125,50.29296875
1771706774.7419374,23.92578125,35.64453125,34.1796875,30.76171875,76.66015625
1771706774.7458436,21.484375,32.71484375,29.78515625,28.3203125,61.5234375
1771706774.74975,26.85546875,31.73828125,28.80859375,30.76171875,14.6484375
1771706774.7536561,24.4140625,32.2265625,26.3671875,32.71484375,-16.11328125
1771706774.7575624,26.85546875,36.62109375,22.4609375,28.3203125,16.11328125
1771706774.7614686,25.390625,35.64453125,30.2734375,19.04296875,25.390625
1771706774.765375,21.484375,37.59765625,33.203125,18.5546875,0.9765625
1771706774.7692811,24.90234375,44.921875,34.66796875,23.92578125,3.90625
1771706774.7731874,23.92578125,40.52734375,33.69140625,19.04296875,33.69140625
1771706774.7770936,19.04296875,32.71484375,29.78515625,15.13671875,61.5234375
1771706774.794125,24.90234375,34.66796875,29.78515625,28.3203125,14.6484375
1771706774.7980313,24.90234375,34.66796875,33.69140625,34.1796875,67.87109375
1771706774.8019376,26.85546875,35.15625,35.64453125,31.25,74.70703125
1771706774.8058438,25.390625,38.57421875,32.2265625,28.3203125,1.953125
1771706774.80975,18.06640625,36.62109375,34.1796875,29.296875,14.16015625
1771706774.8136563,19.04296875,32.71484375,35.64453125,35.64453125,-20.01953125
1771706774.8175626,26.3671875,36.62109375,34.1796875,31.73828125,0.9765625
1771706774.8214688,21.484375,41.9921875,33.69140625,25.87890625,66.89453125
1771706774.825375,20.5078125,38.0859375,33.69140625,30.2734375,81.0546875
1771706774.8292813,25.390625,36.1328125,35.15625,37.109375,81.54296875
1771706774.8331876,35.64453125,39.0625,32.71484375,36.1328125,45.8984375
1771706774.8370938,46.38671875,40.52734375,28.80859375,28.80859375,33.203125
1771706774.839125,29.296875,39.0625,26.3671875,23.4375,25.87890625
1771706774.8430312,20.5078125,38.0859375,31.25,26.3671875,-28.3203125
1771706774.8469374,26.3671875,39.55078125,34.1796875,27.34375,-27.83203125
1771706774.8508437,22.4609375,41.015625,33.203125,14.6484375,40.52734375
1771706774.85475,13.671875,41.015625,35.64453125,10.25390625,81.54296875
1771706774.8586562,8.30078125,36.1328125,36.1328125,16.6015625,40.0390625
1771706774.8625624,13.18359375,32.71484375,33.69140625,17.578125,19.53125
1771706774.8664687,21.484375,33.69140625,35.15625,20.5078125,2.9296875
1771706774.870375,23.4375,37.59765625,35.15625,23.92578125,-7.32421875
1771706774.8742812,31.73828125,37.109375,31.25,24.4140625,19.53125
1771706774.8781874,37.59765625,34.1796875,30.76171875,27.34375,-3.90625
1771706774.8820937,40.0390625,36.62109375,34.1796875,37.109375,-38.0859375
1771706774.885125,41.015625,37.109375,32.2265625,39.0625,-46.875
1771706774.8890312,38.0859375,40.52734375,30.2734375,39.55078125,-13.671875
1771706774.8929374,36.1328125,48.33984375,33.203125,42.48046875,7.32421875
1771706774.8968437,37.109375,47.36328125,38.0859375,46.875,24.90234375
1771706774.90075,45.8984375,43.9453125,41.015625,53.7109375,64.453125
1771706774.9046562,43.45703125,41.015625,34.66796875,51.26953125,41.9921875
1771706774.9085624,34.66796875,35.64453125,31.73828125,41.9921875,12.20703125
1771706774.9124687,31.73828125,30.76171875,35.64453125,37.59765625,9.765625
1771706774.916375,30.76171875,31.25,38.57421875,31.25,19.04296875
1771706774.9202812,37.59765625,38.57421875,39.55078125,24.4140625,46.38671875
1771706774.9241874,39.55078125,39.0625,39.55078125,27.83203125,23.92578125
1771706774.9280937,40.52734375,41.015625,38.0859375,34.1796875,62.01171875
1771706774.929125,42.96875,41.50390625,38.0859375,39.55078125,67.3828125
1771706774.9330313,42.48046875,35.15625,40.0390625,36.62109375,-8.30078125
1771706774.9369376,35.64453125,34.66796875,32.71484375,30.76171875,6.34765625
1771706774.9408438,28.80859375,34.1796875,25.390625,28.80859375,46.38671875
1771706774.94475,31.25,33.203125,30.2734375,30.2734375,39.0625
1771706774.9486563,33.69140625,33.69140625,35.64453125,34.1796875,19.04296875
1771706774.9525626,26.85546875,32.71484375,37.59765625,30.76171875,42.48046875
1771706774.9564688,22.94921875,36.62109375,34.66796875,24.90234375,44.43359375
1771706774.960375,30.2734375,35.15625,34.66796875,23.92578125,72.265625
1771706774.9642813,35.15625,34.1796875,37.109375,26.3671875,63.4765625
1771706774.9681876,28.3203125,41.50390625,34.66796875,30.2734375,14.6484375
1771706774.9720938,23.92578125,46.38671875,33.203125,31.73828125,43.9453125
1771706774.974125,35.64453125,43.45703125,32.71484375,31.25,51.7578125
1771706774.9780312,35.15625,41.9921875,29.78515625,28.80859375,31.73828125
1771706774.9819374,28.80859375,43.45703125,33.203125,27.83203125,63.4765625
1771706774.9858437,33.69140625,42.48046875,33.69140625,27.34375,62.98828125
1771706774.98975,37.59765625,40.0390625,33.203125,29.78515625,7.32421875
1771706774.9936562,46.38671875,38.57421875,38.57421875,32.2265625,-54.19921875
1771706774.9975624,49.31640625,41.9921875,39.55078125,32.2265625,20.01953125
1771706775.0014687,43.9453125,43.9453125,39.0625,32.2265625,59.08203125
1771706775.005375,30.76171875,45.8984375,31.73828125,26.85546875,30.2734375
1771706775.0092812,31.25,45.8984375,28.80859375,30.76171875,60.05859375
1771706775.0131874,32.71484375,38.57421875,34.1796875,33.69140625,66.89453125
1771706775.0170937,33.203125,36.62109375,38.0859375,33.69140625,27.83203125
1771706775.019125,34.1796875,33.203125,40.52734375,34.66796875,-20.5078125
1771706775.0230312,34.1796875,32.2265625,41.9921875,35.64453125,-23.4375
1771706775.0269375,35.64453125,38.57421875,40.0390625,33.203125,63.96484375
1771706775.0308437,34.1796875,35.64453125,36.1328125,27.34375,64.94140625
1771706775.03475,23.92578125,36.62109375,33.69140625,24.4140625,16.11328125
1771706775.0386562,22.4609375,40.52734375,34.1796875,23.4375,-4.39453125
1771706775.0425625,31.73828125,41.50390625,32.2265625,22.94921875,2.9296875
1771706775.0464687,27.83203125,38.57421875,26.3671875,18.06640625,22.4609375
1771706775.050375,23.4375,34.66796875,29.78515625,13.18359375,-12.6953125
1771706775.0542812,28.80859375,36.1328125,33.69140625,16.11328125,11.23046875
1771706775.0581875,33.203125,38.0859375,33.69140625,20.5078125,40.52734375
1771706775.0620937,26.3671875,41.015625,33.69140625,19.53125,58.10546875
1771706775.064125,17.578125,43.45703125,34.66796875,20.01953125,54.19921875
1771706775.0680313,20.99609375,41.9921875,33.203125,21.484375,83.0078125
1771706775.0719376,29.296875,41.50390625,32.2265625,16.6015625,93.75
1771706775.0758438,33.203125,46.38671875,30.76171875,13.18359375,64.94140625
1771706775.07975,30.76171875,44.43359375,25.87890625,8.30078125,70.80078125
1771706775.0836563,29.296875,41.9921875,27.34375,14.16015625,51.7578125
1771706775.0875626,34.1796875,39.55078125,31.25,20.01953125,93.75
1771706775.0914688,41.9921875,41.9921875,30.76171875,23.4375,75.68359375
1771706775.095375,44.921875,45.41015625,34.1796875,34.66796875,22.94921875
1771706775.0992813,32.71484375,36.62109375,43.45703125,33.69140625,63.4765625
1771706775.1031876,21.484375,28.3203125,45.41015625,30.2734375,79.58984375
1771706775.1070938,26.85546875,35.64453125,45.8984375,33.69140625,68.84765625
1771706775.109125,31.73828125,39.0625,42.96875,31.73828125,30.76171875
1771706775.1130311,28.80859375,37.59765625,30.76171875,29.296875,-7.32421875
1771706775.1169374,36.62109375,40.52734375,27.34375,34.1796875,-21.484375
1771706775.1208436,39.0625,41.50390625,33.69140625,39.55078125,0.48828125
1771706775.12475,30.2734375,38.0859375,37.109375,35.64453125,15.13671875
1771706775.1286561,34.66796875,34.66796875,38.0859375,38.57421875,55.6640625
1771706775.1325624,45.41015625,35.64453125,40.52734375,43.9453125,54.19921875
1771706775.1364686,44.921875,38.57421875,38.57421875,40.52734375,48.33984375
1771706775.140375,44.921875,38.57421875,37.59765625,42.48046875,31.25
1771706775.1442811,41.9921875,37.59765625,37.109375,43.9453125,29.296875
1771706775.1481874,32.2265625,34.66796875,37.59765625,41.9921875,90.33203125
1771706775.1520936,32.71484375,36.62109375,41.50390625,40.0390625,55.17578125
1771706775.154125,39.55078125,38.0859375,35.15625,37.59765625,22.4609375
1771706775.1580312,41.50390625,39.55078125,36.1328125,34.1796875,72.265625
1771706775.1619375,32.2265625,40.52734375,40.52734375,37.109375,39.55078125
1771706775.1658437,27.34375,39.55078125,38.0859375,39.0625,14.16015625
1771706775.16975,35.15625,42.48046875,38.0859375,40.0390625,11.23046875
1771706775.1736562,35.64453125,40.0390625,38.0859375,41.50390625,-16.11328125
1771706775.1775625,32.71484375,38.0859375,34.66796875,35.15625,23.92578125
1771706775.1814687,34.1796875,37.109375,34.66796875,34.66796875,1.46484375
1771706775.185375,33.203125,35.64453125,35.15625,33.69140625,-7.8125
1771706775.1892812,26.3671875,34.66796875,37.59765625,23.92578125,20.01953125
1771706775.1931875,20.01953125,33.69140625,40.0390625,16.6015625,45.41015625
1771706775.1970937,21.97265625,41.015625,37.59765625,24.4140625,42.48046875
1771706775.214125,25.87890625,44.43359375,31.73828125,25.87890625,43.9453125
1771706775.2180312,29.296875,37.109375,27.83203125,23.92578125,27.34375
1771706775.2219374,25.87890625,32.71484375,29.296875,21.484375,-34.66796875
1771706775.2258437,27.83203125,37.59765625,35.15625,20.5078125,-25.390625
1771706775.22975,32.2265625,39.55078125,38.57421875,29.296875,9.765625
1771706775.2336562,31.73828125,32.71484375,38.57421875,28.80859375,-18.5546875
1771706775.2375624,32.71484375,31.25,36.1328125,25.87890625,-42.96875
1771706775.2414687,25.390625,36.1328125,35.64453125,29.296875,6.34765625
1771706775.245375,16.11328125,36.1328125,34.66796875,27.34375,116.2109375
1771706775.2492812,17.08984375,37.59765625,25.87890625,22.4609375,49.31640625
1771706775.2531874,20.01953125,36.1328125,22.4609375,25.390625,-39.0625
1771706775.2570937,26.3671875,36.1328125,30.76171875,32.71484375,49.31640625
1771706775.259125,32.71484375,37.109375,38.0859375,29.78515625,61.5234375
1771706775.2630312,36.62109375,37.59765625,37.59765625,30.2734375,69.3359375
1771706775.2669375,45.41015625,41.50390625,39.55078125,41.015625,53.7109375
1771706775.2708437,40.52734375,41.015625,38.57421875,38.57421875,24.4140625
1771706775.27475,36.62109375,40.52734375,34.1796875,37.109375,7.32421875
1771706775.2786562,38.0859375,43.9453125,36.1328125,37.109375,9.765625
1771706775.2825625,37.109375,41.9921875,36.1328125,31.25,78.125
1771706775.2864687,34.1796875,40.0390625,38.57421875,33.203125,79.58984375
1771706775.290375,35.64453125,38.57421875,41.50390625,35.64453125,93.75
1771706775.2942812,44.43359375,37.109375,34.66796875,32.2265625,93.26171875
1771706775.2981875,40.52734375,38.0859375,30.2734375,28.3203125,113.76953125
1771706775.3020937,29.78515625,38.0859375,34.1796875,29.78515625,119.62890625
1771706775.305125,27.83203125,40.52734375,41.015625,33.203125,75.1953125
1771706775.3090312,29.78515625,42.96875,35.15625,29.78515625,70.80078125
1771706775.3129375,29.78515625,36.1328125,34.1796875,29.296875,20.99609375
1771706775.3168437,27.83203125,39.0625,39.0625,29.78515625,34.1796875
1771706775.32075,19.53125,42.48046875,33.69140625,17.578125,64.94140625
1771706775.3246562,14.6484375,37.59765625,34.66796875,10.25390625,46.38671875
1771706775.3285625,17.08984375,39.55078125,39.55078125,9.765625,24.4140625
1771706775.3324687,10.7421875,42.96875,41.015625,8.30078125,18.5546875
1771706775.336375,13.18359375,43.9453125,45.8984375,9.765625,8.7890625
1771706775.3402812,13.671875,46.875,49.8046875,12.6953125,-2.9296875
1771706775.3441875,4.8828125,48.828125,51.26953125,6.34765625,-22.94921875
1771706775.3480937,-5.859375,48.828125,52.24609375,-7.8125,-10.25390625
1771706775.349125,-20.99609375,44.921875,45.8984375,-19.53125,22.94921875
1771706775.3530312,-22.94921875,52.734375,43.9453125,-17.08984375,43.9453125
1771706775.3569374,-20.01953125,57.6171875,49.31640625,-15.13671875,39.55078125
1771706775.3608437,-19.04296875,52.734375,53.7109375,-23.4375,41.9921875
1771706775.36475,-26.3671875,56.640625,58.10546875,-28.80859375,56.15234375
1771706775.3686562,-42.48046875,62.98828125,55.17578125,-36.62109375,13.671875
1771706775.3725624,-60.05859375,69.82421875,51.26953125,-52.734375,43.45703125
1771706775.3764687,-54.6875,81.0546875,58.10546875,-58.10546875,62.01171875
1771706775.380375,-70.80078125,82.03125,59.08203125,-77.1484375,9.27734375
1771706775.3842812,-92.28515625,84.47265625,59.08203125,-94.7265625,39.0625
1771706775.3881874,-96.6796875,99.12109375,65.91796875,-93.75,34.1796875
1771706775.3920937,-112.3046875,108.3984375,72.75390625,-109.86328125,-46.38671875
1771706775.394125,-128.90625,112.3046875,73.2421875,-130.859375,-8.30078125
1771706775.3980312,-149.4140625,113.28125,77.1484375,-142.578125,28.3203125
1771706775.4019375,-167.48046875,115.234375,84.47265625,-153.3203125,13.18359375
1771706775.4058437,-177.24609375,120.1171875,88.8671875,-165.0390625,37.59765625
1771706775.40975,-180.6640625,115.72265625,96.6796875,-170.8984375,82.51953125
1771706775.4136562,-174.8046875,117.1875,100.09765625,-174.31640625,57.12890625
1771706775.4175625,-177.734375,121.09375,98.6328125,-176.7578125,19.04296875
1771706775.4214687,-185.546875,111.328125,96.6796875,-172.8515625,53.7109375
1771706775.425375,-175.78125,105.46875,87.40234375,-166.9921875,63.96484375
1771706775.4292812,-165.0390625,108.3984375,82.51953125,-156.73828125,39.55078125
1771706775.4331875,-158.203125,102.5390625,83.49609375,-148.4375,24.4140625
1771706775.4370937,-140.625,90.8203125,79.1015625,-137.6953125,42.48046875
1771706775.439125,-119.62890625,88.37890625,69.82421875,-120.60546875,29.296875
1771706775.4430313,-105.46875,87.890625,61.5234375,-103.02734375,23.92578125
1771706775.4469376,-90.8203125,77.63671875,53.7109375,-84.47265625,21.484375
1771706775.4508438,-70.3125,67.3828125,43.9453125,-66.89453125,12.6953125
1771706775.45475,-45.8984375,65.91796875,37.109375,-48.828125,-27.34375
1771706775.4586563,-27.83203125,59.5703125,28.80859375,-31.25,14.6484375
1771706775.4625626,-10.7421875,56.640625,21.484375,-13.18359375,82.51953125
1771706775.4664688,0.48828125,53.7109375,18.5546875,-3.90625,9.27734375
1771706775.470375,9.27734375,46.875,11.23046875,4.8828125,20.99609375
1771706775.4742813,25.390625,42.48046875,6.34765625,20.99609375,64.94140625
1771706775.4781876,37.59765625,32.2265625,8.30078125,36.62109375,-20.01953125
1771706775.4820938,49.31640625,25.390625,10.7421875,53.22265625,-10.25390625
1771706775.483125,61.5234375,17.578125,10.25390625,67.87109375,58.10546875
1771706775.4870312,81.0546875,12.20703125,6.8359375,77.63671875,55.6640625
1771706775.4909375,92.28515625,12.20703125,7.32421875,83.49609375,41.9921875
1771706775.4948437,88.37890625,10.7421875,6.8359375,86.9140625,21.97265625
1771706775.49875,96.19140625,9.27734375,2.44140625,91.796875,-11.23046875
1771706775.5026562,106.4453125,7.8125,0.0,100.09765625,38.0859375
1771706775.5065625,102.5390625,5.859375,6.34765625,100.5859375,49.8046875
1771706775.5104687,98.6328125,8.30078125,12.6953125,100.09765625,37.59765625
1771706775.514375,104.00390625,12.6953125,16.6015625,112.3046875,33.203125
1771706775.5182812,108.3984375,7.32421875,14.16015625,112.79296875,26.85546875
1771706775.5221875,107.91015625,-1.953125,11.23046875,108.88671875,52.734375
1771706775.5260937,101.5625,-0.48828125,11.23046875,105.95703125,-8.7890625
1771706775.529125,96.6796875,0.9765625,15.625,102.05078125,13.18359375
1771706775.5330312,103.515625,-1.953125,16.11328125,104.4921875,42.96875
1771706775.5369375,103.02734375,-2.9296875,10.25390625,101.07421875,3.41796875
1771706775.5408437,97.16796875,0.9765625,11.71875,98.14453125,23.92578125
1771706775.54475,99.12109375,4.8828125,15.625,103.515625,52.24609375
1771706775.5486562,98.14453125,1.953125,14.6484375,104.4921875,6.34765625
1771706775.5525625,101.07421875,4.39453125,15.13671875,101.07421875,36.1328125
1771706775.5564687,99.609375,5.37109375,17.578125,102.05078125,67.3828125
1771706775.560375,85.9375,2.9296875,11.71875,96.19140625,52.734375
1771706775.5642812,84.47265625,6.34765625,11.71875,88.8671875,23.4375
1771706775.5681875,90.33203125,5.859375,12.20703125,89.35546875,-12.20703125
1771706775.5720937,95.21484375,7.32421875,10.7421875,93.26171875,24.4140625
1771706775.590125,89.35546875,12.20703125,15.13671875,89.35546875,54.19921875
1771706775.5940313,83.984375,11.23046875,17.578125,84.9609375,62.98828125
1771706775.5979376,96.19140625,7.8125,18.06640625,90.8203125,74.21875
1771706775.6018438,102.05078125,13.18359375,17.08984375,93.26171875,106.93359375
1771706775.60575,95.21484375,20.01953125,15.13671875,91.30859375,67.3828125
1771706775.6096563,93.75,20.99609375,13.18359375,91.30859375,9.27734375
1771706775.6135626,98.6328125,23.92578125,15.625,91.30859375,12.6953125
1771706775.6174688,94.23828125,18.06640625,19.04296875,88.8671875,-0.9765625
1771706775.621375,86.42578125,13.18359375,20.5078125,80.078125,21.484375
1771706775.6252813,81.54296875,17.578125,17.578125,71.2890625,-4.8828125
1771706775.6291876,79.1015625,19.53125,23.92578125,76.171875,-32.71484375
1771706775.6330938,86.42578125,20.01953125,29.78515625,82.51953125,2.9296875
1771706775.634125,84.47265625,19.04296875,28.80859375,80.078125,40.52734375
1771706775.6380312,77.1484375,19.53125,28.80859375,76.171875,76.66015625
1771706775.6419375,76.171875,26.85546875,32.2265625,74.70703125,41.015625
1771706775.6458437,79.1015625,25.390625,31.25,76.171875,35.15625
1771706775.64975,75.1953125,18.5546875,22.94921875,67.3828125,47.36328125
1771706775.6536562,73.73046875,21.97265625,17.578125,63.96484375,79.1015625
1771706775.6575625,68.359375,21.97265625,17.578125,61.5234375,47.8515625
1771706775.6614687,62.5,19.53125,24.90234375,58.10546875,-2.44140625
1771706775.665375,65.4296875,21.484375,26.85546875,63.4765625,-3.41796875
1771706775.6692812,54.6875,20.99609375,28.3203125,61.5234375,-17.08984375
1771706775.6731875,54.6875,23.92578125,30.76171875,62.01171875,-21.484375
1771706775.6770937,63.96484375,28.3203125,33.69140625,63.96484375,-29.78515625
1771706775.679125,62.01171875,22.94921875,38.57421875,65.91796875,-35.64453125
1771706775.6830313,55.17578125,19.53125,33.203125,63.4765625,8.7890625
1771706775.6869376,54.19921875,16.11328125,30.76171875,62.98828125,22.94921875
1771706775.6908438,54.19921875,18.06640625,31.25,62.01171875,49.31640625
1771706775.69475,58.10546875,25.390625,29.78515625,57.12890625,12.6953125
1771706775.6986563,66.40625,33.203125,32.71484375,58.59375,-9.765625
1771706775.7025626,57.6171875,38.57421875,29.296875,51.7578125,20.99609375
1771706775.7064688,50.29296875,34.66796875,26.85546875,40.0390625,54.19921875
1771706775.710375,53.7109375,32.71484375,29.78515625,35.64453125,90.33203125
1771706775.7142813,49.31640625,35.64453125,31.25,33.203125,77.63671875
1771706775.7181876,41.9921875,39.55078125,29.78515625,33.69140625,52.734375
1771706775.7220938,44.43359375,35.64453125,26.3671875,41.015625,51.7578125
1771706775.724125,47.36328125,27.34375,24.4140625,44.921875,39.55078125
1771706775.7280312,48.828125,28.3203125,26.3671875,47.8515625,29.296875
1771706775.7319374,42.48046875,28.80859375,33.203125,49.8046875,69.82421875
1771706775.7358437,35.15625,25.87890625,35.15625,47.36328125,41.50390625
1771706775.73975,30.76171875,21.484375,34.66796875,40.52734375,22.4609375
1771706775.7436562,38.0859375,21.97265625,34.66796875,42.48046875,8.30078125
1771706775.7475624,43.9453125,29.296875,35.15625,47.36328125,-12.6953125
1771706775.7514687,40.0390625,29.296875,36.62109375,41.50390625,-7.32421875
1771706775.755375,45.41015625,27.34375,34.1796875,41.9921875,9.765625
1771706775.7592812,50.78125,34.66796875,33.69140625,43.9453125,42.48046875
1771706775.7631874,52.734375,38.57421875,35.64453125,42.96875,59.08203125
1771706775.7670937,47.8515625,36.1328125,34.66796875,42.48046875,48.33984375
1771706775.769125,45.41015625,35.15625,30.2734375,41.50390625,74.21875
1771706775.7730312,55.6640625,33.203125,30.2734375,40.52734375,44.921875
1771706775.7769375,52.734375,32.71484375,28.80859375,37.59765625,39.55078125
1771706775.7808437,41.50390625,37.59765625,26.3671875,36.62109375,67.87109375
1771706775.78475,36.62109375,41.015625,27.34375,35.15625,9.27734375
1771706775.7886562,33.69140625,39.0625,24.90234375,31.25,42.96875
1771706775.7925625,33.203125,40.0390625,28.80859375,31.25,59.08203125
1771706775.7964687,34.1796875,37.109375,30.2734375,27.34375,9.27734375
1771706775.800375,35.64453125,38.57421875,28.80859375,27.34375,53.22265625
1771706775.8042812,31.73828125,43.45703125,34.1796875,31.73828125,59.5703125
1771706775.8081875,30.2734375,34.1796875,36.1328125,31.73828125,27.83203125
1771706775.8120937,30.76171875,29.296875,32.71484375,27.34375,39.55078125
1771706775.814125,32.71484375,31.73828125,33.203125,28.80859375,35.64453125
1771706775.8180313,34.66796875,34.66796875,36.62109375,36.62109375,49.31640625
1771706775.8219376,41.015625,32.2265625,35.15625,41.015625,54.19921875
1771706775.8258438,46.38671875,34.1796875,33.69140625,40.52734375,16.11328125
1771706775.82975,36.1328125,40.52734375,34.1796875,38.57421875,17.578125
1771706775.8336563,30.76171875,34.1796875,32.71484375,41.9921875,40.52734375
1771706775.8375626,40.52734375,23.92578125,31.73828125,49.31640625,29.78515625
1771706775.8414688,43.9453125,28.3203125,30.76171875,47.8515625,-1.953125
1771706775.845375,34.66796875,35.64453125,32.71484375,32.71484375,8.7890625
1771706775.8492813,29.296875,32.2265625,34.66796875,30.76171875,2.9296875
1771706775.8531876,31.25,35.64453125,36.62109375,42.96875,8.7890625
1771706775.8570938,35.15625,40.52734375,42.48046875,45.8984375,31.25
1771706775.859125,37.59765625,36.1328125,44.921875,47.36328125,0.48828125
1771706775.8630311,26.85546875,29.296875,38.0859375,40.0390625,38.0859375
1771706775.8669374,25.390625,28.3203125,36.62109375,36.62109375,60.546875
1771706775.8708436,30.76171875,33.69140625,39.0625,35.64453125,32.71484375
1771706775.87475,30.76171875,35.64453125,35.15625,31.25,19.53125
1771706775.8786561,29.78515625,35.64453125,35.15625,31.73828125,39.55078125
1771706775.8825624,35.64453125,37.109375,31.73828125,33.203125,41.50390625
1771706775.8864686,47.36328125,42.96875,25.87890625,32.2265625,-1.953125
1771706775.890375,43.9453125,43.9453125,27.34375,26.85546875,-19.53125
1771706775.8942811,36.1328125,39.55078125,29.78515625,28.80859375,-24.90234375
1771706775.8981874,41.015625,41.015625,36.1328125,37.59765625,-3.41796875
1771706775.9020936,41.9921875,38.57421875,38.0859375,41.015625,9.765625
1771706775.919125,39.0625,34.66796875,34.66796875,39.0625,29.296875
1771706775.9230313,40.52734375,33.69140625,36.1328125,34.66796875,59.5703125
1771706775.9269376,32.2265625,33.203125,30.2734375,31.25,45.8984375
1771706775.9308438,33.69140625,36.1328125,24.90234375,36.62109375,3.41796875
1771706775.93475,39.55078125,36.62109375,28.80859375,36.62109375,-27.34375
1771706775.9386563,37.109375,36.1328125,29.78515625,31.25,11.71875
1771706775.9425626,37.109375,34.1796875,29.296875,34.1796875,73.73046875
1771706775.9464688,41.015625,39.0625,35.64453125,39.0625,23.92578125
1771706775.950375,44.921875,37.59765625,38.0859375,43.45703125,25.390625
1771706775.9542813,47.8515625,30.2734375,35.15625,48.828125,56.15234375
1771706775.9581876,44.921875,34.1796875,37.109375,42.96875,47.36328125
1771706775.9620938,39.55078125,38.0859375,35.64453125,38.57421875,57.12890625
1771706775.963125,40.0390625,41.015625,27.34375,41.9921875,30.76171875
1771706775.9670312,42.48046875,41.015625,28.80859375,38.57421875,2.44140625
1771706775.9709375,39.55078125,37.109375,35.15625,32.71484375,20.01953125
1771706775.9748437,29.78515625,35.15625,36.62109375,28.80859375,-5.859375
1771706775.97875,31.73828125,35.15625,37.59765625,32.2265625,0.0
1771706775.9826562,39.0625,34.1796875,38.57421875,38.57421875,91.796875
1771706775.9865625,33.69140625,40.0390625,40.52734375,39.0625,51.7578125
1771706775.9904687,24.4140625,41.015625,40.0390625,38.57421875,21.484375
1771706775.994375,30.2734375,39.55078125,38.57421875,39.55078125,70.3125
1771706775.9982812,34.66796875,38.0859375,34.1796875,32.71484375,49.8046875
1771706776.0021875,36.1328125,34.66796875,31.25,30.76171875,-8.7890625
1771706776.0060937,34.1796875,37.109375,32.71484375,34.1796875,-22.94921875
1771706776.009125,42.48046875,40.0390625,30.2734375,35.64453125,1.46484375
1771706776.0130312,47.36328125,39.55078125,31.25,37.109375,57.12890625
1771706776.0169375,40.52734375,40.0390625,33.69140625,39.55078125,25.390625
1771706776.0208437,41.015625,39.55078125,33.69140625,43.45703125,36.1328125
1771706776.02475,38.57421875,37.59765625,36.1328125,43.9453125,125.48828125
1771706776.0286562,41.015625,47.8515625,34.1796875,38.57421875,69.3359375
1771706776.0325625,40.52734375,51.26953125,29.296875,28.80859375,73.2421875
1771706776.0364687,23.92578125,36.62109375,29.78515625,21.484375,70.80078125
1771706776.040375,24.4140625,34.66796875,31.73828125,21.484375,42.96875
1771706776.0442812,30.76171875,36.1328125,35.64453125,20.99609375,20.99609375
1771706776.0481875,26.3671875,32.71484375,32.71484375,16.6015625,14.16015625
1771706776.0520937,24.90234375,35.64453125,32.71484375,19.53125,40.52734375
1771706776.053125,21.484375,30.76171875,35.64453125,21.484375,37.109375
1771706776.0570312,28.80859375,29.78515625,36.1328125,24.90234375,74.70703125
1771706776.0609374,37.109375,37.59765625,41.015625,29.78515625,55.6640625
1771706776.0648437,41.50390625,40.52734375,39.0625,30.76171875,35.15625
1771706776.06875,39.0625,35.64453125,36.1328125,29.296875,7.32421875
1771706776.0726562,32.71484375,35.64453125,37.109375,32.71484375,-10.25390625
1771706776.0765624,40.0390625,39.0625,36.62109375,35.64453125,-13.18359375
1771706776.0804687,37.59765625,40.52734375,33.69140625,28.80859375,-8.7890625
1771706776.084375,27.83203125,41.9921875,27.83203125,21.97265625,44.43359375
1771706776.0882812,30.2734375,42.48046875,31.73828125,25.87890625,3.90625
1771706776.0921874,31.25,42.96875,39.55078125,26.3671875,-40.0390625
1771706776.0960937,28.80859375,41.015625,38.0859375,28.3203125,15.625
1771706776.099125,27.34375,35.64453125,30.76171875,28.80859375,86.42578125
1771706776.1030312,28.3203125,35.64453125,31.73828125,23.4375,84.47265625
1771706776.1069374,30.76171875,37.109375,32.2265625,23.4375,63.96484375
1771706776.1108437,33.69140625,40.0390625,23.4375,25.87890625,-14.6484375
1771706776.11475,28.3203125,43.9453125,23.4375,21.97265625,-76.66015625
1771706776.1186562,20.99609375,45.8984375,30.2734375,16.6015625,-18.5546875
1771706776.1225624,17.08984375,40.52734375,32.2265625,21.484375,87.40234375
1771706776.1264687,22.4609375,33.69140625,35.64453125,24.4140625,62.98828125
1771706776.130375,20.01953125,38.57421875,36.62109375,18.5546875,3.90625
1771706776.1342812,13.671875,37.59765625,32.2265625,18.5546875,19.04296875
1771706776.1381874,19.53125,39.55078125,32.2265625,20.99609375,24.4140625
1771706776.1420937,22.4609375,41.50390625,32.2265625,21.484375,21.97265625
1771706776.144125,25.390625,35.64453125,35.15625,27.83203125,14.16015625
1771706776.1480312,22.94921875,37.109375,37.109375,30.76171875,9.765625
1771706776.1519375,17.08984375,38.0859375,33.203125,24.4140625,12.6953125
1771706776.1558437,19.04296875,34.1796875,29.296875,20.5078125,17.08984375
1771706776.15975,25.87890625,36.1328125,28.3203125,21.97265625,18.06640625
1771706776.1636562,26.85546875,40.0390625,30.76171875,20.99609375,0.48828125
1771706776.1675625,25.87890625,40.52734375,27.34375,21.97265625,5.37109375
1771706776.1714687,35.64453125,46.875,28.3203125,23.4375,75.68359375
1771706776.175375,33.203125,52.24609375,34.1796875,18.5546875,74.21875
1771706776.1792812,22.4609375,40.52734375,29.78515625,18.5546875,83.49609375
1771706776.1831875,13.671875,31.73828125,30.2734375,20.01953125,51.7578125
1771706776.1870937,22.4609375,38.0859375,38.57421875,24.90234375,-20.01953125
1771706776.190125,26.85546875,40.52734375,35.15625,24.90234375,58.59375
1771706776.1940312,19.53125,40.52734375,30.2734375,20.99609375,91.796875
1771706776.1979375,23.92578125,42.96875,36.62109375,27.83203125,38.0859375
1771706776.2018437,25.87890625,46.38671875,37.109375,32.2265625,16.11328125
1771706776.20575,29.78515625,48.33984375,30.76171875,32.2265625,81.0546875
1771706776.2096562,39.0625,41.015625,32.2265625,29.78515625,57.12890625
1771706776.2135625,40.52734375,42.48046875,35.15625,27.34375,8.30078125
1771706776.2174687,31.73828125,43.45703125,31.73828125,26.85546875,5.859375
1771706776.221375,29.78515625,41.015625,28.3203125,29.78515625,40.0390625
1771706776.2252812,36.62109375,44.43359375,29.78515625,32.2265625,71.77734375
1771706776.2291875,29.78515625,41.50390625,31.25,23.4375,38.57421875
1771706776.2330937,20.99609375,35.15625,30.76171875,19.53125,24.4140625
1771706776.234125,25.87890625,34.1796875,28.3203125,24.4140625,31.25
1771706776.2380311,28.80859375,37.109375,29.296875,22.4609375,65.91796875
1771706776.2419374,25.390625,39.55078125,30.76171875,22.4609375,83.49609375
1771706776.2458436,22.4609375,38.0859375,34.66796875,26.85546875,93.26171875
1771706776.24975,22.94921875,41.9921875,39.55078125,28.80859375,83.49609375
1771706776.2536561,29.296875,46.38671875,35.64453125,37.109375,18.06640625
1771706776.2575624,37.59765625,40.0390625,38.0859375,38.57421875,-24.4140625
1771706776.2614686,19.04296875,33.203125,40.0390625,19.04296875,-13.671875
1771706776.265375,7.32421875,33.203125,33.69140625,10.7421875,20.99609375
1771706776.2692811,14.16015625,34.1796875,30.76171875,12.6953125,16.11328125
1771706776.2731874,13.671875,38.0859375,35.64453125,11.71875,8.30078125
1771706776.2770936,6.8359375,37.59765625,37.109375,11.71875,11.23046875
1771706776.280125,14.6484375,36.62109375,29.78515625,15.625,-13.671875
1771706776.2840312,26.3671875,41.9921875,29.78515625,20.01953125,27.83203125
1771706776.2879374,29.296875,44.921875,37.109375,23.92578125,48.828125
1771706776.2918437,25.87890625,45.8984375,37.109375,24.4140625,27.83203125
1771706776.29575,26.3671875,37.109375,27.34375,28.3203125,66.89453125
1771706776.2996562,35.64453125,30.2734375,28.80859375,34.1796875,52.734375
1771706776.3035624,34.1796875,39.0625,34.1796875,27.34375,45.8984375
1771706776.3074687,30.76171875,41.50390625,36.62109375,25.87890625,57.6171875
1771706776.311375,34.1796875,43.45703125,38.0859375,27.83203125,35.15625
1771706776.3152812,31.73828125,41.50390625,34.1796875,27.83203125,32.71484375
1771706776.3191874,30.76171875,38.0859375,34.66796875,32.2265625,72.75390625
1771706776.3230937,32.2265625,42.96875,38.0859375,33.69140625,35.15625
1771706776.339125,27.34375,42.96875,35.15625,29.296875,-21.97265625
1771706776.3430312,25.390625,38.57421875,31.25,29.296875,27.34375
1771706776.3469374,29.78515625,37.59765625,36.62109375,33.69140625,35.15625
1771706776.3508437,40.0390625,44.43359375,36.1328125,37.59765625,37.109375
1771706776.35475,38.57421875,41.50390625,35.64453125,38.57421875,69.3359375
1771706776.3586562,35.15625,34.66796875,40.52734375,37.59765625,17.08984375
1771706776.3625624,37.59765625,40.52734375,41.9921875,40.52734375,-20.5078125
1771706776.3664687,36.1328125,44.921875,35.15625,39.0625,17.08984375
1771706776.370375,31.25,40.52734375,26.85546875,31.25,33.69140625
1771706776.3742812,24.90234375,38.0859375,19.04296875,26.85546875,30.2734375
1771706776.3781874,23.92578125,38.0859375,23.92578125,24.90234375,0.48828125
1771706776.3820937,21.97265625,36.62109375,37.109375,19.53125,21.97265625
1771706776.384125,20.01953125,38.57421875,36.62109375,19.04296875,82.51953125
1771706776.3880312,23.92578125,32.2265625,35.64453125,17.578125,73.73046875
1771706776.3919375,21.97265625,34.1796875,31.25,20.99609375,11.23046875
1771706776.3958437,21.97265625,48.33984375,32.2265625,26.85546875,6.34765625
1771706776.39975,27.34375,44.43359375,37.109375,21.97265625,61.5234375
1771706776.4036562,19.53125,32.71484375,30.76171875,16.11328125,84.9609375
1771706776.4075625,15.13671875,34.1796875,26.85546875,18.5546875,32.2265625
1771706776.4114687,25.390625,37.109375,31.25,25.87890625,-0.48828125
1771706776.415375,29.78515625,37.59765625,34.66796875,23.4375,68.359375
1771706776.4192812,28.3203125,39.55078125,29.78515625,16.6015625,49.8046875
1771706776.4231875,25.390625,42.96875,27.34375,16.6015625,14.16015625
1771706776.4270937,30.2734375,41.015625,30.2734375,21.97265625,45.8984375
1771706776.445125,33.203125,36.1328125,30.76171875,22.94921875,45.8984375
1771706776.4490314,29.78515625,38.0859375,29.296875,22.94921875,52.734375
1771706776.4529376,30.76171875,43.45703125,29.296875,29.296875,2.9296875
1771706776.4568439,36.62109375,47.36328125,26.85546875,33.69140625,25.87890625
1771706776.46075,49.31640625,41.015625,29.296875,36.62109375,43.45703125
1771706776.4646564,42.96875,37.59765625,37.109375,38.57421875,12.6953125
1771706776.4685626,25.87890625,38.57421875,39.55078125,33.69140625,47.36328125
1771706776.4724689,27.34375,32.2265625,39.55078125,28.80859375,62.5
1771706776.476375,31.25,32.2265625,36.1328125,26.3671875,72.265625
1771706776.4802814,38.0859375,37.109375,35.64453125,32.71484375,-6.8359375
1771706776.4841876,33.203125,34.66796875,34.1796875,28.3203125,-34.66796875
1771706776.4880939,30.2734375,42.48046875,34.66796875,27.34375,44.921875
1771706776.474125,38.0859375,45.41015625,38.57421875,33.203125,53.22265625
1771706776.4780312,35.15625,36.62109375,37.59765625,29.78515625,66.40625
1771706776.4819374,33.203125,37.59765625,36.1328125,35.64453125,53.7109375
1771706776.4858437,28.80859375,41.9921875,37.59765625,36.1328125,27.34375
1771706776.48975,24.4140625,32.71484375,38.57421875,29.78515625,25.390625
1771706776.4936562,28.3203125,28.3203125,39.55078125,30.76171875,23.92578125
1771706776.4975624,29.296875,30.2734375,34.1796875,29.78515625,9.765625
1771706776.5014687,27.34375,30.2734375,26.85546875,29.78515625,-39.55078125
1771706776.505375,33.69140625,38.0859375,34.1796875,32.71484375,-22.94921875
1771706776.5092812,39.55078125,41.015625,42.48046875,34.1796875,42.96875
1771706776.5131874,36.62109375,36.1328125,37.109375,30.76171875,40.0390625
1771706776.5170937,28.3203125,34.66796875,32.2265625,26.85546875,24.90234375
1771706776.519125,30.76171875,41.50390625,38.57421875,29.296875,69.82421875
1771706776.5230312,39.55078125,48.33984375,41.9921875,33.203125,83.984375
1771706776.5269375,30.76171875,43.45703125,39.0625,30.2734375,-7.32421875
1771706776.5308437,19.04296875,27.34375,40.0390625,23.92578125,-2.9296875
1771706776.53475,20.5078125,22.4609375,37.59765625,24.4140625,2.44140625
1771706776.5386562,25.390625,33.203125,39.55078125,30.2734375,-41.9921875
1771706776.5425625,33.69140625,40.0390625,41.50390625,31.25,12.6953125
1771706776.5464687,34.66796875,41.015625,36.62109375,23.4375,39.55078125
1771706776.550375,21.97265625,41.015625,38.57421875,24.90234375,43.9453125
1771706776.5542812,15.625,35.15625,37.59765625,31.73828125,30.2734375
1771706776.5581875,22.4609375,33.69140625,34.1796875,28.3203125,-34.66796875
1771706776.5620937,24.90234375,41.015625,35.64453125,23.92578125,-28.80859375
1771706776.564125,15.13671875,36.1328125,31.25,21.484375,31.25
1771706776.5680313,16.6015625,30.2734375,32.71484375,23.4375,45.41015625
1771706776.5719376,26.85546875,36.62109375,37.59765625,30.2734375,3.90625
1771706776.5758438,26.85546875,40.52734375,34.1796875,28.80859375,28.3203125
1771706776.57975,24.4140625,40.52734375,35.64453125,21.97265625,66.89453125
1771706776.5836563,24.90234375,39.0625,39.55078125,25.390625,93.26171875
1771706776.5875626,35.64453125,38.57421875,42.96875,33.69140625,63.96484375
1771706776.5914688,44.43359375,34.66796875,41.50390625,33.203125,73.73046875
1771706776.595375,40.52734375,36.1328125,33.203125,33.203125,116.2109375
1771706776.5992813,39.55078125,40.0390625,33.69140625,38.0859375,96.19140625
1771706776.6031876,36.62109375,33.69140625,37.109375,34.1796875,71.77734375
1771706776.6070938,36.1328125,33.69140625,33.203125,32.2265625,99.609375
1771706776.610125,35.64453125,41.9921875,29.296875,28.80859375,67.87109375
1771706776.6140313,34.66796875,39.55078125,28.80859375,23.92578125,-30.2734375
1771706776.6179376,36.1328125,32.2265625,30.2734375,31.25,-39.0625
1771706776.6218438,41.015625,40.0390625,36.1328125,38.0859375,12.6953125
1771706776.62575,40.0390625,41.015625,37.109375,34.66796875,33.69140625
1771706776.6296563,33.69140625,35.15625,37.109375,31.25,8.7890625
1771706776.6335626,33.203125,36.62109375,34.66796875,25.390625,13.671875
1771706776.6374688,37.109375,38.0859375,31.25,25.390625,40.0390625
1771706776.641375,41.015625,37.109375,38.57421875,31.25,34.66796875
1771706776.6452813,33.203125,36.62109375,35.64453125,31.73828125,9.765625
1771706776.6491876,29.296875,40.0390625,21.97265625,32.2265625,27.83203125
1771706776.6530938,32.71484375,40.52734375,23.4375,31.25,41.9921875
1771706776.654125,40.0390625,35.15625,31.25,33.203125,16.11328125
1771706776.6580312,40.52734375,41.015625,35.15625,33.203125,32.2265625
1771706776.6619375,38.57421875,42.48046875,32.71484375,34.66796875,27.34375
1771706776.6658437,36.62109375,35.64453125,30.76171875,32.2265625,-19.04296875
1771706776.66975,35.15625,39.55078125,35.15625,29.78515625,-12.20703125
1771706776.6736562,31.25,41.50390625,36.1328125,28.3203125,-4.8828125
1771706776.6775625,29.78515625,34.1796875,34.66796875,23.92578125,44.921875
1771706776.6814687,27.83203125,31.73828125,33.69140625,23.4375,20.01953125
1771706776.685375,36.62109375,36.62109375,33.69140625,30.2734375,-16.6015625
1771706776.6892812,38.57421875,33.203125,35.64453125,32.71484375,-28.3203125
1771706776.6931875,26.85546875,34.66796875,32.71484375,27.83203125,-5.37109375
1771706776.6970937,31.25,41.015625,32.2265625,35.64453125,44.921875
1771706776.714125,39.0625,43.9453125,33.203125,38.0859375,27.83203125
1771706776.7180312,36.62109375,44.921875,31.25,29.296875,50.78125
1771706776.7219374,32.71484375,33.203125,33.203125,26.85546875,75.68359375
1771706776.7258437,27.34375,31.25,37.59765625,32.2265625,35.15625
1771706776.72975,26.3671875,35.64453125,36.1328125,33.69140625,17.08984375
1771706776.7336562,30.2734375,34.66796875,29.296875,29.296875,47.8515625
1771706776.7375624,24.90234375,38.0859375,22.94921875,25.87890625,69.82421875
1771706776.7414687,19.53125,36.1328125,31.25,24.90234375,71.2890625
1771706776.745375,16.11328125,37.59765625,36.1328125,26.3671875,41.50390625
1771706776.7492812,24.90234375,44.43359375,31.73828125,30.76171875,47.36328125
1771706776.7531874,34.1796875,43.9453125,32.71484375,29.296875,28.3203125
1771706776.7570937,25.87890625,41.50390625,34.1796875,28.80859375,33.69140625
1771706776.759125,26.3671875,36.1328125,33.69140625,29.78515625,121.09375
1771706776.7630312,34.1796875,37.59765625,30.2734375,25.390625,120.1171875
1771706776.7669375,37.109375,40.0390625,30.2734375,27.83203125,61.03515625
1771706776.7708437,32.71484375,37.59765625,33.69140625,27.34375,11.23046875
1771706776.77475,32.2265625,40.0390625,31.73828125,28.80859375,20.5078125
1771706776.7786562,35.64453125,42.96875,32.71484375,32.2265625,7.8125
1771706776.7825625,37.59765625,44.43359375,40.52734375,32.71484375,19.53125
1771706776.7864687,32.71484375,45.41015625,38.0859375,24.4140625,17.08984375
1771706776.790375,27.83203125,41.015625,33.69140625,18.5546875,3.41796875
1771706776.7942812,30.2734375,36.1328125,34.1796875,20.99609375,51.7578125
1771706776.7981875,28.3203125,39.55078125,38.0859375,23.92578125,40.52734375
1771706776.8020937,28.80859375,43.45703125,38.57421875,31.73828125,-21.484375
1771706776.804125,29.296875,41.015625,33.203125,36.62109375,-23.92578125
1771706776.8080313,31.73828125,37.59765625,35.64453125,40.0390625,17.578125
1771706776.8119376,34.1796875,40.52734375,36.1328125,39.0625,5.859375
1771706776.8158438,30.76171875,39.0625,34.1796875,32.2265625,31.73828125
1771706776.81975,21.484375,33.69140625,35.64453125,34.1796875,40.0390625
1771706776.8236563,20.99609375,33.203125,30.2734375,41.015625,3.41796875
1771706776.8275626,29.296875,35.64453125,34.1796875,41.9921875,38.57421875
1771706776.8314688,32.71484375,38.0859375,44.921875,36.62109375,72.75390625
1771706776.835375,25.87890625,35.64453125,40.52734375,29.78515625,56.640625
1771706776.8392813,22.4609375,38.0859375,33.203125,24.90234375,30.2734375
1771706776.8431876,25.87890625,41.015625,31.25,31.25,9.27734375
1771706776.8470938,25.87890625,35.64453125,33.203125,33.69140625,1.953125
1771706776.849125,19.04296875,33.203125,37.59765625,25.390625,-33.203125
1771706776.8530312,14.16015625,38.0859375,38.57421875,36.62109375,-38.0859375
1771706776.8569374,18.5546875,38.0859375,37.109375,40.52734375,4.8828125
1771706776.8608437,28.80859375,27.83203125,36.62109375,32.71484375,16.6015625
1771706776.86475,25.87890625,28.80859375,38.0859375,36.62109375,27.34375
1771706776.8686562,17.08984375,38.0859375,34.1796875,31.73828125,34.66796875
1771706776.8725624,20.99609375,40.52734375,24.90234375,24.90234375,66.40625
1771706776.8764687,27.34375,42.96875,25.390625,23.92578125,41.015625
1771706776.880375,25.87890625,44.921875,29.78515625,20.99609375,37.109375
1771706776.8842812,24.90234375,44.43359375,27.83203125,27.34375,81.54296875
1771706776.8881874,27.34375,46.38671875,25.390625,33.203125,41.015625
1771706776.8920937,26.85546875,46.875,31.25,31.73828125,55.17578125
1771706776.894125,31.73828125,44.921875,33.203125,31.25,11.23046875
1771706776.8980312,32.71484375,42.48046875,32.71484375,31.73828125,-8.7890625
1771706776.9019375,40.0390625,41.50390625,34.66796875,35.15625,16.11328125
1771706776.9058437,41.9921875,40.0390625,36.62109375,33.69140625,-12.6953125
1771706776.90975,31.25,34.1796875,40.52734375,28.80859375,3.90625
1771706776.9136562,24.90234375,34.66796875,42.48046875,27.34375,2.9296875
1771706776.9175625,26.3671875,40.52734375,37.59765625,24.90234375,20.5078125
1771706776.9214687,31.73828125,43.9453125,33.203125,26.3671875,29.296875
1771706776.925375,28.3203125,38.0859375,33.203125,23.4375,-20.01953125
1771706776.9292812,24.4140625,39.0625,35.15625,21.97265625,-35.64453125
1771706776.9331875,30.2734375,43.45703125,33.69140625,29.296875,-3.90625
1771706776.9370937,31.73828125,37.59765625,27.83203125,23.92578125,-4.8828125
1771706776.939125,27.83203125,33.69140625,29.78515625,19.04296875,1.953125
1771706776.9430313,28.80859375,35.15625,31.73828125,20.01953125,23.92578125
1771706776.9469376,33.203125,39.0625,35.64453125,27.34375,54.6875
1771706776.9508438,36.62109375,44.43359375,35.15625,30.76171875,65.4296875
1771706776.95475,36.62109375,44.921875,26.3671875,22.4609375,29.78515625
1771706776.9586563,26.85546875,37.109375,28.3203125,18.06640625,9.765625
1771706776.9625626,23.92578125,36.62109375,31.25,19.53125,32.2265625
1771706776.9664688,25.87890625,42.48046875,31.73828125,21.484375,32.71484375
1771706776.970375,29.296875,41.9921875,31.73828125,25.87890625,-12.20703125
1771706776.9742813,34.66796875,39.55078125,32.71484375,29.78515625,-2.9296875
1771706776.9781876,24.4140625,38.57421875,26.85546875,22.4609375,-5.859375
1771706776.9820938,19.53125,35.64453125,24.4140625,19.04296875,-29.78515625
1771706776.984125,22.94921875,32.71484375,29.78515625,26.85546875,-31.25
1771706776.9880311,20.99609375,34.66796875,27.34375,22.4609375,18.5546875
1771706776.9919374,16.6015625,32.71484375,26.85546875,18.5546875,23.4375
1771706776.9958436,27.34375,32.2265625,34.1796875,28.3203125,32.71484375
1771706776.99975,36.62109375,40.52734375,33.69140625,37.109375,67.87109375
1771706777.0036561,30.2734375,48.828125,35.64453125,41.015625,15.625
1771706777.0075624,31.25,43.9453125,37.59765625,37.59765625,21.484375
1771706777.0114686,28.80859375,37.109375,33.69140625,36.1328125,111.328125
1771706777.015375,23.4375,37.59765625,32.2265625,32.71484375,76.171875
1771706777.0192811,28.80859375,38.57421875,35.64453125,26.3671875,68.359375
1771706777.0231874,32.71484375,36.62109375,40.0390625,26.85546875,58.59375
1771706777.0270936,21.97265625,35.64453125,34.1796875,23.4375,56.640625
1771706777.030125,19.53125,40.52734375,30.2734375,28.3203125,66.40625
1771706777.0340312,25.390625,42.48046875,32.2265625,32.2265625,22.4609375
1771706777.0379374,28.80859375,41.50390625,31.25,24.90234375,23.4375
1771706777.0418437,31.73828125,43.45703125,33.69140625,25.390625,2.9296875
1771706777.04575,26.85546875,44.43359375,35.15625,23.92578125,51.7578125
1771706777.0496562,26.85546875,37.109375,32.2265625,21.97265625,117.67578125
1771706777.0535624,36.62109375,34.66796875,29.78515625,24.4140625,71.2890625
1771706777.0574687,42.96875,38.0859375,36.1328125,32.2265625,30.76171875
1771706777.061375,35.64453125,43.9453125,41.015625,38.57421875,76.66015625
1771706777.0652812,28.80859375,46.875,40.0390625,36.62109375,83.984375
1771706777.0691874,36.1328125,40.52734375,39.55078125,33.69140625,61.5234375
1771706777.0730937,33.203125,39.0625,35.64453125,38.57421875,52.734375
1771706777.089125,18.5546875,35.15625,33.203125,34.66796875,70.80078125
1771706777.0930312,21.484375,34.66796875,34.66796875,31.73828125,74.21875
1771706777.0969374,26.85546875,40.0390625,34.1796875,36.62109375,19.04296875
1771706777.1008437,31.73828125,42.48046875,35.64453125,32.2265625,30.76171875
1771706777.10475,28.3203125,40.52734375,32.2265625,25.390625,-11.23046875
1771706777.1086562,28.80859375,40.0390625,29.296875,27.83203125,-4.8828125
1771706777.1125624,31.73828125,41.50390625,32.71484375,25.87890625,10.7421875
1771706777.1164687,31.25,37.59765625,37.59765625,26.3671875,-0.48828125
1771706777.120375,32.2265625,35.64453125,35.64453125,33.203125,35.15625
1771706777.1242812,25.390625,33.203125,35.15625,33.203125,51.26953125
1771706777.1281874,24.4140625,30.76171875,34.66796875,30.2734375,83.984375
1771706777.1320937,31.73828125,27.34375,35.64453125,31.73828125,62.5
1771706777.134125,31.73828125,29.78515625,34.66796875,34.66796875,16.6015625
1771706777.1380312,25.87890625,37.109375,33.69140625,27.34375,-21.484375
1771706777.1419375,27.34375,38.57421875,34.66796875,25.87890625,-49.8046875
1771706777.1458437,30.2734375,41.50390625,24.90234375,30.76171875,-25.390625
1771706777.14975,29.296875,44.43359375,26.85546875,27.83203125,24.90234375
1771706777.1536562,33.69140625,42.96875,39.0625,26.3671875,26.85546875
1771706777.1575625,30.76171875,43.9453125,37.59765625,28.3203125,19.53125
1771706777.1614687,27.34375,42.48046875,35.15625,30.76171875,31.73828125
1771706777.165375,34.1796875,35.64453125,40.52734375,37.59765625,-25.390625
1771706777.1692812,37.109375,37.109375,38.0859375,30.76171875,-2.9296875
1771706777.1731875,30.2734375,41.50390625,35.64453125,21.97265625,70.3125
1771706777.1770937,23.92578125,46.875,31.25,17.578125,62.01171875
1771706777.178125,21.97265625,45.41015625,26.85546875,16.11328125,58.10546875
1771706777.1820312,22.4609375,42.96875,31.25,18.5546875,28.80859375
1771706777.1859374,26.3671875,49.8046875,31.25,20.99609375,18.5546875
1771706777.1898437,31.25,54.6875,32.2265625,26.85546875,-20.5078125
1771706777.19375,36.1328125,43.45703125,37.59765625,31.25,-42.96875
1771706777.1976562,41.9921875,37.59765625,31.73828125,33.69140625,18.5546875
1771706777.2015624,39.0625,39.0625,27.34375,32.71484375,91.796875
1771706777.2054687,38.0859375,33.203125,35.64453125,39.0625,55.6640625
1771706777.209375,40.0390625,34.66796875,35.15625,36.62109375,45.41015625
1771706777.2132812,33.69140625,38.57421875,32.71484375,27.83203125,41.9921875
1771706777.2171874,28.80859375,37.59765625,37.109375,31.25,-18.06640625
1771706777.2210937,29.78515625,40.52734375,38.0859375,34.1796875,-12.6953125
1771706777.224125,31.25,44.43359375,36.62109375,31.73828125,39.0625
1771706777.2280312,31.25,41.015625,39.0625,31.25,32.2265625
1771706777.2319374,27.34375,36.1328125,38.0859375,25.87890625,2.44140625
1771706777.2358437,16.6015625,39.55078125,29.296875,22.4609375,22.4609375
1771706777.23975,18.06640625,35.15625,25.87890625,26.3671875,7.8125
1771706777.2436562,28.80859375,28.3203125,30.2734375,27.83203125,5.37109375
1771706777.2475624,25.390625,39.55078125,30.76171875,26.3671875,-17.578125
1771706777.2514687,25.87890625,46.875,31.25,30.2734375,46.38671875
1771706777.255375,24.90234375,36.62109375,36.62109375,29.78515625,108.3984375
1771706777.2592812,23.92578125,32.2265625,39.55078125,25.87890625,33.203125
1771706777.2631874,27.83203125,34.66796875,36.1328125,26.3671875,43.45703125
1771706777.2670937,22.4609375,33.203125,36.1328125,24.4140625,68.84765625
1771706777.269125,22.4609375,37.109375,40.0390625,23.92578125,54.6875
1771706777.2730312,25.87890625,36.1328125,40.0390625,22.4609375,23.92578125
1771706777.2769375,25.87890625,33.203125,38.0859375,22.94921875,-16.11328125
1771706777.2808437,25.87890625,36.1328125,36.62109375,26.3671875,-17.08984375
1771706777.28475,25.87890625,36.1328125,33.203125,24.90234375,5.859375
1771706777.2886562,35.15625,38.0859375,33.203125,27.83203125,1.46484375
1771706777.2925625,35.64453125,41.9921875,38.0859375,27.34375,-12.6953125
1771706777.2964687,26.85546875,36.1328125,33.203125,20.5078125,-1.953125
1771706777.300375,27.83203125,31.73828125,27.83203125,26.85546875,14.6484375
1771706777.3042812,29.78515625,35.15625,32.71484375,32.2265625,18.5546875
1771706777.3081875,35.64453125,34.1796875,38.0859375,29.78515625,23.92578125
1771706777.3120937,32.71484375,32.71484375,36.62109375,26.85546875,64.453125
1771706777.316125,20.01953125,32.71484375,30.2734375,19.04296875,59.5703125
1771706777.3200312,20.99609375,35.15625,34.1796875,21.484375,38.57421875
1771706777.3239374,26.85546875,42.48046875,41.015625,24.4140625,7.32421875
1771706777.3278437,23.4375,32.71484375,35.64453125,19.53125,18.06640625
1771706777.33175,17.578125,29.78515625,34.1796875,19.53125,58.10546875
1771706777.3356562,17.578125,41.9921875,33.203125,23.4375,43.9453125
1771706777.3395624,20.01953125,41.50390625,33.69140625,21.484375,51.7578125
1771706777.3434687,29.296875,36.62109375,35.64453125,21.484375,57.6171875
1771706777.347375,30.2734375,32.71484375,35.64453125,30.76171875,57.12890625
1771706777.3512812,21.97265625,29.78515625,28.80859375,32.2265625,-3.90625
1771706777.3551874,27.34375,39.0625,32.71484375,30.76171875,-4.8828125
1771706777.3590937,32.2265625,43.45703125,42.96875,34.1796875,66.40625
1771706777.359125,21.484375,37.109375,39.0625,28.80859375,21.484375
1771706777.3630311,13.671875,35.15625,36.62109375,28.3203125,-13.671875
1771706777.3669374,13.671875,34.1796875,37.59765625,28.80859375,10.25390625
1771706777.3708436,23.92578125,38.0859375,38.0859375,29.78515625,42.48046875
1771706777.37475,24.4140625,35.15625,34.1796875,29.296875,61.5234375
1771706777.3786561,17.578125,27.83203125,33.203125,25.87890625,43.9453125
1771706777.3825624,16.6015625,32.2265625,36.62109375,23.4375,95.21484375
1771706777.3864686,21.484375,36.62109375,39.0625,18.5546875,126.953125
1771706777.390375,26.3671875,36.62109375,35.64453125,20.5078125,73.73046875
1771706777.3942811,22.94921875,37.109375,33.69140625,23.4375,40.0390625
1771706777.3981874,23.92578125,38.0859375,35.64453125,26.85546875,-17.08984375
1771706777.4020936,35.15625,39.0625,37.59765625,34.66796875,-54.19921875
1771706777.404125,36.62109375,41.50390625,36.1328125,35.15625,42.96875
1771706777.4080312,35.15625,39.55078125,30.2734375,33.69140625,62.01171875
1771706777.4119375,36.1328125,38.57421875,26.3671875,37.109375,-2.9296875
1771706777.4158437,38.0859375,41.9921875,27.83203125,39.0625,10.7421875
1771706777.41975,40.52734375,46.38671875,34.1796875,40.52734375,22.94921875
1771706777.4236562,33.203125,41.015625,38.57421875,31.73828125,44.43359375
1771706777.4275625,20.5078125,32.2265625,34.66796875,13.18359375,70.80078125
1771706777.4314687,14.16015625,34.1796875,33.203125,9.765625,14.6484375
1771706777.435375,26.85546875,35.64453125,34.66796875,23.92578125,6.8359375
1771706777.4392812,33.203125,33.203125,31.73828125,23.92578125,78.125
1771706777.4431875,27.83203125,37.59765625,33.69140625,22.4609375,45.41015625
1771706777.4470937,27.83203125,42.48046875,34.66796875,28.3203125,27.34375
1771706777.464125,32.2265625,39.0625,34.1796875,26.3671875,62.98828125
1771706777.4680312,35.64453125,38.57421875,38.0859375,23.92578125,34.1796875
1771706777.4719374,30.2734375,41.9921875,39.0625,20.99609375,20.99609375
1771706777.4758437,26.85546875,37.59765625,29.78515625,21.484375,23.4375
1771706777.47975,24.4140625,34.66796875,29.296875,20.01953125,47.36328125
1771706777.4836562,27.34375,37.59765625,32.2265625,21.97265625,43.9453125
1771706777.4875624,30.76171875,45.41015625,32.2265625,23.92578125,63.96484375
1771706777.4914687,25.390625,40.52734375,36.62109375,20.01953125,102.5390625
1771706777.495375,23.92578125,35.15625,37.109375,28.3203125,50.29296875
1771706777.4992812,26.85546875,41.015625,36.1328125,27.34375,30.76171875
1771706777.5031874,27.34375,38.57421875,35.64453125,18.06640625,85.44921875
1771706777.5070937,23.4375,35.64453125,32.71484375,20.01953125,97.16796875
1771706777.509125,21.484375,35.15625,32.71484375,23.4375,60.546875
1771706777.5130312,31.25,33.69140625,34.66796875,27.83203125,3.41796875
1771706777.5169375,33.69140625,35.64453125,32.71484375,23.92578125,-7.8125
1771706777.5208437,24.90234375,38.0859375,29.78515625,25.390625,-17.08984375
1771706777.52475,34.66796875,45.8984375,32.2265625,33.69140625,54.19921875
1771706777.5286562,41.9921875,46.875,34.1796875,36.62109375,73.2421875
1771706777.5325625,29.78515625,39.0625,29.78515625,28.80859375,11.71875
1771706777.5364687,23.4375,38.57421875,34.66796875,21.97265625,-2.9296875
1771706777.540375,22.94921875,38.57421875,37.59765625,24.4140625,-9.765625
1771706777.5442812,21.97265625,36.1328125,36.1328125,21.484375,14.16015625
1771706777.5481875,22.4609375,34.1796875,34.66796875,22.4609375,28.80859375
1771706777.5520937,22.4609375,36.1328125,33.203125,32.2265625,34.1796875
1771706777.554125,23.4375,38.57421875,33.203125,34.1796875,58.10546875
1771706777.5580313,27.83203125,39.55078125,35.15625,36.62109375,56.640625
1771706777.5619376,34.1796875,38.0859375,37.59765625,36.1328125,20.01953125
1771706777.5658438,33.69140625,41.50390625,37.59765625,33.69140625,-4.39453125
1771706777.56975,32.2265625,39.0625,37.59765625,33.203125,32.71484375
1771706777.5736563,29.296875,33.69140625,39.55078125,31.73828125,41.50390625
1771706777.5775626,24.4140625,36.62109375,39.0625,30.76171875,-11.71875
1771706777.5814688,23.4375,37.109375,39.0625,28.80859375,-5.37109375
1771706777.585375,17.08984375,33.203125,37.59765625,24.4140625,9.765625
1771706777.5892813,21.484375,32.71484375,29.78515625,28.3203125,2.9296875
1771706777.5931876,33.69140625,32.2265625,34.66796875,38.0859375,25.390625
1771706777.5970938,38.0859375,33.203125,36.62109375,33.203125,17.578125
1771706777.598125,32.71484375,40.0390625,32.2265625,24.90234375,-3.90625
1771706777.6020312,25.390625,42.96875,38.57421875,24.90234375,50.78125
1771706777.6059375,28.3203125,44.921875,33.69140625,29.296875,46.38671875
1771706777.6098437,31.25,46.38671875,29.78515625,32.71484375,1.46484375
1771706777.61375,31.25,40.0390625,39.0625,30.2734375,11.71875
1771706777.6176562,26.85546875,36.62109375,38.0859375,28.3203125,-1.46484375
1771706777.6215625,30.2734375,39.55078125,34.66796875,35.15625,-31.25
1771706777.6254687,33.69140625,40.0390625,32.71484375,31.73828125,38.0859375
1771706777.629375,37.109375,42.48046875,34.1796875,25.390625,66.40625
1771706777.6332812,28.3203125,43.45703125,38.57421875,23.92578125,-16.6015625
1771706777.6371875,20.5078125,38.0859375,34.1796875,24.4140625,40.52734375
1771706777.6410937,24.90234375,34.66796875,33.69140625,27.83203125,75.1953125
1771706777.644125,28.80859375,29.296875,41.015625,32.2265625,44.43359375
1771706777.6480312,28.3203125,30.2734375,37.59765625,33.69140625,46.875
1771706777.6519375,28.80859375,40.52734375,34.66796875,37.59765625,58.10546875
1771706777.6558437,35.64453125,42.48046875,36.62109375,35.15625,35.15625
1771706777.65975,43.9453125,39.0625,39.0625,35.64453125,41.015625
1771706777.6636562,40.0390625,42.48046875,41.50390625,37.59765625,-0.9765625
1771706777.6675625,29.296875,47.36328125,38.57421875,33.203125,8.7890625
1771706777.6714687,30.2734375,39.0625,38.0859375,33.69140625,22.4609375
1771706777.675375,35.15625,36.1328125,36.1328125,30.2734375,11.23046875
1771706777.6792812,29.296875,39.0625,31.73828125,29.296875,8.30078125
1771706777.6831875,21.97265625,41.015625,33.203125,27.83203125,-18.06640625
1771706777.6870937,18.06640625,40.52734375,32.71484375,23.92578125,45.8984375
1771706777.704125,23.92578125,35.64453125,30.76171875,21.484375,60.05859375
1771706777.7080312,30.2734375,40.0390625,30.76171875,20.99609375,46.875
1771706777.7119374,24.90234375,45.41015625,30.76171875,18.06640625,64.94140625
1771706777.7158437,24.90234375,41.9921875,32.71484375,16.6015625,48.33984375
1771706777.71975,30.76171875,38.0859375,33.203125,20.5078125,17.578125
1771706777.7236562,26.85546875,36.62109375,32.2265625,15.625,22.94921875
1771706777.7275624,25.87890625,41.015625,31.73828125,18.5546875,43.45703125
1771706777.7314687,33.69140625,42.96875,38.0859375,25.390625,62.01171875
1771706777.735375,30.2734375,39.0625,29.78515625,21.484375,72.75390625
1771706777.7392812,27.83203125,39.55078125,23.92578125,24.4140625,52.24609375
1771706777.7431874,26.85546875,39.0625,37.109375,28.3203125,50.29296875
1771706777.7470937,18.5546875,33.203125,37.59765625,24.4140625,40.52734375
1771706777.734125,20.01953125,32.71484375,34.66796875,22.4609375,-9.27734375
1771706777.7380311,24.90234375,35.15625,38.0859375,27.34375,14.6484375
1771706777.7419374,23.4375,34.66796875,38.57421875,28.80859375,33.69140625
1771706777.7458436,18.5546875,31.73828125,38.0859375,28.3203125,14.6484375
1771706777.74975,21.484375,33.203125,41.015625,33.203125,15.625
1771706777.7536561,23.4375,35.15625,38.57421875,35.64453125,46.875
1771706777.7575624,23.4375,31.25,38.57421875,28.80859375,90.33203125
1771706777.7614686,35.15625,32.2265625,37.109375,30.2734375,55.17578125
1771706777.765375,37.109375,42.48046875,38.0859375,32.2265625,-44.921875
1771706777.7692811,36.1328125,46.38671875,38.57421875,24.4140625,-19.04296875
1771706777.7731874,28.3203125,44.921875,29.78515625,15.13671875,25.390625
1771706777.7770936,21.97265625,47.36328125,28.80859375,17.08984375,2.44140625
1771706777.779125,25.390625,49.31640625,26.85546875,24.90234375,62.98828125
1771706777.7830312,19.53125,42.96875,26.85546875,25.390625,61.03515625
1771706777.7869375,12.20703125,40.0390625,34.1796875,22.4609375,12.20703125
1771706777.7908437,12.20703125,43.45703125,34.1796875,21.97265625,-6.8359375
1771706777.79475,10.25390625,39.0625,32.71484375,21.97265625,68.84765625
1771706777.7986562,9.765625,35.15625,29.78515625,20.01953125,62.01171875
1771706777.8025625,21.97265625,38.57421875,27.83203125,21.484375,-1.953125
1771706777.8064687,27.83203125,40.0390625,33.69140625,23.4375,31.25
1771706777.810375,17.578125,38.57421875,35.64453125,21.484375,30.2734375
1771706777.8142812,19.53125,37.59765625,34.66796875,22.94921875,50.29296875
1771706777.8181875,22.94921875,37.59765625,28.3203125,22.4609375,42.96875
1771706777.8220937,14.6484375,36.62109375,27.34375,16.6015625,-4.8828125
1771706777.839125,19.04296875,41.015625,36.1328125,19.53125,46.38671875
1771706777.8430312,24.90234375,38.57421875,35.64453125,21.97265625,41.015625
1771706777.8469374,24.4140625,33.69140625,32.71484375,18.06640625,1.953125
1771706777.8508437,31.25,34.66796875,32.2265625,23.92578125,-0.48828125
1771706777.85475,31.25,31.73828125,36.1328125,26.85546875,5.37109375
1771706777.8586562,18.06640625,37.109375,36.1328125,20.99609375,7.8125
1771706777.8625624,19.53125,43.9453125,37.109375,20.99609375,9.765625
1771706777.8664687,23.92578125,39.55078125,43.45703125,23.4375,37.109375
1771706777.870375,21.484375,35.64453125,39.55078125,24.90234375,42.48046875
1771706777.8742812,24.90234375,37.59765625,39.55078125,28.3203125,67.87109375
1771706777.8781874,30.2734375,34.66796875,40.52734375,32.71484375,42.96875
1771706777.8820937,37.109375,35.64453125,36.62109375,37.59765625,51.7578125
1771706777.884125,33.69140625,36.1328125,36.1328125,36.62109375,51.7578125
1771706777.8880312,31.73828125,36.62109375,35.15625,30.76171875,30.2734375
1771706777.8919375,30.2734375,42.48046875,35.64453125,29.78515625,18.5546875
1771706777.8958437,28.80859375,37.59765625,36.1328125,30.76171875,18.06640625
1771706777.89975,29.296875,30.2734375,30.76171875,30.76171875,34.66796875
1771706777.9036562,26.85546875,38.0859375,36.62109375,29.296875,44.921875
1771706777.9075625,21.484375,41.015625,39.0625,30.2734375,-5.859375
1771706777.9114687,20.5078125,37.109375,33.69140625,30.76171875,3.41796875
1771706777.915375,27.34375,36.1328125,33.69140625,22.94921875,81.0546875
1771706777.9192812,31.25,33.203125,32.71484375,19.04296875,89.84375
1771706777.9231875,30.76171875,37.109375,31.73828125,22.94921875,77.63671875
1771706777.9270937,36.1328125,38.57421875,34.1796875,24.90234375,52.734375
