timestamps,TP9,AF7,AF8,TP10,Right AUX
1771542848.388125,8.30078125,50.29296875,79.1015625,-28.3203125,74.21875
1771542848.3920312,36.62109375,49.31640625,42.48046875,25.390625,61.5234375
1771542848.3959374,27.83203125,48.828125,-0.48828125,44.43359375,26.3671875
1771542848.3998437,-17.08984375,49.31640625,20.99609375,-19.04296875,19.53125
1771542848.40375,-12.6953125,44.921875,47.36328125,-33.203125,21.97265625
1771542848.4076562,21.484375,37.59765625,35.15625,21.484375,-18.06640625
1771542848.4115624,21.484375,40.0390625,-6.8359375,49.31640625,12.6953125
1771542848.4154687,0.48828125,43.45703125,-3.41796875,13.671875,83.0078125
1771542848.419375,-2.44140625,41.9921875,81.0546875,-26.85546875,85.9375
1771542848.4232812,25.87890625,38.57421875,68.359375,6.8359375,24.4140625
1771542848.4271874,38.57421875,41.015625,26.3671875,49.8046875,0.0
1771542848.4310937,19.53125,44.921875,41.50390625,28.3203125,68.84765625
1771542848.434125,3.90625,41.50390625,66.40625,-20.99609375,65.4296875
1771542848.4380312,16.11328125,41.015625,70.3125,-10.7421875,81.0546875
1771542848.4419374,40.0390625,45.8984375,27.83203125,40.52734375,67.87109375
1771542848.4458437,30.2734375,48.33984375,20.99609375,38.57421875,8.30078125
1771542848.44975,-2.44140625,50.29296875,45.8984375,-13.18359375,29.296875
1771542848.4536562,2.44140625,41.50390625,43.9453125,-16.11328125,57.12890625
1771542848.4575624,24.90234375,38.57421875,-8.7890625,30.76171875,4.39453125
1771542848.4614687,17.08984375,49.8046875,6.8359375,44.43359375,16.6015625
1771542848.465375,-9.765625,44.43359375,68.359375,-3.41796875,22.4609375
1771542848.4692812,-6.34765625,39.55078125,51.7578125,-27.34375,-3.41796875
1771542848.4731874,20.5078125,39.0625,35.64453125,17.08984375,55.6640625
1771542848.4770937,20.99609375,41.50390625,34.66796875,46.38671875,73.73046875
1771542848.494125,-0.48828125,39.55078125,36.1328125,14.6484375,65.4296875
1771542848.4980311,15.13671875,37.109375,45.8984375,0.0,77.1484375
1771542848.5019374,55.6640625,34.1796875,44.43359375,38.0859375,55.6640625
1771542848.5058436,94.7265625,34.66796875,26.85546875,104.00390625,45.41015625
1771542848.50975,68.84765625,48.33984375,26.85546875,82.51953125,71.77734375
1771542848.5136561,17.08984375,51.7578125,7.32421875,0.9765625,73.2421875
1771542848.5175624,79.58984375,45.8984375,25.390625,51.7578125,67.3828125
1771542848.5214686,147.94921875,37.59765625,59.5703125,148.92578125,22.4609375
1771542848.525375,158.69140625,30.76171875,21.484375,178.22265625,-6.34765625
1771542848.5292811,162.59765625,20.01953125,28.3203125,162.59765625,39.0625
1771542848.5331874,193.359375,9.27734375,88.37890625,175.78125,40.0390625
1771542848.5370936,236.328125,8.30078125,86.42578125,235.83984375,23.4375
1771542848.539125,237.3046875,5.37109375,52.734375,269.53125,26.3671875
1771542848.5430312,231.93359375,3.41796875,62.5,249.51171875,49.8046875
1771542848.5469375,243.1640625,6.34765625,92.7734375,227.5390625,55.6640625
1771542848.5508437,258.7890625,7.32421875,86.42578125,253.41796875,83.49609375
1771542848.55475,258.7890625,0.48828125,43.45703125,291.50390625,62.5
1771542848.5586562,228.515625,-0.9765625,35.15625,257.8125,70.3125
1771542848.5625625,217.7734375,5.37109375,62.5,209.9609375,65.91796875
1771542848.5664687,229.98046875,4.39453125,81.0546875,225.09765625,-0.9765625
1771542848.570375,234.86328125,6.34765625,39.55078125,259.27734375,-1.46484375
1771542848.5742812,220.703125,8.30078125,-9.27734375,245.1171875,17.08984375
1771542848.5781875,186.03515625,10.25390625,58.59375,183.10546875,38.0859375
1771542848.5820937,182.12890625,10.25390625,94.23828125,174.8046875,24.4140625
1771542848.584125,186.5234375,10.7421875,39.55078125,208.0078125,23.4375
1771542848.5880313,170.41015625,9.765625,24.4140625,211.9140625,58.59375
1771542848.5919375,140.13671875,8.7890625,71.77734375,155.76171875,47.36328125
1771542848.5958438,138.18359375,11.23046875,86.42578125,127.44140625,29.78515625
1771542848.59975,164.0625,14.6484375,53.22265625,165.0390625,56.640625
1771542848.6036563,157.2265625,15.625,18.5546875,184.08203125,74.70703125
1771542848.6075625,129.39453125,21.484375,36.1328125,140.625,20.01953125
1771542848.6114688,120.1171875,25.87890625,93.26171875,101.07421875,58.59375
1771542848.615375,129.8828125,18.06640625,50.78125,128.41796875,115.72265625
1771542848.6192813,131.34765625,25.87890625,6.8359375,155.2734375,33.203125
1771542848.6231875,103.02734375,30.76171875,59.08203125,121.58203125,2.44140625
1771542848.6270938,82.51953125,23.4375,66.89453125,78.125,28.80859375
1771542848.630125,100.5859375,22.4609375,73.2421875,91.30859375,48.828125
1771542848.6340313,104.98046875,20.5078125,46.875,128.41796875,62.98828125
1771542848.6379375,91.796875,24.4140625,45.41015625,124.0234375,71.77734375
1771542848.6418438,69.3359375,28.3203125,61.5234375,73.73046875,83.49609375
1771542848.64575,71.77734375,23.92578125,52.734375,62.98828125,92.28515625
1771542848.6496563,97.65625,31.73828125,28.3203125,96.19140625,56.15234375
1771542848.6535625,87.890625,38.0859375,20.5078125,103.515625,-16.11328125
1771542848.6574688,54.19921875,35.15625,38.57421875,63.96484375,15.13671875
1771542848.661375,51.7578125,37.59765625,53.7109375,39.0625,62.98828125
1771542848.6652813,80.56640625,35.15625,58.59375,79.1015625,54.6875
1771542848.6691875,85.9375,32.71484375,25.390625,101.5625,-21.97265625
1771542848.6730938,49.31640625,36.62109375,0.9765625,63.4765625,-51.26953125
1771542848.674125,40.52734375,33.203125,20.01953125,33.69140625,-34.1796875
1771542848.6780312,80.078125,33.203125,67.87109375,59.08203125,-0.48828125
1771542848.6819375,83.0078125,37.109375,42.96875,96.6796875,63.4765625
1771542848.6858437,46.38671875,33.69140625,12.6953125,74.21875,82.51953125
1771542848.68975,22.94921875,34.1796875,36.62109375,25.87890625,13.671875
1771542848.6936562,41.9921875,34.1796875,44.921875,46.38671875,0.0
1771542848.6975625,68.84765625,34.1796875,30.2734375,87.40234375,0.0
1771542848.7014687,56.640625,37.59765625,1.953125,79.1015625,38.0859375
1771542848.705375,26.3671875,36.1328125,13.18359375,25.87890625,87.890625
1771542848.7092812,41.9921875,29.78515625,84.47265625,20.5078125,18.06640625
1771542848.7131875,74.21875,34.1796875,61.5234375,77.63671875,20.5078125
1771542848.7170937,83.984375,45.41015625,13.18359375,100.09765625,50.29296875
1771542848.719125,72.75390625,42.48046875,37.59765625,60.05859375,46.38671875
1771542848.7230313,36.62109375,33.203125,84.9609375,6.34765625,80.078125
1771542848.7269375,45.8984375,37.109375,48.33984375,37.109375,48.828125
1771542848.7308438,82.03125,34.66796875,20.99609375,107.91015625,69.3359375
1771542848.73475,42.48046875,32.71484375,41.9921875,61.5234375,86.42578125
1771542848.7386563,15.13671875,26.85546875,56.15234375,-0.48828125,47.8515625
1771542848.7425625,52.24609375,28.3203125,64.94140625,41.9921875,81.54296875
1771542848.7464688,82.03125,35.64453125,-8.7890625,92.7734375,61.03515625
1771542848.750375,53.7109375,34.66796875,8.30078125,57.6171875,47.36328125
1771542848.7542813,24.4140625,35.15625,93.75,7.8125,73.73046875
1771542848.7581875,41.9921875,31.73828125,53.22265625,24.4140625,-20.99609375
1771542848.7620938,59.5703125,29.296875,25.87890625,63.96484375,-42.96875
1771542848.764125,44.921875,33.69140625,40.52734375,65.91796875,35.15625
1771542848.7680314,25.390625,34.66796875,55.17578125,19.04296875,52.734375
1771542848.7719376,42.96875,35.15625,62.5,12.6953125,89.35546875
1771542848.7758439,69.82421875,37.59765625,38.0859375,60.546875,80.078125
1771542848.77975,70.80078125,35.15625,17.08984375,75.1953125,10.25390625
1771542848.7836564,40.52734375,34.1796875,28.80859375,30.2734375,12.20703125
1771542848.7875626,26.3671875,33.203125,34.1796875,4.39453125,72.265625
1771542848.7914689,56.640625,34.1796875,30.2734375,40.0390625,115.72265625
1771542848.795375,65.91796875,41.50390625,37.59765625,64.94140625,92.7734375
1771542848.7992814,35.64453125,36.1328125,38.0859375,32.71484375,83.0078125
1771542848.8031876,22.4609375,30.2734375,38.57421875,-3.90625,60.05859375
1771542848.8070939,41.50390625,37.59765625,57.6171875,22.4609375,59.08203125
1771542848.809125,52.24609375,38.0859375,41.9921875,59.5703125,54.19921875
1771542848.8130312,37.59765625,35.64453125,18.5546875,49.31640625,44.43359375
1771542848.8169374,26.3671875,36.62109375,40.52734375,5.859375,75.1953125
1771542848.8208437,39.55078125,35.64453125,54.6875,-2.9296875,15.13671875
1771542848.82475,55.17578125,34.1796875,40.0390625,38.0859375,41.9921875
1771542848.8286562,41.50390625,37.109375,-4.39453125,52.24609375,56.15234375
1771542848.8325624,15.625,39.55078125,-11.71875,4.8828125,33.203125
1771542848.8364687,19.53125,33.69140625,62.01171875,-4.39453125,58.10546875
1771542848.840375,43.45703125,32.2265625,71.77734375,38.0859375,48.828125
1771542848.8442812,45.41015625,43.9453125,1.953125,61.5234375,20.99609375
1771542848.8481874,13.18359375,44.921875,4.39453125,23.4375,33.203125
1771542848.8520937,1.46484375,38.0859375,55.17578125,-6.34765625,20.01953125
1771542848.855125,22.4609375,37.59765625,74.70703125,24.90234375,33.203125
1771542848.8590312,33.69140625,37.59765625,13.18359375,61.03515625,46.38671875
1771542848.8629375,12.6953125,41.015625,5.859375,38.57421875,34.66796875
1771542848.8668437,-1.953125,40.0390625,75.1953125,-11.71875,35.64453125
1771542848.87075,25.390625,39.0625,74.70703125,12.20703125,24.4140625
1771542848.8746562,47.36328125,39.0625,-1.953125,62.01171875,37.109375
1771542848.8785625,36.1328125,40.0390625,-5.859375,52.24609375,81.0546875
1771542848.8824687,16.6015625,42.96875,69.3359375,0.0,36.62109375
1771542848.886375,33.203125,41.015625,78.125,3.90625,20.01953125
1771542848.8902812,49.8046875,36.1328125,44.921875,57.12890625,28.3203125
1771542848.8941875,48.33984375,38.57421875,30.2734375,67.3828125,74.21875
1771542848.8980937,53.22265625,46.875,41.015625,44.921875,69.82421875
1771542848.914125,51.26953125,37.59765625,61.03515625,33.69140625,-6.8359375
1771542848.9180312,29.296875,25.390625,61.03515625,35.64453125,30.76171875
1771542848.9219375,13.671875,29.296875,45.8984375,39.0625,40.0390625
1771542848.9258437,10.7421875,30.76171875,53.7109375,18.5546875,21.484375
1771542848.92975,30.76171875,25.390625,77.63671875,8.30078125,25.390625
1771542848.9336562,41.9921875,28.3203125,33.69140625,26.3671875,76.66015625
1771542848.9375625,25.390625,33.69140625,21.484375,48.828125,75.1953125
1771542848.9414687,14.16015625,32.2265625,66.40625,38.57421875,17.08984375
1771542848.945375,18.06640625,36.62109375,66.89453125,-0.48828125,42.96875
1771542848.9492812,33.69140625,36.1328125,71.77734375,4.39453125,101.5625
1771542848.9531875,39.55078125,29.296875,46.875,44.921875,31.25
1771542848.9570937,33.69140625,34.1796875,27.83203125,56.640625,-1.46484375
1771542848.959125,17.08984375,35.15625,39.0625,6.8359375,46.38671875
1771542848.9630313,27.83203125,33.69140625,58.10546875,-6.8359375,49.31640625
1771542848.9669375,51.26953125,32.2265625,44.43359375,34.66796875,17.578125
1771542848.9708438,45.8984375,34.66796875,17.578125,51.26953125,8.7890625
1771542848.97475,20.01953125,36.62109375,9.765625,13.671875,15.625
1771542848.9786563,18.5546875,35.15625,39.0625,-10.25390625,72.265625
1771542848.9825625,45.8984375,42.48046875,61.5234375,34.66796875,98.6328125
1771542848.9864688,45.41015625,44.921875,47.36328125,62.01171875,77.63671875
1771542848.990375,24.90234375,42.96875,0.48828125,26.85546875,17.08984375
1771542848.9942813,22.4609375,41.015625,25.87890625,-8.7890625,2.9296875
1771542848.9981875,39.0625,42.48046875,97.16796875,13.18359375,58.10546875
1771542849.0020938,52.24609375,43.9453125,46.875,58.10546875,45.8984375
1771542849.004125,38.0859375,41.9921875,24.4140625,45.8984375,33.69140625
1771542849.0080314,18.06640625,44.43359375,66.40625,-4.39453125,70.3125
1771542849.0119376,21.484375,39.55078125,75.1953125,-4.8828125,54.19921875
1771542849.0158439,39.55078125,39.55078125,35.64453125,46.38671875,33.203125
1771542849.01975,32.2265625,41.50390625,12.6953125,57.12890625,65.91796875
1771542849.0236564,0.0,39.0625,29.296875,6.8359375,53.7109375
1771542849.0275626,9.27734375,39.0625,52.24609375,-0.9765625,10.25390625
1771542849.0314689,32.2265625,38.57421875,46.875,43.45703125,13.18359375
1771542849.035375,26.3671875,41.015625,-14.16015625,64.453125,52.734375
1771542849.0392814,5.37109375,47.36328125,26.3671875,31.73828125,68.84765625
1771542849.0431876,4.8828125,41.015625,92.7734375,-2.9296875,19.04296875
1771542849.0470939,34.1796875,32.2265625,37.109375,28.80859375,-10.25390625
1771542849.049125,39.0625,35.15625,20.5078125,69.3359375,-32.71484375
1771542849.0530312,19.53125,35.64453125,51.26953125,38.57421875,-13.18359375
1771542849.0569375,18.06640625,37.109375,74.21875,-7.8125,33.203125
1771542849.0608437,43.9453125,40.0390625,64.94140625,9.765625,43.45703125
1771542849.06475,45.41015625,39.0625,31.25,49.31640625,40.0390625
1771542849.0686562,17.578125,36.62109375,8.30078125,42.96875,26.85546875
1771542849.0725625,3.90625,37.109375,48.33984375,-9.27734375,4.8828125
1771542849.0764687,19.53125,40.0390625,43.9453125,-8.7890625,43.9453125
1771542849.080375,28.3203125,38.57421875,4.8828125,36.1328125,31.25
1771542849.0842812,15.625,38.57421875,54.6875,47.8515625,28.80859375
1771542849.0881875,-0.48828125,44.43359375,65.91796875,5.37109375,105.46875
1771542849.0920937,16.6015625,36.1328125,58.59375,-10.25390625,74.21875
1771542849.094125,44.43359375,33.203125,48.33984375,32.71484375,31.25
1771542849.0980313,34.1796875,40.52734375,27.34375,61.03515625,22.94921875
1771542849.1019375,10.7421875,35.15625,24.90234375,25.390625,22.94921875
1771542849.1058438,1.953125,38.57421875,43.45703125,-10.7421875,55.17578125
1771542849.10975,40.52734375,32.71484375,44.43359375,32.2265625,50.78125
1771542849.1136563,94.7265625,17.578125,6.8359375,112.3046875,3.41796875
1771542849.1175625,63.4765625,36.62109375,17.08984375,91.30859375,27.83203125
1771542849.1214688,-4.39453125,51.7578125,14.6484375,-19.53125,25.87890625
1771542849.125375,-43.45703125,55.17578125,38.57421875,-76.171875,9.27734375
1771542849.1292813,-59.08203125,54.6875,37.109375,-56.15234375,46.875
1771542849.1331875,-92.7734375,54.19921875,-24.90234375,-80.56640625,66.40625
1771542849.1370938,-165.0390625,56.640625,-22.4609375,-181.640625,72.75390625
1771542849.140125,-183.59375,60.05859375,17.08984375,-220.703125,76.171875
1771542849.1440313,-200.68359375,72.265625,-24.4140625,-221.6796875,83.984375
1771542849.1479375,-224.12109375,75.1953125,-76.66015625,-225.5859375,81.0546875
1771542849.1518438,-251.953125,79.1015625,-52.24609375,-286.62109375,91.30859375
1771542849.15575,-272.4609375,85.9375,-43.45703125,-348.14453125,50.29296875
1771542849.1596563,-251.953125,87.40234375,-77.1484375,-304.6875,-4.39453125
1771542849.1635625,-267.578125,92.7734375,-111.328125,-278.80859375,-0.48828125
1771542849.1674688,-298.33984375,95.703125,-93.26171875,-323.2421875,34.66796875
1771542849.171375,-280.2734375,90.8203125,-17.578125,-350.5859375,15.625
1771542849.1752813,-240.234375,87.40234375,-25.390625,-312.01171875,35.15625
1771542849.1791875,-221.6796875,89.35546875,-61.03515625,-244.62890625,92.28515625
1771542849.1830938,-231.4453125,87.890625,-45.8984375,-232.91015625,111.81640625
1771542849.185125,-224.609375,76.66015625,-28.80859375,-264.16015625,84.47265625
1771542849.1890314,-185.05859375,73.2421875,-35.15625,-235.83984375,31.73828125
1771542849.1929376,-161.62109375,78.61328125,-44.43359375,-169.43359375,31.25
1771542849.1968439,-158.69140625,76.171875,-34.66796875,-151.85546875,22.94921875
1771542849.20075,-154.296875,71.2890625,-13.671875,-186.5234375,-12.20703125
1771542849.2046564,-129.8828125,71.2890625,-6.8359375,-182.12890625,37.59765625
1771542849.2085626,-104.00390625,72.75390625,-51.26953125,-124.51171875,70.3125
1771542849.2124689,-110.3515625,74.21875,-42.48046875,-89.35546875,0.48828125
1771542849.216375,-119.140625,73.2421875,16.6015625,-116.69921875,2.9296875
1771542849.2202814,-91.30859375,64.453125,15.625,-138.671875,52.734375
1771542849.2241876,-54.19921875,66.40625,11.23046875,-85.9375,85.44921875
1771542849.2280939,-60.05859375,75.68359375,9.765625,-36.62109375,112.79296875
1771542849.244125,-76.66015625,63.96484375,6.34765625,-70.3125,95.21484375
1771542849.2480311,-73.73046875,54.6875,13.18359375,-113.28125,46.38671875
1771542849.2519374,-62.01171875,62.01171875,14.16015625,-90.33203125,10.7421875
1771542849.2558436,-48.828125,64.453125,-1.46484375,-36.1328125,5.37109375
1771542849.25975,-55.17578125,61.03515625,16.6015625,-27.34375,76.66015625
1771542849.2636561,-52.734375,59.5703125,-5.37109375,-66.89453125,29.296875
1771542849.2675624,-28.3203125,59.5703125,-14.6484375,-63.96484375,-11.23046875
1771542849.2714686,-17.08984375,60.546875,41.015625,-20.5078125,36.62109375
1771542849.275375,-21.484375,61.03515625,39.55078125,-6.8359375,46.38671875
1771542849.2792811,-32.2265625,57.12890625,38.57421875,-54.19921875,50.29296875
1771542849.2831874,-27.83203125,53.7109375,63.4765625,-73.2421875,31.73828125
1771542849.2870936,-8.7890625,59.08203125,51.26953125,-23.92578125,40.52734375
1771542849.289125,-12.6953125,58.10546875,20.01953125,5.37109375,67.3828125
1771542849.2930312,-32.2265625,49.8046875,17.578125,-29.296875,10.7421875
1771542849.2969375,-21.97265625,51.7578125,63.4765625,-58.10546875,19.53125
1771542849.3008437,-4.39453125,57.12890625,59.5703125,-28.3203125,67.3828125
1771542849.30475,-2.9296875,59.08203125,13.671875,17.08984375,44.43359375
1771542849.3086562,-16.6015625,56.640625,11.23046875,1.953125,99.609375
1771542849.3125625,-22.4609375,54.19921875,32.71484375,-41.50390625,67.3828125
1771542849.3164687,-2.44140625,47.8515625,52.734375,-29.78515625,19.53125
1771542849.320375,17.578125,43.9453125,25.390625,16.6015625,30.76171875
1771542849.3242812,1.46484375,47.36328125,-43.45703125,20.5078125,-33.203125
1771542849.3281875,-22.4609375,49.8046875,26.85546875,-31.73828125,8.7890625
1771542849.3320937,-9.27734375,47.36328125,95.21484375,-35.15625,67.3828125
1771542849.334125,17.578125,46.38671875,34.66796875,20.99609375,85.44921875
1771542849.3380313,14.6484375,46.38671875,20.5078125,39.0625,105.95703125
1771542849.3419375,-11.23046875,44.43359375,51.26953125,-9.765625,103.515625
1771542849.3458438,0.9765625,40.0390625,58.10546875,-25.87890625,67.3828125
1771542849.34975,29.296875,41.015625,30.2734375,19.04296875,19.04296875
1771542849.3536563,30.2734375,45.8984375,5.37109375,45.41015625,31.73828125
1771542849.3575625,0.0,45.8984375,19.53125,10.25390625,22.94921875
1771542849.3614688,-16.6015625,43.45703125,57.6171875,-26.85546875,12.20703125
1771542849.365375,13.18359375,41.50390625,29.78515625,-1.46484375,25.87890625
1771542849.3692813,20.99609375,47.36328125,-2.9296875,39.55078125,35.64453125
1771542849.3731875,4.8828125,44.43359375,61.03515625,27.34375,78.125
1771542849.3770938,-2.44140625,38.57421875,76.171875,-21.484375,49.8046875
1771542849.379125,10.7421875,37.59765625,66.40625,-12.20703125,28.3203125
1771542849.3830314,21.484375,37.109375,52.24609375,42.48046875,62.01171875
1771542849.3869376,10.25390625,43.9453125,40.52734375,52.24609375,64.453125
1771542849.3908439,-0.48828125,39.0625,41.9921875,6.8359375,27.34375
1771542849.39475,6.34765625,32.71484375,44.921875,-8.30078125,-4.39453125
1771542849.3986564,30.76171875,40.0390625,24.4140625,39.55078125,4.8828125
1771542849.4025626,29.78515625,39.0625,13.671875,69.3359375,16.6015625
1771542849.4064689,9.765625,36.1328125,32.71484375,23.4375,46.875
1771542849.410375,18.5546875,41.015625,24.4140625,-10.25390625,67.87109375
1771542849.4142814,30.76171875,36.62109375,47.8515625,30.76171875,58.10546875
1771542849.4181876,57.12890625,26.3671875,47.36328125,105.46875,30.2734375
1771542849.4220939,66.40625,24.4140625,19.53125,96.6796875,34.1796875
1771542849.424125,22.4609375,41.9921875,36.62109375,-2.9296875,-5.859375
1771542849.4280312,12.20703125,56.15234375,54.6875,-23.4375,-23.92578125
1771542849.4319375,34.1796875,56.15234375,15.625,41.9921875,9.27734375
1771542849.4358437,11.71875,55.17578125,-14.16015625,35.15625,30.76171875
1771542849.43975,0.9765625,52.734375,14.6484375,-15.625,85.44921875
1771542849.4436562,44.921875,57.6171875,16.11328125,3.90625,109.375
1771542849.4475625,64.453125,65.91796875,-16.6015625,58.59375,76.171875
1771542849.4514687,25.390625,61.03515625,-50.78125,51.26953125,67.3828125
1771542849.455375,-4.39453125,47.36328125,-24.90234375,-9.765625,43.45703125
1771542849.4592812,27.83203125,40.52734375,55.17578125,-14.16015625,55.6640625
1771542849.4631875,51.26953125,46.38671875,18.5546875,38.0859375,91.30859375
1771542849.4670937,37.59765625,51.26953125,-37.59765625,60.546875,76.66015625
1771542849.470125,23.4375,45.8984375,-18.06640625,23.92578125,48.828125
1771542849.4740312,28.80859375,41.50390625,26.3671875,-5.859375,13.671875
1771542849.4779375,52.24609375,41.50390625,30.2734375,32.71484375,12.20703125
1771542849.4818437,50.78125,41.9921875,-3.41796875,75.68359375,29.296875
1771542849.48575,23.4375,44.43359375,20.5078125,37.59765625,60.546875
1771542849.4896562,30.76171875,46.38671875,27.34375,-7.32421875,5.859375
1771542849.4935625,56.640625,44.921875,20.01953125,18.5546875,-60.05859375
1771542849.4974687,41.9921875,47.36328125,-10.25390625,60.546875,21.97265625
1771542849.501375,29.78515625,49.31640625,11.71875,54.19921875,96.6796875
1771542849.5052812,23.92578125,43.45703125,62.01171875,-0.9765625,80.56640625
1771542849.5091875,36.62109375,39.55078125,38.0859375,-5.37109375,67.87109375
1771542849.5130937,55.17578125,46.875,12.6953125,48.828125,69.3359375
1771542849.514125,53.22265625,47.8515625,18.5546875,69.82421875,61.03515625
1771542849.5180314,37.59765625,42.96875,30.76171875,16.11328125,37.59765625
1771542849.5219376,46.875,42.48046875,26.3671875,-7.8125,-7.32421875
1771542849.5258439,59.5703125,47.8515625,20.01953125,41.015625,36.1328125
1771542849.52975,44.921875,49.31640625,18.5546875,62.01171875,89.84375
1771542849.5336564,31.73828125,51.7578125,7.8125,24.90234375,38.57421875
1771542849.5375626,27.83203125,48.33984375,4.8828125,-7.32421875,21.97265625
1771542849.5414689,37.109375,47.36328125,27.83203125,17.578125,51.26953125
1771542849.545375,36.62109375,51.7578125,39.55078125,50.78125,28.80859375
1771542849.5492814,20.5078125,46.38671875,26.85546875,29.78515625,-22.94921875
1771542849.5531876,27.83203125,43.9453125,10.7421875,-12.20703125,2.9296875
1771542849.5570939,49.31640625,49.31640625,20.99609375,-6.34765625,40.0390625
1771542849.558125,36.1328125,49.8046875,51.26953125,37.59765625,55.17578125
1771542849.5620313,10.7421875,40.52734375,25.390625,48.828125,75.68359375
1771542849.5659375,6.34765625,38.0859375,26.3671875,-3.90625,43.45703125
1771542849.5698438,30.2734375,40.0390625,51.7578125,-12.20703125,8.30078125
1771542849.57375,41.50390625,38.0859375,39.0625,42.96875,36.1328125
1771542849.5776563,25.87890625,36.62109375,4.39453125,60.05859375,68.359375
1771542849.5815625,12.20703125,40.52734375,-15.13671875,16.11328125,64.453125
1771542849.5854688,24.4140625,38.0859375,41.9921875,-11.71875,63.96484375
1771542849.589375,32.71484375,37.109375,79.58984375,22.4609375,44.921875
1771542849.5932813,26.85546875,36.1328125,8.30078125,55.6640625,-2.44140625
1771542849.5971875,0.0,32.2265625,8.30078125,16.11328125,-12.20703125
1771542849.6010938,-4.8828125,38.57421875,72.265625,-21.97265625,80.078125
1771542849.618125,29.296875,48.828125,55.6640625,5.859375,82.51953125
1771542849.6220312,41.015625,48.33984375,0.0,52.24609375,37.59765625
1771542849.6259375,30.2734375,42.96875,1.46484375,44.43359375,45.41015625
1771542849.6298437,24.4140625,41.9921875,46.875,-7.8125,37.109375
1771542849.63375,36.62109375,41.50390625,58.10546875,-5.859375,70.80078125
1771542849.6376562,44.921875,42.96875,-18.06640625,41.50390625,48.828125
1771542849.6415625,26.85546875,45.41015625,-26.3671875,45.8984375,30.2734375
1771542849.6454687,15.13671875,44.921875,39.55078125,-3.41796875,35.64453125
1771542849.649375,29.78515625,41.50390625,53.7109375,-6.34765625,43.9453125
1771542849.6532812,37.59765625,40.0390625,23.92578125,34.1796875,34.1796875
1771542849.6571875,25.87890625,42.96875,4.8828125,51.7578125,3.41796875
1771542849.6610937,28.3203125,35.15625,40.0390625,34.66796875,37.59765625
1771542849.663125,51.7578125,30.76171875,57.12890625,16.6015625,91.30859375
1771542849.6670313,33.69140625,47.36328125,34.66796875,19.53125,76.171875
1771542849.6709375,-0.48828125,58.10546875,0.0,24.4140625,13.18359375
1771542849.6748438,-4.39453125,48.33984375,1.953125,8.7890625,-14.16015625
1771542849.67875,11.71875,44.43359375,27.34375,-27.34375,9.765625
1771542849.6826563,-8.30078125,47.36328125,17.578125,-41.50390625,45.8984375
1771542849.6865625,-9.27734375,42.96875,-20.01953125,9.765625,24.4140625
1771542849.6904688,-5.859375,41.015625,1.953125,20.5078125,3.41796875
1771542849.694375,-29.296875,38.57421875,40.52734375,-41.015625,77.1484375
1771542849.6982813,-0.48828125,36.62109375,4.8828125,-32.2265625,98.14453125
1771542849.7021875,18.5546875,33.69140625,9.27734375,26.85546875,52.24609375
1771542849.7060938,10.25390625,34.1796875,34.66796875,41.50390625,22.94921875
1771542849.709125,10.25390625,38.0859375,12.20703125,-1.46484375,2.9296875
1771542849.7130313,22.4609375,37.109375,21.97265625,-13.671875,-15.625
1771542849.7169375,37.59765625,41.9921875,53.7109375,32.2265625,33.203125
1771542849.7208438,30.2734375,39.55078125,28.3203125,59.5703125,90.33203125
1771542849.72475,11.71875,35.64453125,10.7421875,19.53125,65.91796875
1771542849.7286563,20.99609375,35.64453125,27.34375,-10.25390625,67.3828125
1771542849.7325625,29.296875,34.66796875,44.921875,20.99609375,90.33203125
1771542849.7364688,14.6484375,37.109375,39.0625,54.6875,69.82421875
1771542849.740375,5.37109375,39.55078125,-9.27734375,37.109375,49.31640625
1771542849.7442813,-3.90625,38.57421875,2.9296875,-19.04296875,39.0625
1771542849.7481875,7.32421875,38.0859375,70.3125,-10.7421875,57.12890625
1771542849.7520938,31.73828125,43.45703125,35.64453125,42.96875,81.0546875
1771542849.754125,25.390625,44.921875,-2.44140625,47.8515625,45.8984375
1771542849.7580314,9.765625,43.45703125,33.203125,0.48828125,6.34765625
1771542849.7619376,26.85546875,42.48046875,62.5,-1.953125,30.76171875
1771542849.7658439,50.29296875,39.55078125,28.80859375,54.19921875,70.80078125
1771542849.76975,34.1796875,40.0390625,-8.30078125,70.80078125,51.26953125
1771542849.7736564,18.5546875,41.50390625,8.7890625,24.90234375,-12.6953125
1771542849.7775626,33.69140625,42.48046875,44.921875,7.32421875,-29.78515625
1771542849.7814689,55.17578125,42.48046875,40.0390625,52.734375,74.21875
1771542849.785375,49.31640625,44.43359375,-31.73828125,80.56640625,50.78125
1771542849.7892814,22.94921875,46.875,11.23046875,31.73828125,22.94921875
1771542849.7931876,26.3671875,41.9921875,76.171875,-7.8125,80.078125
1771542849.7970939,50.29296875,40.52734375,29.78515625,34.66796875,67.3828125
1771542849.800125,44.43359375,40.52734375,-1.953125,65.4296875,62.98828125
1771542849.8040311,24.90234375,39.55078125,12.6953125,40.0390625,36.62109375
1771542849.8079374,26.3671875,39.55078125,18.5546875,1.953125,10.7421875
1771542849.8118436,48.33984375,46.38671875,2.9296875,11.71875,56.15234375
1771542849.81575,41.9921875,49.8046875,-8.30078125,52.24609375,37.109375
1771542849.8196561,21.484375,44.921875,-13.671875,56.15234375,-5.37109375
1771542849.8235624,16.11328125,42.48046875,19.53125,1.46484375,31.25
1771542849.8274686,28.3203125,39.0625,19.04296875,-8.7890625,55.6640625
1771542849.831375,43.9453125,44.43359375,-3.90625,41.015625,75.1953125
1771542849.8352811,30.2734375,50.29296875,26.3671875,57.6171875,38.0859375
1771542849.8391874,7.32421875,40.52734375,33.203125,13.18359375,27.34375
1771542849.8430936,14.6484375,36.62109375,43.9453125,-14.6484375,46.38671875
1771542849.844125,31.73828125,43.9453125,41.015625,19.53125,60.05859375
1771542849.8480313,36.62109375,49.8046875,16.11328125,59.08203125,78.61328125
1771542849.8519375,20.5078125,43.45703125,2.9296875,29.78515625,62.01171875
1771542849.8558438,19.04296875,37.109375,27.83203125,-11.71875,55.6640625
1771542849.85975,42.48046875,38.0859375,41.015625,13.18359375,76.171875
1771542849.8636563,39.0625,39.0625,1.953125,52.734375,77.63671875
1771542849.8675625,27.34375,37.109375,-12.20703125,53.22265625,59.08203125
1771542849.8714688,16.11328125,35.64453125,-19.53125,-1.953125,13.671875
1771542849.875375,28.3203125,39.0625,22.4609375,-9.765625,18.5546875
1771542849.8792813,33.203125,40.52734375,56.640625,39.55078125,61.03515625
1771542849.8831875,13.671875,42.96875,2.44140625,49.8046875,73.2421875
1771542849.8870938,13.671875,42.96875,10.25390625,-0.9765625,69.3359375
1771542849.889125,32.71484375,37.59765625,56.640625,-21.97265625,61.5234375
1771542849.8930314,32.71484375,42.96875,31.73828125,26.3671875,37.109375
1771542849.8969376,20.99609375,49.31640625,-1.46484375,61.5234375,67.87109375
1771542849.9008439,17.08984375,41.015625,10.7421875,20.5078125,75.68359375
1771542849.90475,43.9453125,57.6171875,33.203125,-1.46484375,52.24609375
1771542849.9086564,70.3125,62.5,20.5078125,41.50390625,92.28515625
1771542849.9125626,18.06640625,32.2265625,-19.53125,44.921875,73.2421875
1771542849.9164689,-10.7421875,26.85546875,-0.9765625,11.23046875,36.62109375
1771542849.920375,32.2265625,32.71484375,90.33203125,6.8359375,5.37109375
1771542849.9242814,63.96484375,24.90234375,99.12109375,42.96875,15.13671875
1771542849.9281876,75.1953125,15.13671875,42.96875,106.4453125,17.578125
1771542849.9320939,58.10546875,19.53125,59.08203125,105.46875,41.9921875
1771542849.934125,47.36328125,22.94921875,98.6328125,44.921875,68.359375
1771542849.9380312,74.70703125,17.578125,103.515625,61.5234375,87.40234375
1771542849.9419374,110.83984375,20.99609375,71.77734375,140.13671875,105.95703125
1771542849.9458437,111.328125,21.97265625,55.6640625,151.85546875,82.51953125
1771542849.94975,88.8671875,16.11328125,70.3125,95.21484375,16.6015625
1771542849.9536562,121.09375,12.20703125,79.58984375,100.09765625,6.34765625
1771542849.9575624,151.3671875,7.32421875,43.45703125,165.52734375,49.31640625
1771542849.9614687,139.6484375,4.39453125,58.10546875,190.91796875,55.6640625
1771542849.965375,126.46484375,1.46484375,106.4453125,149.90234375,56.640625
1771542849.9692812,119.140625,0.48828125,85.9375,105.95703125,35.15625
1771542849.9731874,133.7890625,2.9296875,76.66015625,136.23046875,65.4296875
1771542849.9770937,137.6953125,6.8359375,73.2421875,182.6171875,94.7265625
1771542849.994125,109.375,7.32421875,62.01171875,149.90234375,33.203125
1771542849.9980311,104.4921875,8.30078125,47.36328125,92.28515625,-15.13671875
1771542850.0019374,125.0,8.30078125,51.26953125,103.515625,-10.7421875
1771542850.0058436,125.48828125,6.8359375,75.68359375,153.3203125,25.87890625
1771542850.00975,110.83984375,12.20703125,59.08203125,153.3203125,28.80859375
1771542850.0136561,90.33203125,11.23046875,35.15625,96.6796875,45.41015625
1771542850.0175624,97.65625,11.71875,56.15234375,83.984375,96.6796875
1771542850.0214686,104.98046875,14.16015625,91.30859375,125.48828125,101.5625
1771542850.025375,93.75,12.6953125,53.7109375,141.6015625,55.17578125
1771542850.0292811,75.1953125,16.6015625,43.45703125,86.9140625,15.625
1771542850.0331874,75.68359375,18.5546875,75.68359375,58.59375,0.0
1771542850.0370936,90.8203125,17.578125,72.265625,101.07421875,19.53125
1771542850.039125,93.26171875,20.01953125,28.3203125,126.46484375,61.5234375
1771542850.0430312,72.75390625,20.99609375,29.296875,90.33203125,57.12890625
1771542850.0469375,62.01171875,22.4609375,76.66015625,47.36328125,33.69140625
1771542850.0508437,89.35546875,20.5078125,91.30859375,76.66015625,54.6875
1771542850.05475,93.75,23.4375,54.19921875,115.234375,135.7421875
1771542850.0586562,53.7109375,27.34375,8.30078125,93.26171875,72.75390625
1771542850.0625625,36.62109375,24.4140625,47.8515625,45.41015625,39.0625
1771542850.0664687,62.5,25.390625,93.26171875,42.48046875,123.046875
1771542850.070375,77.63671875,30.76171875,34.1796875,84.9609375,76.171875
1771542850.0742812,67.3828125,33.69140625,-25.87890625,95.21484375,37.109375
1771542850.0781875,41.50390625,30.76171875,38.57421875,39.55078125,22.4609375
1771542850.0820937,41.50390625,26.85546875,87.40234375,19.53125,-6.34765625
1771542850.085125,61.03515625,28.3203125,37.59765625,67.3828125,-2.9296875
1771542850.0890312,58.59375,32.2265625,26.3671875,95.703125,34.1796875
1771542850.0929375,27.34375,29.78515625,36.1328125,40.52734375,22.4609375
1771542850.0968437,32.71484375,29.296875,60.05859375,6.8359375,0.0
1771542850.10075,61.03515625,32.2265625,41.9921875,54.19921875,38.0859375
1771542850.1046562,61.5234375,34.1796875,-2.9296875,87.890625,38.0859375
1771542850.1085625,40.52734375,36.1328125,22.94921875,50.78125,36.62109375
1771542850.1124687,28.3203125,37.59765625,61.5234375,5.37109375,7.32421875
1771542850.116375,52.734375,39.0625,40.52734375,29.296875,35.15625
1771542850.1202812,64.453125,37.109375,7.8125,74.70703125,89.35546875
1771542850.1241875,40.0390625,36.1328125,44.43359375,60.546875,41.015625
1771542850.1280937,23.4375,37.59765625,56.640625,7.32421875,32.2265625
1771542850.129125,45.8984375,35.64453125,57.6171875,14.6484375,28.3203125
1771542850.1330314,62.01171875,34.66796875,50.29296875,65.4296875,52.734375
1771542850.1369376,49.8046875,36.1328125,31.25,77.63671875,69.82421875
1771542850.1408439,48.33984375,38.0859375,31.73828125,42.96875,35.64453125
1771542850.14475,77.63671875,42.96875,27.34375,34.1796875,46.875
1771542850.1486564,115.234375,51.26953125,5.37109375,104.00390625,40.52734375
1771542850.1525626,91.796875,41.50390625,10.25390625,122.55859375,13.671875
1771542850.1564689,33.69140625,25.87890625,40.52734375,45.41015625,-35.15625
1771542850.160375,60.546875,20.5078125,20.99609375,35.64453125,-42.48046875
1771542850.1642814,125.48828125,17.578125,48.828125,113.28125,7.8125
1771542850.1681876,122.55859375,13.671875,98.14453125,157.71484375,72.75390625
1771542850.1720939,95.21484375,8.7890625,58.59375,140.13671875,28.80859375
1771542850.175125,124.0234375,3.41796875,82.51953125,124.51171875,20.99609375
1771542850.1790311,152.34375,-4.8828125,113.28125,141.6015625,65.4296875
1771542850.1829374,151.3671875,-10.25390625,74.21875,179.6875,18.06640625
1771542850.1868436,157.71484375,-1.953125,47.8515625,194.82421875,-1.46484375
1771542850.19075,146.484375,1.46484375,78.61328125,146.484375,60.05859375
1771542850.1946561,132.8125,0.9765625,85.44921875,126.46484375,61.03515625
1771542850.1985624,140.13671875,0.9765625,73.2421875,171.875,21.97265625
1771542850.2024686,140.625,0.48828125,38.0859375,187.5,63.4765625
1771542850.206375,115.72265625,3.41796875,22.4609375,134.27734375,39.0625
1771542850.2102811,101.5625,1.46484375,108.3984375,101.5625,-4.8828125
1771542850.2141874,126.953125,1.953125,107.91015625,140.625,16.11328125
1771542850.2180936,124.51171875,9.27734375,61.03515625,165.0390625,60.05859375
1771542850.220125,83.984375,8.30078125,70.80078125,116.69921875,62.5
1771542850.2240312,83.0078125,6.8359375,91.796875,75.1953125,47.8515625
1771542850.2279375,97.65625,8.7890625,71.77734375,99.12109375,20.01953125
1771542850.2318437,90.33203125,9.27734375,42.96875,134.765625,15.625
1771542850.23575,71.2890625,10.7421875,47.8515625,112.3046875,50.29296875
1771542850.2396562,63.4765625,13.671875,57.12890625,55.6640625,55.6640625
1771542850.2435625,80.078125,10.25390625,56.15234375,59.08203125,10.25390625
1771542850.2474687,83.984375,12.6953125,4.39453125,104.4921875,-8.7890625
1771542850.251375,65.4296875,18.5546875,24.90234375,105.46875,2.44140625
1771542850.2552812,51.7578125,15.625,82.51953125,51.7578125,23.4375
1771542850.2591875,71.77734375,17.578125,61.03515625,48.33984375,28.3203125
1771542850.2630937,87.40234375,20.99609375,42.96875,96.6796875,45.41015625
1771542850.265125,71.77734375,24.4140625,48.33984375,108.88671875,40.0390625
1771542850.2690313,47.8515625,28.3203125,46.875,58.59375,-20.5078125
1771542850.2729375,55.17578125,25.87890625,57.6171875,28.3203125,19.53125
1771542850.2768438,80.56640625,31.25,51.7578125,71.2890625,46.875
1771542850.28075,74.21875,37.59765625,32.2265625,105.46875,39.0625
1771542850.2846563,43.9453125,29.296875,29.296875,67.3828125,36.62109375
1771542850.2885625,47.36328125,26.85546875,30.2734375,21.97265625,68.84765625
1771542850.2924688,70.3125,31.73828125,35.15625,40.52734375,86.9140625
1771542850.296375,60.546875,33.203125,54.19921875,76.171875,80.078125
1771542850.3002813,38.0859375,36.62109375,29.296875,66.40625,49.8046875
1771542850.3041875,37.109375,36.1328125,39.55078125,16.6015625,27.34375
1771542850.3080938,67.3828125,35.15625,54.19921875,22.4609375,46.38671875
1771542850.311125,64.453125,36.1328125,39.55078125,67.3828125,49.8046875
1771542850.3150313,40.52734375,35.64453125,29.296875,77.63671875,43.9453125
1771542850.3189375,43.9453125,34.66796875,26.85546875,31.25,23.4375
1771542850.3228438,46.38671875,29.78515625,62.01171875,5.37109375,1.953125
1771542850.32675,52.24609375,29.78515625,58.59375,51.7578125,21.97265625
1771542850.3306563,46.875,38.0859375,14.6484375,80.078125,57.12890625
1771542850.3345625,22.4609375,36.62109375,-8.7890625,31.25,47.8515625
1771542850.3384688,17.578125,26.3671875,46.38671875,-14.16015625,35.15625
1771542850.342375,33.69140625,32.2265625,82.51953125,30.2734375,64.94140625
1771542850.3462813,34.66796875,38.57421875,30.2734375,78.125,115.72265625
1771542850.3501875,16.11328125,36.1328125,18.06640625,41.015625,80.56640625
1771542850.3540938,31.73828125,19.53125,56.640625,20.5078125,37.59765625
1771542850.370125,92.28515625,16.6015625,72.75390625,81.54296875,82.03125
1771542850.3740313,72.265625,43.9453125,14.16015625,91.796875,81.0546875
1771542850.3779376,-24.90234375,56.15234375,-18.5546875,0.9765625,58.10546875
1771542850.3818438,-74.70703125,46.38671875,22.94921875,-93.26171875,-7.8125
1771542850.38575,-65.4296875,45.8984375,38.0859375,-97.65625,-9.765625
1771542850.3896563,-100.09765625,66.40625,-41.50390625,-94.23828125,26.85546875
1771542850.3935626,-144.04296875,66.89453125,-66.89453125,-118.1640625,53.7109375
1771542850.3974688,-170.41015625,67.3828125,-3.41796875,-184.08203125,77.63671875
1771542850.401375,-197.265625,80.078125,-3.41796875,-250.0,51.7578125
1771542850.4052813,-172.36328125,88.8671875,-84.47265625,-212.40234375,28.80859375
1771542850.4091876,-187.01171875,88.37890625,-110.83984375,-180.17578125,35.64453125
1771542850.4130938,-222.65625,87.40234375,-42.96875,-232.91015625,61.5234375
1771542850.414125,-222.65625,86.9140625,-39.0625,-282.71484375,36.62109375
1771542850.4180312,-217.7734375,84.47265625,-48.33984375,-255.37109375,18.5546875
1771542850.4219375,-197.75390625,85.44921875,-48.33984375,-200.1953125,94.7265625
1771542850.4258437,-208.0078125,79.58984375,-49.8046875,-210.9375,83.984375
1771542850.42975,-210.9375,78.125,-44.43359375,-243.1640625,53.22265625
1771542850.4336562,-162.109375,79.58984375,-50.78125,-207.03125,43.45703125
1771542850.4375625,-133.7890625,72.265625,-54.19921875,-146.484375,13.671875
1771542850.4414687,-152.83203125,70.3125,-27.83203125,-132.8125,62.98828125
1771542850.445375,-156.73828125,74.21875,-29.296875,-168.9453125,73.2421875
1771542850.4492812,-108.88671875,71.2890625,-48.828125,-161.62109375,38.57421875
1771542850.4531875,-86.42578125,69.3359375,-9.27734375,-97.16796875,91.30859375
1771542850.4570937,-102.05078125,72.75390625,-0.9765625,-75.68359375,113.28125
1771542850.459125,-107.421875,71.77734375,-44.921875,-115.72265625,54.6875
1771542850.4630313,-97.16796875,65.91796875,-32.2265625,-127.9296875,36.62109375
1771542850.4669375,-69.3359375,61.5234375,18.5546875,-80.56640625,60.05859375
1771542850.4708438,-60.05859375,63.4765625,-11.23046875,-41.50390625,41.50390625
1771542850.47475,-72.75390625,69.3359375,-25.87890625,-73.2421875,22.4609375
1771542850.4786563,-56.15234375,63.96484375,-2.9296875,-102.05078125,45.41015625
1771542850.4825625,-29.78515625,60.05859375,6.8359375,-65.4296875,59.08203125
1771542850.4864688,-27.83203125,62.98828125,4.8828125,-21.97265625,57.12890625
1771542850.490375,-54.19921875,63.96484375,-29.296875,-37.59765625,68.84765625
1771542850.4942813,-54.6875,60.546875,-37.109375,-77.1484375,47.36328125
1771542850.4981875,-30.76171875,57.12890625,41.9921875,-62.01171875,19.04296875
1771542850.5020938,-24.90234375,53.22265625,22.94921875,-17.578125,-4.8828125
1771542850.504125,-20.99609375,52.24609375,-12.20703125,-9.27734375,-22.4609375
1771542850.5080314,-34.1796875,54.19921875,21.97265625,-47.8515625,9.765625
1771542850.5119376,-26.3671875,52.734375,36.62109375,-55.6640625,-2.44140625
1771542850.5158439,7.8125,53.22265625,14.16015625,-7.8125,-21.484375
1771542850.51975,1.46484375,57.6171875,1.953125,18.06640625,45.41015625
1771542850.5236564,-22.94921875,62.5,11.23046875,-20.99609375,78.61328125
1771542850.5275626,-13.671875,56.15234375,43.45703125,-48.33984375,61.5234375
1771542850.5314689,5.859375,52.734375,46.38671875,-5.37109375,69.82421875
1771542850.535375,-5.37109375,56.640625,-26.85546875,26.3671875,46.875
1771542850.5392814,-23.92578125,57.6171875,-0.9765625,-7.8125,47.8515625
1771542850.5431876,-15.625,53.22265625,66.40625,-41.015625,54.6875
1771542850.5470939,-1.953125,50.29296875,31.25,-14.16015625,3.90625
1771542850.549125,19.04296875,53.7109375,-5.37109375,31.73828125,-10.25390625
1771542850.5530312,7.8125,51.7578125,32.71484375,24.4140625,53.22265625
1771542850.5569375,-20.99609375,50.29296875,39.55078125,-20.99609375,35.64453125
1771542850.5608437,-4.39453125,47.36328125,27.34375,-21.97265625,-1.46484375
1771542850.56475,21.97265625,45.41015625,15.625,27.83203125,11.71875
1771542850.5686562,15.625,48.33984375,-6.8359375,42.48046875,17.08984375
1771542850.5725625,-1.46484375,45.41015625,24.90234375,-13.671875,13.18359375
1771542850.5764687,15.13671875,44.921875,37.109375,-29.78515625,41.50390625
1771542850.580375,34.66796875,48.33984375,10.7421875,23.92578125,54.19921875
1771542850.5842812,23.4375,52.734375,35.15625,50.29296875,4.39453125
1771542850.5881875,9.27734375,49.31640625,38.0859375,8.30078125,-0.9765625
1771542850.5920937,10.7421875,46.38671875,39.0625,-26.3671875,18.5546875
1771542850.594125,33.203125,49.8046875,33.203125,14.16015625,-13.18359375
1771542850.5980313,35.15625,45.41015625,33.69140625,47.8515625,-3.90625
1771542850.6019375,6.34765625,44.43359375,22.94921875,22.4609375,32.2265625
1771542850.6058438,2.9296875,43.9453125,23.92578125,-13.18359375,61.03515625
1771542850.60975,22.94921875,41.50390625,45.41015625,-4.39453125,65.4296875
1771542850.6136563,39.55078125,51.26953125,16.11328125,45.41015625,18.06640625
1771542850.6175625,31.73828125,49.31640625,5.37109375,50.78125,41.9921875
1771542850.6214688,9.27734375,38.0859375,6.34765625,-3.41796875,75.1953125
1771542850.625375,30.2734375,39.55078125,45.41015625,-4.39453125,72.75390625
1771542850.6292813,53.22265625,43.9453125,62.5,41.9921875,56.15234375
1771542850.6331875,41.50390625,44.921875,9.765625,52.24609375,23.92578125
1771542850.6370938,24.4140625,41.9921875,21.484375,10.25390625,28.3203125
1771542850.640125,24.4140625,40.52734375,67.3828125,-11.71875,43.9453125
1771542850.6440313,60.05859375,35.15625,48.828125,56.15234375,15.625
1771542850.6479375,83.984375,25.87890625,-5.37109375,118.65234375,13.671875
1771542850.6518438,20.01953125,41.9921875,14.6484375,27.83203125,42.48046875
1771542850.65575,-14.6484375,57.6171875,48.828125,-62.5,37.59765625
1771542850.6596563,39.0625,49.31640625,20.99609375,-2.9296875,9.27734375
1771542850.6635625,29.78515625,49.8046875,-27.34375,45.8984375,45.41015625
1771542850.6674688,4.8828125,53.7109375,-31.25,18.06640625,58.59375
1771542850.671375,11.71875,50.78125,45.41015625,-20.01953125,24.90234375
1771542850.6752813,4.8828125,49.31640625,59.08203125,-26.3671875,81.54296875
1771542850.6791875,16.6015625,44.921875,18.5546875,29.296875,95.703125
1771542850.6830938,20.5078125,40.0390625,13.18359375,52.24609375,103.515625
1771542850.684125,13.18359375,39.0625,34.1796875,-5.859375,114.2578125
1771542850.6880312,36.1328125,37.59765625,35.15625,-15.625,56.15234375
1771542850.6919374,50.29296875,39.0625,11.23046875,33.69140625,25.87890625
1771542850.6958437,38.57421875,45.41015625,13.671875,53.7109375,92.28515625
1771542850.69975,17.578125,42.48046875,14.16015625,13.671875,95.21484375
1771542850.7036562,26.85546875,38.57421875,19.53125,-12.20703125,10.25390625
1771542850.7075624,53.7109375,44.43359375,-11.71875,27.34375,34.1796875
1771542850.7114687,51.7578125,42.96875,-11.71875,59.08203125,74.21875
1771542850.715375,15.625,35.15625,52.24609375,16.11328125,51.26953125
1771542850.7192812,11.23046875,35.15625,48.33984375,-22.4609375,46.38671875
1771542850.7231874,39.55078125,34.66796875,27.83203125,7.8125,41.50390625
1771542850.7270937,45.8984375,37.109375,16.6015625,49.8046875,26.85546875
1771542850.744125,12.20703125,42.48046875,21.97265625,41.015625,31.73828125
1771542850.7480311,-0.48828125,37.59765625,29.296875,-4.39453125,52.24609375
1771542850.7519374,35.15625,38.0859375,39.0625,1.46484375,66.89453125
1771542850.7558436,47.8515625,41.50390625,32.71484375,51.7578125,49.31640625
1771542850.75975,31.25,38.0859375,17.08984375,60.05859375,62.5
1771542850.7636561,11.23046875,34.66796875,-15.625,7.8125,-3.90625
1771542850.7675624,19.04296875,38.57421875,-6.34765625,-4.8828125,-27.83203125
1771542850.7714686,38.0859375,36.62109375,45.41015625,44.43359375,-6.34765625
1771542850.775375,34.66796875,36.1328125,41.9921875,67.3828125,-5.37109375
1771542850.7792811,21.97265625,40.0390625,20.5078125,24.4140625,25.390625
1771542850.7831874,24.90234375,36.62109375,46.875,-8.7890625,36.1328125
1771542850.7870936,42.48046875,37.59765625,60.05859375,21.97265625,53.7109375
1771542850.789125,40.52734375,41.50390625,21.97265625,56.640625,41.9921875
1771542850.7930312,15.13671875,39.0625,20.01953125,32.71484375,18.5546875
1771542850.7969375,11.23046875,38.57421875,57.6171875,-14.16015625,38.0859375
1771542850.8008437,29.78515625,35.15625,69.3359375,1.953125,92.7734375
1771542850.80475,29.296875,34.1796875,32.2265625,56.15234375,94.7265625
1771542850.8086562,14.16015625,34.1796875,-2.9296875,50.78125,38.57421875
1771542850.8125625,10.7421875,22.94921875,22.94921875,-7.8125,40.52734375
1771542850.8164687,21.484375,23.92578125,66.89453125,-3.90625,70.80078125
1771542850.820375,25.87890625,38.57421875,36.1328125,47.36328125,54.19921875
1771542850.8242812,16.11328125,40.0390625,-40.52734375,59.5703125,35.15625
1771542850.8281875,4.8828125,35.15625,5.859375,7.8125,6.8359375
1771542850.8320937,9.27734375,35.64453125,87.40234375,-22.4609375,-0.48828125
1771542850.834125,24.90234375,38.57421875,36.62109375,29.78515625,22.94921875
1771542850.8380313,36.1328125,37.109375,4.8828125,67.3828125,12.6953125
1771542850.8419375,28.80859375,26.85546875,39.55078125,35.15625,7.8125
1771542850.8458438,62.01171875,19.53125,63.4765625,35.15625,41.50390625
1771542850.84975,86.42578125,25.390625,40.52734375,78.125,56.15234375
1771542850.8536563,43.9453125,41.9921875,8.30078125,75.68359375,76.66015625
1771542850.8575625,37.59765625,41.9921875,18.5546875,56.15234375,96.6796875
1771542850.8614688,91.30859375,26.85546875,62.01171875,64.453125,72.75390625
1771542850.865375,141.6015625,25.87890625,35.64453125,120.60546875,30.2734375
1771542850.8692813,162.109375,24.90234375,12.6953125,195.80078125,37.59765625
1771542850.8731875,182.12890625,16.6015625,68.359375,215.33203125,66.40625
1771542850.8770938,195.3125,11.71875,62.98828125,191.89453125,71.2890625
1771542850.880125,209.47265625,10.25390625,59.08203125,199.70703125,31.73828125
1771542850.8840313,216.796875,8.7890625,73.2421875,233.3984375,-14.16015625
1771542850.8879375,198.2421875,11.23046875,70.3125,243.1640625,32.71484375
1771542850.8918438,180.6640625,11.23046875,59.5703125,195.80078125,24.90234375
1771542850.89575,183.10546875,7.8125,77.63671875,166.50390625,25.390625
1771542850.8996563,200.1953125,16.6015625,75.1953125,195.80078125,120.60546875
1771542850.9035625,187.01171875,18.5546875,43.9453125,218.26171875,107.421875
1771542850.9074688,155.2734375,12.20703125,48.33984375,172.8515625,52.24609375
1771542850.911375,159.66796875,14.6484375,36.1328125,122.55859375,52.734375
1771542850.9152813,178.22265625,22.94921875,60.546875,140.13671875,15.13671875
1771542850.9191875,168.9453125,22.94921875,75.68359375,182.12890625,9.27734375
1771542850.9230938,138.18359375,19.04296875,30.76171875,157.2265625,6.8359375
1771542850.925125,121.58203125,18.06640625,58.59375,91.30859375,49.8046875
1771542850.9290311,132.32421875,20.01953125,77.63671875,99.609375,89.84375
1771542850.9329374,128.41796875,21.484375,42.48046875,151.3671875,48.33984375
1771542850.9368436,102.05078125,28.80859375,17.08984375,145.5078125,77.1484375
1771542850.94075,87.40234375,28.3203125,31.73828125,88.8671875,111.328125
1771542850.9446561,109.375,19.04296875,59.5703125,83.984375,48.828125
1771542850.9485624,120.60546875,23.92578125,56.15234375,125.48828125,42.96875
1771542850.9524686,111.328125,24.90234375,23.4375,145.99609375,86.9140625
1771542850.956375,90.8203125,28.3203125,27.83203125,102.05078125,45.41015625
1771542850.9602811,88.37890625,30.76171875,82.03125,63.96484375,13.671875
1771542850.9641874,113.76953125,28.80859375,65.91796875,101.5625,33.69140625
1771542850.9680936,107.421875,35.64453125,20.01953125,131.34765625,41.015625
1771542850.969125,69.3359375,35.64453125,28.3203125,89.84375,1.953125
1771542850.9730313,61.03515625,33.69140625,68.359375,41.9921875,14.6484375
1771542850.9769375,89.84375,29.296875,62.5,68.359375,14.16015625
1771542850.9808438,91.30859375,33.69140625,13.18359375,111.328125,40.0390625
1771542850.98475,53.22265625,36.62109375,8.7890625,90.8203125,30.2734375
1771542850.9886563,37.109375,27.34375,48.33984375,34.66796875,7.8125
1771542850.9925625,60.05859375,32.71484375,62.01171875,38.57421875,34.66796875
1771542850.9964688,79.1015625,35.64453125,1.953125,89.35546875,15.13671875
1771542851.000375,55.17578125,32.2265625,7.32421875,83.984375,13.18359375
1771542851.0042813,28.80859375,30.76171875,88.8671875,28.3203125,69.82421875
1771542851.0081875,41.015625,31.25,64.94140625,23.92578125,57.12890625
1771542851.0120938,63.4765625,34.66796875,37.109375,67.3828125,36.1328125
1771542851.014125,59.5703125,34.66796875,37.109375,84.47265625,50.78125
1771542851.0180314,35.64453125,34.66796875,39.55078125,43.45703125,50.78125
1771542851.0219376,44.921875,33.69140625,46.38671875,15.13671875,59.5703125
1771542851.0258439,62.01171875,28.80859375,37.109375,55.6640625,-14.16015625
1771542851.02975,60.546875,40.0390625,28.80859375,92.28515625,-16.6015625
1771542851.0336564,52.24609375,40.52734375,18.5546875,74.21875,20.5078125
1771542851.0375626,74.21875,28.80859375,14.16015625,41.015625,5.859375
1771542851.0414689,124.51171875,25.390625,13.18359375,86.9140625,42.96875
1771542851.045375,106.4453125,38.57421875,47.8515625,125.0,12.20703125
1771542851.0492814,46.38671875,48.33984375,56.15234375,76.66015625,12.6953125
1771542851.0531876,50.29296875,34.66796875,60.546875,48.33984375,91.30859375
1771542851.0570939,113.28125,24.4140625,75.68359375,93.26171875,95.703125
1771542851.060125,154.296875,27.83203125,55.6640625,172.36328125,54.6875
1771542851.0640314,145.99609375,23.92578125,33.203125,188.4765625,36.62109375
1771542851.0679376,139.16015625,20.5078125,48.828125,142.08984375,34.1796875
1771542851.0718439,153.80859375,12.20703125,93.75,121.09375,88.37890625
1771542851.07575,154.78515625,12.20703125,80.078125,153.3203125,107.91015625
1771542851.0796564,151.85546875,11.71875,36.1328125,191.40625,92.7734375
1771542851.0835626,151.85546875,3.90625,18.06640625,169.921875,41.50390625
1771542851.0874689,156.25,11.23046875,78.125,129.8828125,34.66796875
1771542851.091375,148.92578125,16.11328125,105.95703125,143.06640625,91.796875
1771542851.0952814,135.7421875,14.16015625,33.203125,179.19921875,76.171875
1771542851.0991876,124.51171875,14.16015625,38.0859375,154.78515625,44.921875
1771542851.1030939,120.60546875,14.6484375,97.65625,99.609375,92.28515625
1771542851.120125,132.8125,18.06640625,86.42578125,106.4453125,35.64453125
1771542851.1240313,129.39453125,15.625,41.9921875,144.53125,12.6953125
1771542851.1279376,110.3515625,17.578125,34.1796875,143.06640625,67.3828125
1771542851.1318438,93.75,18.5546875,64.453125,89.35546875,34.1796875
1771542851.13575,98.6328125,20.99609375,74.21875,73.73046875,-15.625
1771542851.1396563,108.88671875,20.99609375,20.5078125,118.1640625,1.46484375
1771542851.1435626,102.05078125,22.94921875,14.16015625,138.18359375,57.12890625
1771542851.1474688,80.078125,27.83203125,75.68359375,84.47265625,48.33984375
1771542851.151375,83.0078125,26.85546875,82.51953125,53.7109375,38.0859375
1771542851.1552813,91.796875,32.71484375,63.4765625,97.65625,70.3125
1771542851.1591876,79.58984375,29.296875,33.203125,120.1171875,56.640625
1771542851.1630938,69.82421875,25.87890625,18.06640625,84.9609375,-30.76171875
1771542851.165125,74.21875,27.83203125,60.05859375,44.921875,-36.1328125
1771542851.1690311,98.14453125,26.85546875,66.89453125,63.96484375,-7.8125
1771542851.1729374,94.7265625,33.203125,44.921875,104.00390625,-37.59765625
1771542851.1768436,62.98828125,31.73828125,62.01171875,89.84375,27.83203125
1771542851.18075,44.43359375,30.2734375,68.84765625,29.78515625,74.70703125
1771542851.1846561,62.98828125,32.2265625,49.31640625,34.1796875,56.640625
1771542851.1885624,77.1484375,33.203125,37.59765625,86.9140625,64.94140625
1771542851.1924686,58.59375,31.73828125,41.9921875,82.51953125,62.01171875
1771542851.196375,36.1328125,32.2265625,34.66796875,28.80859375,70.3125
1771542851.2002811,43.9453125,35.64453125,34.1796875,20.01953125,20.01953125
1771542851.2041874,62.5,34.66796875,45.8984375,67.87109375,18.5546875
1771542851.2080936,63.96484375,38.57421875,29.296875,88.37890625,40.52734375
1771542851.225125,49.8046875,42.96875,6.34765625,42.48046875,54.19921875
1771542851.2290313,41.9921875,46.875,2.9296875,13.671875,53.7109375
1771542851.2329376,50.78125,44.921875,37.59765625,43.45703125,-8.7890625
1771542851.2368438,42.96875,35.15625,33.203125,71.2890625,-34.66796875
1771542851.24075,24.90234375,39.55078125,1.46484375,46.38671875,-6.34765625
1771542851.2446563,15.13671875,41.015625,17.578125,0.9765625,68.84765625
1771542851.2485626,25.390625,35.15625,46.38671875,15.13671875,65.91796875
1771542851.2524688,34.66796875,36.1328125,42.96875,61.5234375,22.4609375
1771542851.256375,27.83203125,39.0625,-1.46484375,58.10546875,39.0625
1771542851.2602813,11.23046875,34.66796875,12.6953125,5.859375,57.12890625
1771542851.2641876,14.6484375,34.66796875,85.44921875,0.9765625,83.984375
1771542851.2680938,33.203125,36.62109375,47.36328125,48.33984375,89.84375
1771542851.254125,18.06640625,36.62109375,15.625,54.6875,41.015625
1771542851.2580314,1.46484375,35.15625,46.875,10.25390625,38.57421875
1771542851.2619376,31.25,36.62109375,62.01171875,-10.7421875,17.578125
1771542851.2658439,39.55078125,38.0859375,31.25,23.4375,-24.90234375
1771542851.26975,10.7421875,32.71484375,3.41796875,58.10546875,14.6484375
1771542851.2736564,5.37109375,32.2265625,16.11328125,30.2734375,24.90234375
1771542851.2775626,18.06640625,37.109375,46.875,5.37109375,27.34375
1771542851.2814689,33.69140625,41.9921875,36.62109375,33.203125,62.01171875
1771542851.285375,32.71484375,48.33984375,-5.37109375,47.8515625,44.921875
1771542851.2892814,5.37109375,51.7578125,14.6484375,23.4375,20.01953125
1771542851.2931876,-3.41796875,47.36328125,41.9921875,-24.4140625,-26.3671875
1771542851.2970939,19.04296875,47.36328125,17.578125,-16.11328125,-32.71484375
1771542851.299125,32.71484375,44.921875,-9.765625,37.59765625,46.38671875
1771542851.3030312,16.6015625,39.0625,25.390625,43.9453125,53.7109375
1771542851.3069375,-1.46484375,39.0625,56.15234375,-4.39453125,23.92578125
1771542851.3108437,17.578125,41.9921875,27.34375,-12.20703125,29.78515625
1771542851.31475,35.64453125,42.96875,-0.9765625,51.7578125,33.69140625
1771542851.3186562,20.5078125,34.1796875,20.99609375,65.4296875,87.40234375
1771542851.3225625,5.37109375,32.71484375,29.296875,6.8359375,87.890625
1771542851.3264687,24.4140625,35.64453125,12.6953125,-6.34765625,19.04296875
1771542851.330375,35.64453125,34.66796875,-15.625,33.69140625,-15.13671875
1771542851.3342812,23.4375,36.62109375,24.4140625,57.12890625,-3.41796875
1771542851.3381875,12.6953125,35.64453125,44.43359375,18.06640625,36.62109375
1771542851.3420937,24.4140625,39.0625,42.96875,-20.99609375,6.8359375
1771542851.344125,43.45703125,41.015625,58.10546875,12.20703125,88.37890625
1771542851.3480313,48.33984375,37.59765625,33.69140625,53.7109375,106.4453125
1771542851.3519375,31.25,39.0625,17.578125,38.0859375,72.75390625
1771542851.3558438,13.18359375,37.109375,24.4140625,-14.6484375,50.29296875
1771542851.35975,33.203125,32.71484375,26.85546875,0.0,-6.8359375
1771542851.3636563,35.64453125,41.015625,1.953125,43.9453125,-10.7421875
1771542851.3675625,20.99609375,45.8984375,-2.44140625,48.828125,41.50390625
1771542851.3714688,16.11328125,40.52734375,-8.7890625,3.90625,17.578125
1771542851.375375,25.390625,40.52734375,26.85546875,-14.6484375,-4.39453125
1771542851.3792813,39.55078125,41.9921875,50.78125,33.69140625,31.25
1771542851.3831875,38.57421875,42.96875,11.23046875,59.08203125,29.296875
1771542851.3870938,24.4140625,40.0390625,22.94921875,13.18359375,88.8671875
1771542851.389125,17.578125,38.57421875,71.77734375,-20.99609375,143.5546875
1771542851.3930314,33.203125,40.52734375,43.9453125,20.01953125,55.17578125
1771542851.3969376,41.9921875,41.015625,-3.41796875,59.08203125,33.203125
1771542851.4008439,16.6015625,40.52734375,13.671875,27.34375,74.21875
1771542851.40475,1.953125,36.1328125,53.7109375,-15.625,54.6875
1771542851.4086564,19.53125,35.15625,42.96875,5.859375,60.546875
1771542851.4125626,36.1328125,36.62109375,-13.671875,48.828125,18.5546875
1771542851.4164689,26.85546875,42.96875,-12.6953125,39.55078125,9.765625
1771542851.420375,14.16015625,39.55078125,72.265625,-9.27734375,39.55078125
1771542851.4242814,40.52734375,30.76171875,79.1015625,0.48828125,57.12890625
1771542851.4281876,44.43359375,38.57421875,23.92578125,51.26953125,42.48046875
1771542851.4320939,20.01953125,40.52734375,11.71875,58.10546875,26.85546875
1771542851.435125,12.6953125,36.1328125,59.5703125,3.41796875,66.40625
1771542851.4390314,24.4140625,40.0390625,69.3359375,-17.08984375,102.5390625
1771542851.4429376,39.55078125,43.45703125,26.85546875,38.57421875,85.44921875
1771542851.4468439,30.2734375,41.50390625,28.3203125,56.640625,91.30859375
1771542851.45075,19.53125,38.0859375,43.9453125,11.71875,73.73046875
1771542851.4546564,31.25,37.109375,43.45703125,-9.27734375,72.75390625
1771542851.4585626,42.96875,39.55078125,2.44140625,24.90234375,29.296875
1771542851.4624689,32.71484375,46.38671875,15.625,57.6171875,0.9765625
1771542851.466375,14.6484375,41.015625,63.96484375,34.66796875,33.203125
1771542851.4702814,20.5078125,34.1796875,50.78125,0.48828125,23.4375
1771542851.4741876,53.7109375,44.43359375,38.57421875,25.390625,10.25390625
1771542851.4780939,88.8671875,55.17578125,17.578125,87.890625,-30.76171875
1771542851.480125,66.89453125,42.96875,31.73828125,91.30859375,28.3203125
1771542851.4840312,1.953125,29.296875,32.71484375,1.46484375,56.15234375
1771542851.4879375,-3.41796875,33.69140625,43.9453125,-23.4375,35.15625
1771542851.4918437,42.96875,34.66796875,70.3125,51.7578125,82.03125
1771542851.49575,40.0390625,30.2734375,45.8984375,76.171875,72.265625
1771542851.4996562,-13.671875,23.92578125,16.11328125,-3.41796875,30.76171875
1771542851.5035625,-19.04296875,23.4375,37.109375,-36.1328125,79.1015625
1771542851.5074687,10.7421875,28.80859375,78.61328125,16.11328125,81.54296875
1771542851.511375,7.8125,27.34375,48.33984375,45.41015625,15.625
1771542851.5152812,-9.765625,26.3671875,36.1328125,12.20703125,9.765625
1771542851.5191875,0.48828125,26.3671875,75.68359375,-25.390625,80.078125
1771542851.5230937,22.4609375,29.296875,71.77734375,12.6953125,86.9140625
1771542851.539125,24.4140625,28.80859375,30.2734375,62.98828125,5.859375
1771542851.5430312,2.44140625,26.85546875,30.2734375,37.109375,24.90234375
1771542851.5469375,-3.41796875,27.34375,62.5,-8.7890625,45.8984375
1771542851.5508437,14.16015625,26.3671875,57.12890625,1.46484375,46.875
1771542851.55475,24.90234375,24.4140625,34.1796875,45.41015625,62.98828125
1771542851.5586562,10.7421875,26.3671875,-10.7421875,51.26953125,26.85546875
1771542851.5625625,-3.90625,29.296875,22.4609375,-2.44140625,11.23046875
1771542851.5664687,3.41796875,29.78515625,97.16796875,-9.765625,7.8125
1771542851.570375,20.5078125,32.2265625,44.43359375,41.50390625,2.9296875
1771542851.5742812,23.92578125,34.66796875,25.87890625,55.6640625,45.41015625
1771542851.5781875,-0.48828125,32.2265625,52.734375,7.8125,73.73046875
1771542851.5820937,9.765625,38.0859375,56.15234375,-15.625,60.05859375
1771542851.584125,31.73828125,41.9921875,35.15625,26.85546875,66.89453125
1771542851.5880313,16.6015625,36.1328125,9.765625,54.6875,32.71484375
1771542851.5919375,1.46484375,32.71484375,40.0390625,17.578125,21.97265625
1771542851.5958438,13.671875,32.71484375,62.5,-16.6015625,48.828125
1771542851.59975,34.66796875,35.64453125,38.57421875,17.08984375,57.12890625
1771542851.6036563,38.0859375,36.62109375,10.25390625,54.6875,46.875
1771542851.6075625,16.6015625,37.59765625,21.97265625,39.55078125,51.7578125
1771542851.6114688,-2.9296875,37.109375,56.15234375,-5.37109375,40.52734375
1771542851.615375,17.08984375,33.69140625,30.76171875,-1.953125,16.6015625
1771542851.6192813,24.90234375,39.0625,-18.06640625,41.9921875,48.33984375
1771542851.6231875,2.9296875,42.48046875,26.85546875,43.45703125,28.3203125
1771542851.6270938,-14.6484375,36.62109375,63.4765625,-6.34765625,-4.39453125
1771542851.629125,17.08984375,39.0625,64.94140625,-12.20703125,30.2734375
1771542851.6330314,35.15625,42.48046875,50.29296875,41.50390625,47.8515625
1771542851.6369376,14.16015625,42.48046875,36.62109375,65.91796875,58.59375
1771542851.6408439,2.9296875,37.59765625,40.0390625,19.04296875,76.171875
1771542851.64475,12.6953125,34.1796875,48.33984375,-16.6015625,70.3125
1771542851.6486564,36.1328125,41.9921875,31.73828125,26.3671875,39.55078125
1771542851.6525626,29.78515625,40.0390625,13.671875,64.453125,35.15625
1771542851.6564689,12.20703125,37.59765625,28.80859375,25.87890625,53.22265625
1771542851.660375,10.7421875,42.48046875,13.18359375,-22.94921875,58.59375
1771542851.6642814,29.296875,35.15625,33.203125,4.8828125,8.30078125
1771542851.6681876,35.15625,36.1328125,72.265625,48.828125,-4.8828125
1771542851.6720939,18.5546875,41.015625,24.90234375,34.66796875,24.90234375
1771542851.674125,16.11328125,35.64453125,29.296875,-14.6484375,4.8828125
1771542851.6780312,33.203125,38.0859375,76.171875,-14.6484375,30.76171875
1771542851.6819375,39.55078125,40.52734375,48.828125,37.109375,57.12890625
1771542851.6858437,21.484375,38.0859375,4.8828125,56.15234375,36.62109375
1771542851.68975,-5.859375,35.64453125,27.83203125,6.34765625,21.97265625
1771542851.6936562,9.27734375,34.66796875,53.22265625,-16.11328125,73.2421875
1771542851.6975625,32.71484375,37.109375,48.828125,22.4609375,92.7734375
1771542851.7014687,22.4609375,39.55078125,-6.8359375,49.31640625,35.64453125
1771542851.705375,14.6484375,36.1328125,-10.25390625,9.765625,-2.9296875
1771542851.7092812,19.04296875,33.203125,80.078125,-18.06640625,6.34765625
1771542851.7131875,30.76171875,37.59765625,60.05859375,27.34375,24.90234375
1771542851.7170937,37.109375,39.0625,-0.48828125,59.5703125,37.109375
1771542851.719125,26.85546875,38.0859375,25.87890625,32.71484375,48.828125
1771542851.7230313,11.23046875,36.62109375,70.80078125,-8.30078125,43.9453125
1771542851.7269375,25.390625,37.59765625,58.10546875,5.859375,43.9453125
1771542851.7308438,38.0859375,36.1328125,25.87890625,54.19921875,11.23046875
1771542851.73475,27.83203125,42.48046875,25.390625,49.31640625,29.296875
1771542851.7386563,20.99609375,38.0859375,30.2734375,-5.859375,37.109375
1771542851.7425625,42.96875,32.71484375,50.29296875,-3.90625,13.671875
1771542851.7464688,59.5703125,39.0625,6.34765625,45.41015625,20.5078125
1771542851.750375,44.921875,40.52734375,9.765625,55.17578125,4.39453125
1771542851.7542813,24.4140625,36.1328125,73.2421875,7.32421875,31.25
1771542851.7581875,23.92578125,34.66796875,51.26953125,-14.16015625,16.11328125
1771542851.7620938,41.50390625,38.57421875,34.1796875,28.3203125,11.23046875
1771542851.765125,34.66796875,40.0390625,35.15625,54.6875,62.01171875
1771542851.7690313,17.578125,42.48046875,36.1328125,20.5078125,64.94140625
1771542851.7729375,28.3203125,41.9921875,43.9453125,-4.8828125,81.54296875
1771542851.7768438,45.41015625,39.0625,34.1796875,25.390625,72.75390625
1771542851.78075,41.9921875,46.38671875,24.4140625,63.4765625,12.6953125
1771542851.7846563,26.3671875,43.9453125,24.90234375,45.8984375,75.68359375
1771542851.7885625,19.04296875,35.15625,24.4140625,-8.7890625,124.0234375
1771542851.7924688,29.296875,39.55078125,23.92578125,-3.41796875,40.52734375
1771542851.796375,38.0859375,40.0390625,57.12890625,48.33984375,23.92578125
1771542851.8002813,32.71484375,38.0859375,46.875,54.6875,62.98828125
1771542851.8041875,11.71875,39.0625,20.01953125,-0.9765625,26.85546875
1771542851.8080938,23.92578125,35.15625,47.36328125,-12.20703125,-19.04296875
1771542851.809125,49.31640625,40.52734375,58.10546875,38.0859375,30.76171875
1771542851.8130312,34.1796875,47.36328125,22.4609375,51.7578125,64.453125
1771542851.8169374,13.18359375,41.9921875,30.76171875,14.6484375,40.0390625
1771542851.8208437,14.16015625,41.9921875,51.7578125,-9.27734375,35.64453125
1771542851.82475,33.69140625,42.96875,44.921875,25.390625,43.45703125
1771542851.8286562,36.1328125,41.50390625,13.671875,60.05859375,-6.34765625
1771542851.8325624,12.6953125,47.36328125,-8.30078125,26.3671875,5.859375
1771542851.8364687,5.37109375,43.9453125,49.8046875,-17.08984375,88.37890625
1771542851.840375,34.66796875,38.0859375,96.19140625,11.23046875,95.703125
1771542851.8442812,38.57421875,42.48046875,36.62109375,55.6640625,39.55078125
1771542851.8481874,18.06640625,43.9453125,16.11328125,42.96875,24.4140625
1771542851.8520937,16.6015625,41.9921875,62.01171875,-1.46484375,73.73046875
1771542851.854125,30.2734375,37.109375,78.61328125,3.90625,113.28125
1771542851.8580313,32.71484375,39.0625,27.83203125,47.36328125,85.9375
1771542851.8619375,19.04296875,41.9921875,8.30078125,55.6640625,40.0390625
1771542851.8658438,4.8828125,40.0390625,49.8046875,6.34765625,43.9453125
1771542851.86975,22.94921875,39.55078125,74.70703125,-8.30078125,67.3828125
1771542851.8736563,43.9453125,41.50390625,14.16015625,45.8984375,95.703125
1771542851.8775625,34.66796875,46.38671875,-22.94921875,70.80078125,90.33203125
1771542851.8814688,12.20703125,41.9921875,49.8046875,20.01953125,56.15234375
1771542851.885375,14.16015625,40.0390625,72.265625,-12.6953125,15.625
1771542851.8892813,39.0625,45.41015625,32.2265625,27.34375,33.203125
1771542851.8931875,35.15625,41.015625,19.53125,59.5703125,81.54296875
1771542851.8970938,8.30078125,40.0390625,42.48046875,30.2734375,50.29296875
1771542851.915125,15.13671875,41.50390625,59.5703125,-5.859375,54.6875
1771542851.9190311,34.1796875,41.015625,56.15234375,10.25390625,82.03125
1771542851.9229374,37.109375,42.48046875,27.83203125,55.6640625,45.41015625
1771542851.9268436,20.01953125,43.45703125,18.06640625,49.8046875,-7.8125
1771542851.93075,15.625,41.50390625,46.875,-1.46484375,0.0
1771542851.9346561,34.1796875,38.57421875,42.96875,4.39453125,23.92578125
1771542851.9385624,40.52734375,40.0390625,27.83203125,49.31640625,16.11328125
1771542851.9424686,27.83203125,42.96875,42.48046875,60.546875,36.62109375
1771542851.946375,13.671875,41.9921875,46.38671875,9.765625,36.1328125
1771542851.9502811,28.3203125,38.0859375,20.5078125,-11.71875,31.25
1771542851.9541874,25.87890625,36.1328125,42.96875,33.69140625,45.8984375
1771542851.9580936,27.34375,38.57421875,62.98828125,56.640625,49.31640625
1771542851.964125,17.08984375,35.64453125,28.3203125,13.671875,76.66015625
1771542851.9680312,2.44140625,33.69140625,41.015625,-19.53125,40.52734375
1771542851.9719374,36.62109375,37.109375,55.17578125,9.765625,20.5078125
1771542851.9758437,35.64453125,38.57421875,29.296875,55.17578125,55.17578125
1771542851.97975,15.625,37.109375,10.25390625,39.0625,60.05859375
1771542851.9836562,22.94921875,32.71484375,16.11328125,-6.34765625,28.80859375
1771542851.9875624,33.203125,37.59765625,44.43359375,5.859375,3.41796875
1771542851.9914687,34.66796875,41.015625,52.24609375,50.29296875,23.4375
1771542851.995375,25.87890625,41.015625,-0.48828125,53.22265625,30.2734375
1771542851.9992812,11.71875,38.57421875,16.6015625,1.953125,21.97265625
1771542852.0031874,21.97265625,34.1796875,65.91796875,-10.7421875,-6.34765625
1771542852.0070937,40.0390625,40.0390625,31.73828125,41.015625,-37.109375
1771542852.004125,27.83203125,38.57421875,23.4375,62.5,35.15625
1771542852.0080314,3.41796875,34.66796875,45.41015625,10.25390625,35.15625
1771542852.0119376,18.06640625,41.50390625,74.21875,-17.08984375,35.64453125
1771542852.0158439,49.8046875,38.57421875,54.6875,29.78515625,62.01171875
1771542852.01975,35.15625,35.64453125,15.625,55.6640625,43.45703125
1771542852.0236564,9.27734375,35.64453125,20.01953125,14.6484375,52.24609375
1771542852.0275626,13.671875,41.50390625,64.453125,-13.18359375,61.5234375
1771542852.0314689,31.73828125,39.55078125,66.89453125,19.53125,63.96484375
1771542852.035375,35.64453125,37.109375,-4.39453125,56.640625,68.84765625
1771542852.0392814,14.16015625,43.9453125,12.6953125,40.0390625,23.4375
1771542852.0431876,8.30078125,44.921875,74.21875,-8.30078125,18.06640625
1771542852.0470939,36.1328125,43.9453125,56.15234375,0.48828125,34.66796875
1771542852.050125,44.43359375,44.43359375,26.85546875,52.734375,71.77734375
1771542852.0540311,16.6015625,45.41015625,16.11328125,58.59375,69.3359375
1771542852.0579374,2.9296875,43.9453125,54.6875,5.859375,76.66015625
1771542852.0618436,25.87890625,46.38671875,47.8515625,-1.46484375,113.76953125
1771542852.06575,44.921875,46.875,11.71875,45.8984375,66.89453125
1771542852.0696561,41.9921875,40.52734375,9.27734375,63.4765625,49.8046875
1771542852.0735624,35.15625,37.109375,32.2265625,22.4609375,27.34375
1771542852.0774686,33.69140625,41.9921875,36.62109375,-11.71875,22.4609375
1771542852.081375,36.1328125,33.203125,18.5546875,36.62109375,20.99609375
1771542852.0852811,60.05859375,16.6015625,49.8046875,115.234375,-9.765625
1771542852.0891874,56.15234375,40.0390625,51.26953125,86.42578125,41.50390625
1771542852.0930936,2.9296875,58.10546875,51.7578125,-14.6484375,41.015625
1771542852.094125,-19.04296875,59.08203125,44.43359375,-46.38671875,37.109375
1771542852.0980313,-36.62109375,55.17578125,0.48828125,-24.4140625,39.0625
1771542852.1019375,-67.87109375,45.41015625,-21.97265625,-42.48046875,5.859375
1771542852.1058438,-111.328125,59.08203125,-12.20703125,-143.06640625,-5.859375
1771542852.10975,-136.23046875,65.91796875,1.953125,-178.22265625,17.08984375
1771542852.1136563,-148.92578125,69.3359375,-40.52734375,-162.109375,38.57421875
1771542852.1175625,-175.78125,70.80078125,-61.03515625,-173.33984375,32.2265625
1771542852.1214688,-194.82421875,77.63671875,-64.94140625,-234.375,74.21875
1771542852.125375,-217.28515625,82.51953125,-51.7578125,-291.50390625,51.7578125
1771542852.1292813,-202.63671875,71.77734375,-17.578125,-237.79296875,7.8125
1771542852.1331875,-215.33203125,74.70703125,-54.6875,-211.42578125,-6.8359375
1771542852.1370938,-251.46484375,83.49609375,-45.8984375,-267.08984375,39.0625
1771542852.139125,-229.98046875,76.66015625,0.0,-284.66796875,87.890625
1771542852.1430314,-209.9609375,69.3359375,-12.20703125,-243.1640625,23.92578125
1771542852.1469376,-217.7734375,71.77734375,-45.41015625,-204.1015625,22.94921875
1771542852.1508439,-213.8671875,72.265625,-35.64453125,-214.84375,54.6875
1771542852.15475,-191.40625,70.3125,-1.46484375,-233.3984375,-0.9765625
1771542852.1586564,-169.921875,72.265625,2.44140625,-190.4296875,41.50390625
1771542852.1625626,-141.6015625,77.1484375,-50.78125,-129.8828125,46.38671875
1771542852.1664689,-131.8359375,75.1953125,-69.82421875,-117.67578125,46.38671875
1771542852.170375,-143.06640625,74.21875,11.23046875,-164.0625,-5.37109375
1771542852.1742814,-110.3515625,66.89453125,51.26953125,-162.109375,-23.4375
1771542852.1781876,-89.84375,62.01171875,16.6015625,-98.14453125,43.45703125
1771542852.1820939,-96.19140625,68.84765625,-4.39453125,-76.171875,6.34765625
1771542852.184125,-102.5390625,67.87109375,23.4375,-117.1875,40.0390625
1771542852.1880312,-83.49609375,64.453125,38.0859375,-122.55859375,70.3125
1771542852.1919374,-52.734375,67.3828125,17.578125,-70.3125,43.9453125
1771542852.1958437,-58.59375,65.4296875,6.8359375,-46.875,57.12890625
1771542852.19975,-82.03125,58.10546875,13.671875,-82.03125,38.0859375
1771542852.2036562,-64.94140625,58.10546875,15.625,-102.5390625,29.78515625
1771542852.2075624,-27.83203125,61.5234375,-7.8125,-60.05859375,58.59375
1771542852.2114687,-23.4375,62.98828125,3.41796875,-19.53125,89.84375
1771542852.215375,-48.828125,62.5,29.78515625,-39.0625,30.76171875
1771542852.2192812,-45.41015625,62.98828125,27.34375,-70.3125,-4.39453125
1771542852.2231874,-17.08984375,59.08203125,30.76171875,-52.24609375,35.15625
1771542852.2270937,-13.18359375,57.6171875,37.109375,-11.71875,64.453125
1771542852.230125,-24.4140625,61.5234375,13.18359375,-5.859375,52.734375
1771542852.2340312,-27.83203125,56.15234375,9.765625,-49.31640625,25.87890625
1771542852.2379375,-8.7890625,53.22265625,37.59765625,-59.5703125,50.29296875
1771542852.2418437,3.90625,54.19921875,33.203125,-5.859375,38.0859375
1771542852.24575,0.0,52.734375,19.04296875,20.01953125,36.1328125
1771542852.2496562,-15.13671875,50.78125,-0.48828125,-23.92578125,89.35546875
1771542852.2535625,-4.39453125,56.640625,20.01953125,-50.78125,104.4921875
1771542852.2574687,8.7890625,56.640625,60.05859375,-11.71875,92.28515625
1771542852.261375,3.41796875,54.19921875,21.97265625,25.390625,13.671875
1771542852.2652812,9.765625,57.12890625,0.48828125,-5.859375,-7.32421875
1771542852.2691875,-1.46484375,51.7578125,38.57421875,-47.8515625,45.41015625
1771542852.2730937,0.48828125,50.78125,63.96484375,-20.01953125,35.64453125
1771542852.289125,10.25390625,56.15234375,28.3203125,23.92578125,7.32421875
1771542852.2930312,-0.48828125,56.640625,6.8359375,14.16015625,16.11328125
1771542852.2969375,-10.7421875,49.8046875,43.45703125,-42.96875,44.921875
1771542852.3008437,6.8359375,49.8046875,61.5234375,-34.66796875,27.83203125
1771542852.30475,25.390625,53.7109375,24.4140625,22.4609375,16.6015625
1771542852.3086562,1.953125,54.19921875,-13.18359375,26.3671875,-2.9296875
1771542852.3125625,-17.578125,49.31640625,26.3671875,-23.92578125,-9.765625
1771542852.3164687,-0.48828125,45.41015625,81.54296875,-36.1328125,90.33203125
1771542852.320375,33.203125,53.22265625,30.76171875,20.01953125,58.10546875
1771542852.3242812,31.73828125,54.19921875,-20.01953125,44.921875,-1.953125
1771542852.3281875,-3.41796875,47.36328125,41.015625,-3.41796875,46.875
1771542852.3320937,12.6953125,47.36328125,81.0546875,-25.87890625,68.359375
1771542852.334125,30.76171875,47.36328125,22.94921875,15.625,25.390625
1771542852.3380313,12.20703125,50.78125,-6.8359375,47.36328125,20.5078125
1771542852.3419375,-3.90625,51.26953125,29.296875,18.5546875,56.15234375
1771542852.3458438,-11.23046875,41.9921875,47.36328125,-22.94921875,5.37109375
1771542852.34975,8.7890625,41.50390625,35.64453125,3.41796875,15.13671875
1771542852.3536563,29.78515625,43.9453125,0.9765625,48.33984375,33.203125
1771542852.3575625,3.41796875,43.45703125,18.06640625,35.64453125,23.4375
1771542852.3614688,-16.11328125,44.43359375,74.21875,-11.23046875,87.890625
1771542852.365375,12.6953125,39.55078125,42.48046875,-10.25390625,97.65625
1771542852.3692813,27.34375,38.57421875,7.8125,41.9921875,89.35546875
1771542852.3731875,18.06640625,39.55078125,43.45703125,59.08203125,63.96484375
1771542852.3770938,0.0,41.9921875,54.19921875,12.6953125,68.84765625
1771542852.380125,13.671875,41.9921875,60.546875,-3.90625,109.375
1771542852.3840313,49.8046875,41.9921875,53.7109375,48.33984375,125.48828125
1771542852.3879375,57.12890625,44.921875,23.4375,85.44921875,101.07421875
1771542852.3918438,53.7109375,45.8984375,-2.44140625,62.01171875,52.734375
1771542852.39575,75.1953125,49.31640625,30.76171875,41.015625,80.078125
1771542852.3996563,62.98828125,48.33984375,33.69140625,37.109375,33.69140625
1771542852.4035625,56.640625,38.0859375,22.94921875,82.03125,-13.671875
1771542852.4074688,76.171875,30.2734375,42.48046875,106.4453125,61.5234375
1771542852.411375,107.91015625,31.25,42.48046875,90.33203125,1.46484375
1771542852.4152813,171.38671875,32.2265625,77.1484375,156.25,-22.4609375
1771542852.4191875,199.21875,23.4375,73.2421875,225.5859375,20.5078125
1771542852.4230938,189.453125,17.578125,33.203125,229.98046875,77.63671875
1771542852.425125,198.2421875,12.20703125,53.7109375,203.61328125,65.91796875
1771542852.4290311,211.9140625,0.48828125,114.74609375,202.1484375,11.71875
1771542852.4329374,231.93359375,1.953125,95.21484375,258.30078125,62.01171875
1771542852.4368436,252.44140625,4.8828125,45.41015625,291.015625,83.0078125
1771542852.44075,226.5625,4.39453125,61.5234375,230.95703125,54.6875
1771542852.4446561,232.91015625,3.90625,79.1015625,200.68359375,-0.9765625
1771542852.4485624,252.9296875,2.9296875,69.82421875,252.44140625,11.23046875
1771542852.4524686,237.3046875,7.32421875,32.71484375,271.97265625,92.28515625
1771542852.456375,209.47265625,7.8125,12.20703125,222.16796875,58.10546875
1771542852.4602811,195.3125,5.859375,101.5625,172.36328125,47.8515625
1771542852.4641874,206.54296875,3.90625,108.88671875,187.01171875,43.45703125
1771542852.4680936,190.4296875,10.25390625,56.640625,213.8671875,26.3671875
1771542852.469125,156.25,15.13671875,59.5703125,184.5703125,63.96484375
1771542852.4730313,145.01953125,12.20703125,82.51953125,136.23046875,50.78125
1771542852.4769375,154.78515625,6.8359375,83.49609375,140.625,53.22265625
1771542852.4808438,154.78515625,10.7421875,44.43359375,180.17578125,27.83203125
1771542852.48475,133.30078125,18.5546875,38.57421875,177.24609375,8.7890625
1771542852.4886563,123.046875,14.6484375,62.01171875,122.55859375,72.265625
1771542852.4925625,127.44140625,12.20703125,79.1015625,108.3984375,79.58984375
1771542852.4964688,128.41796875,15.625,23.92578125,148.92578125,41.50390625
1771542852.500375,114.2578125,16.11328125,18.5546875,161.62109375,38.0859375
1771542852.5042813,88.37890625,15.625,79.1015625,103.02734375,20.99609375
1771542852.5081875,94.23828125,20.01953125,68.359375,77.1484375,38.0859375
1771542852.5120938,112.79296875,21.97265625,42.48046875,118.1640625,22.4609375
1771542852.515125,104.98046875,21.97265625,50.29296875,145.5078125,10.7421875
1771542852.5190313,84.9609375,22.4609375,59.5703125,109.375,27.34375
1771542852.5229375,78.125,22.94921875,63.4765625,61.03515625,46.38671875
1771542852.5268438,99.12109375,24.4140625,51.7578125,88.37890625,12.6953125
1771542852.53075,101.5625,24.4140625,38.57421875,129.8828125,15.625
1771542852.5346563,79.58984375,25.390625,29.296875,111.328125,70.3125
1771542852.5385625,80.56640625,32.2265625,18.5546875,62.5,24.90234375
1771542852.5424688,84.47265625,30.76171875,42.96875,58.10546875,29.296875
1771542852.546375,81.54296875,26.3671875,78.125,99.609375,83.49609375
1771542852.5502813,74.21875,33.203125,48.33984375,107.421875,77.1484375
1771542852.5541875,59.5703125,33.203125,27.83203125,59.08203125,53.22265625
1771542852.5580938,85.9375,31.73828125,56.15234375,49.31640625,4.39453125
1771542852.559125,106.4453125,33.69140625,64.94140625,104.98046875,41.50390625
1771542852.5630312,84.47265625,34.1796875,20.5078125,131.8359375,13.18359375
1771542852.5669374,79.58984375,38.57421875,27.34375,88.8671875,-20.99609375
1771542852.5708437,60.05859375,36.1328125,79.58984375,29.78515625,57.12890625
1771542852.57475,57.6171875,29.78515625,67.3828125,49.31640625,40.52734375
1771542852.5786562,81.0546875,31.73828125,21.484375,112.3046875,46.875
1771542852.5825624,73.2421875,31.25,3.41796875,105.46875,68.84765625
1771542852.5864687,63.96484375,28.80859375,52.24609375,54.6875,34.1796875
1771542852.590375,79.58984375,26.85546875,83.0078125,61.03515625,-0.9765625
1771542852.5942812,86.9140625,32.2265625,31.73828125,101.07421875,29.296875
1771542852.5981874,62.5,39.0625,14.6484375,85.44921875,70.3125
1771542852.6020937,44.43359375,30.76171875,53.22265625,35.15625,35.64453125
1771542852.605125,59.08203125,24.90234375,66.89453125,41.50390625,46.38671875
1771542852.6090312,66.89453125,28.3203125,16.6015625,89.84375,54.19921875
1771542852.6129375,50.78125,29.78515625,-1.953125,96.19140625,57.6171875
1771542852.6168437,32.71484375,34.66796875,52.24609375,46.875,69.3359375
1771542852.62075,53.7109375,35.15625,67.87109375,31.25,19.04296875
1771542852.6246562,70.3125,30.76171875,12.6953125,74.21875,25.87890625
1771542852.6285625,58.10546875,36.62109375,-9.27734375,97.16796875,63.96484375
1771542852.6324687,41.9921875,36.1328125,55.17578125,51.26953125,69.3359375
1771542852.636375,42.96875,32.2265625,74.21875,15.625,77.1484375
1771542852.6402812,55.17578125,31.25,47.8515625,34.66796875,80.56640625
1771542852.6441875,53.7109375,34.66796875,20.99609375,69.82421875,21.484375
1771542852.6480937,27.83203125,41.015625,25.87890625,49.31640625,-0.9765625
1771542852.664125,24.4140625,37.109375,43.9453125,-2.9296875,11.71875
1771542852.6680312,52.24609375,32.71484375,47.36328125,18.5546875,-11.23046875
1771542852.6719375,50.78125,36.62109375,13.18359375,63.4765625,-24.4140625
1771542852.6758437,35.15625,36.1328125,5.37109375,61.5234375,20.01953125
1771542852.67975,24.90234375,36.1328125,49.31640625,13.671875,82.03125
1771542852.6836562,32.2265625,32.71484375,10.7421875,8.7890625,44.921875
1771542852.6875625,48.33984375,32.71484375,1.46484375,54.19921875,15.13671875
1771542852.6914687,36.62109375,38.57421875,38.0859375,68.84765625,41.9921875
1771542852.695375,16.6015625,39.0625,14.16015625,22.4609375,-5.859375
1771542852.6992812,33.69140625,39.55078125,25.87890625,-3.90625,1.46484375
1771542852.7031875,55.6640625,38.57421875,48.828125,42.48046875,40.52734375
1771542852.7070937,41.015625,39.0625,30.76171875,73.73046875,48.33984375
1771542852.709125,20.99609375,41.50390625,13.671875,30.76171875,57.12890625
1771542852.7130313,24.4140625,37.59765625,39.55078125,-14.16015625,45.41015625
1771542852.7169375,33.69140625,38.57421875,62.98828125,19.04296875,72.75390625
1771542852.7208438,35.64453125,42.96875,24.4140625,58.10546875,52.734375
1771542852.72475,24.90234375,43.9453125,-0.9765625,43.45703125,27.34375
1771542852.7286563,16.11328125,41.015625,22.94921875,-5.859375,40.0390625
1771542852.7325625,38.0859375,38.57421875,48.828125,1.46484375,56.15234375
1771542852.7364688,42.48046875,41.015625,27.34375,49.31640625,41.9921875
1771542852.740375,25.87890625,40.52734375,-11.23046875,49.31640625,42.96875
1771542852.7442813,13.671875,36.1328125,-8.7890625,-6.8359375,19.53125
1771542852.7481875,16.11328125,34.66796875,75.1953125,-19.53125,33.203125
1771542852.7520938,34.66796875,35.64453125,65.4296875,40.0390625,36.62109375
1771542852.755125,29.296875,37.109375,24.4140625,65.4296875,21.484375
1771542852.7590313,9.765625,38.57421875,52.24609375,14.6484375,65.4296875
1771542852.7629375,8.7890625,30.76171875,70.3125,-22.4609375,60.546875
1771542852.7668438,26.85546875,34.66796875,48.33984375,22.4609375,48.828125
1771542852.77075,31.25,41.015625,7.8125,65.4296875,12.6953125
1771542852.7746563,15.13671875,33.203125,10.7421875,35.15625,-22.94921875
1771542852.7785625,2.44140625,39.55078125,48.828125,-11.71875,27.34375
1771542852.7824688,20.5078125,39.0625,46.38671875,12.6953125,35.64453125
1771542852.786375,41.50390625,32.71484375,-19.53125,56.640625,-44.43359375
1771542852.7902813,19.04296875,39.55078125,0.9765625,37.59765625,-38.0859375
1771542852.7941875,6.34765625,37.109375,83.49609375,-9.27734375,11.71875
1771542852.7980938,26.85546875,31.25,71.77734375,-3.90625,67.87109375
1771542852.799125,34.66796875,34.66796875,33.203125,43.9453125,73.2421875
1771542852.8030312,25.87890625,38.57421875,34.1796875,55.6640625,48.828125
1771542852.8069375,5.37109375,36.1328125,45.8984375,5.859375,46.38671875
1771542852.8108437,8.30078125,36.62109375,45.41015625,-10.25390625,38.0859375
1771542852.81475,24.4140625,37.59765625,27.83203125,32.71484375,53.7109375
1771542852.8186562,28.3203125,40.0390625,0.48828125,59.08203125,41.015625
1771542852.8225625,14.16015625,39.0625,21.484375,21.484375,34.66796875
1771542852.8264687,18.06640625,36.62109375,27.34375,-11.23046875,-5.859375
1771542852.830375,39.55078125,33.69140625,18.5546875,30.2734375,6.8359375
1771542852.8342812,41.015625,38.0859375,36.62109375,62.98828125,16.6015625
1771542852.8381875,20.01953125,40.52734375,24.4140625,26.85546875,23.4375
1771542852.8420937,17.08984375,36.1328125,33.203125,-7.32421875,52.24609375
1771542852.844125,48.828125,22.4609375,53.7109375,33.203125,59.08203125
1771542852.8480313,83.0078125,20.01953125,39.55078125,102.05078125,10.7421875
1771542852.8519375,35.64453125,45.8984375,21.97265625,55.6640625,6.8359375
1771542852.8558438,-49.31640625,46.38671875,33.203125,-68.359375,41.015625
1771542852.85975,-57.12890625,40.52734375,40.0390625,-86.42578125,22.4609375
1771542852.8636563,-57.12890625,56.15234375,1.953125,-61.03515625,70.3125
1771542852.8675625,-95.703125,58.10546875,-31.25,-77.1484375,76.66015625
1771542852.8714688,-144.04296875,64.453125,-38.0859375,-161.62109375,53.22265625
1771542852.875375,-182.6171875,71.2890625,2.44140625,-236.81640625,80.078125
1771542852.8792813,-175.78125,63.96484375,14.16015625,-204.58984375,59.08203125
1771542852.8831875,-193.359375,72.75390625,-48.33984375,-192.87109375,18.5546875
1771542852.8870938,-243.1640625,75.1953125,-44.43359375,-259.765625,33.69140625
1771542852.890125,-232.421875,78.125,-11.71875,-293.9453125,63.96484375
1771542852.8940313,-228.515625,78.61328125,-9.27734375,-271.484375,57.12890625
1771542852.8979375,-243.1640625,79.58984375,-46.875,-238.28125,52.734375
1771542852.9018438,-240.72265625,81.54296875,-49.31640625,-244.140625,45.8984375
1771542852.90575,-243.65234375,69.3359375,17.578125,-285.64453125,47.36328125
1771542852.9096563,-219.23828125,67.87109375,12.6953125,-265.625,37.109375
1771542852.9135625,-193.84765625,69.82421875,-38.0859375,-202.63671875,64.453125
1771542852.9174688,-187.98828125,67.87109375,-42.96875,-175.78125,51.7578125
1771542852.921375,-187.5,70.3125,27.83203125,-207.03125,31.25
1771542852.9252813,-161.1328125,65.91796875,40.52734375,-204.58984375,50.78125
1771542852.9291875,-125.0,62.5,0.9765625,-131.8359375,27.83203125
1771542852.9330938,-122.55859375,67.87109375,-6.8359375,-100.09765625,-6.34765625
1771542852.934125,-129.39453125,66.40625,22.94921875,-144.04296875,26.85546875
1771542852.9380312,-112.3046875,61.03515625,40.52734375,-156.25,45.8984375
1771542852.9419374,-86.42578125,59.08203125,11.71875,-105.46875,14.16015625
1771542852.9458437,-87.40234375,58.10546875,-0.48828125,-71.77734375,53.22265625
1771542852.94975,-104.00390625,58.59375,18.5546875,-94.7265625,25.87890625
1771542852.9536562,-94.7265625,54.6875,33.203125,-123.53515625,45.8984375
1771542852.9575624,-62.98828125,59.5703125,-1.953125,-93.26171875,98.14453125
1771542852.9614687,-57.6171875,64.94140625,-19.04296875,-44.921875,28.3203125
1771542852.965375,-85.9375,59.5703125,49.8046875,-57.12890625,60.546875
1771542852.9692812,-91.30859375,53.7109375,48.828125,-100.09765625,124.0234375
1771542852.9731874,-62.01171875,54.19921875,36.1328125,-84.47265625,63.4765625
1771542852.9770937,-41.9921875,58.10546875,32.71484375,-31.73828125,39.0625
1771542852.980125,-57.12890625,59.08203125,20.01953125,-14.6484375,60.546875
1771542852.9840312,-66.40625,53.22265625,18.06640625,-54.6875,27.83203125
1771542852.9879375,-42.48046875,50.29296875,30.76171875,-73.73046875,-19.53125
1771542852.9918437,-34.66796875,50.29296875,34.66796875,-25.390625,-20.01953125
1771542852.99575,-43.9453125,47.8515625,18.06640625,-1.953125,-2.9296875
1771542852.9996562,-45.41015625,52.24609375,-6.8359375,-43.45703125,13.18359375
1771542853.0035625,-33.203125,56.15234375,9.765625,-62.98828125,14.16015625
1771542853.0074687,-14.6484375,49.31640625,70.3125,-25.390625,58.10546875
1771542853.011375,-14.6484375,52.734375,51.7578125,9.765625,108.88671875
1771542853.0152812,-21.484375,55.6640625,-11.71875,-10.25390625,52.734375
1771542853.0191875,-20.99609375,44.921875,12.20703125,-53.7109375,14.16015625
1771542853.0230937,-12.20703125,47.8515625,71.77734375,-36.1328125,32.2265625
1771542853.039125,5.37109375,52.24609375,40.52734375,14.6484375,39.0625
1771542853.0430312,0.9765625,53.7109375,25.390625,13.671875,47.36328125
1771542853.0469375,-9.765625,50.29296875,55.6640625,-33.203125,65.4296875
1771542853.0508437,-5.859375,43.9453125,76.66015625,-31.73828125,109.375
1771542853.05475,0.9765625,44.43359375,40.0390625,15.13671875,74.21875
1771542853.0586562,2.44140625,48.828125,3.41796875,32.71484375,38.57421875
1771542853.0625625,-5.859375,46.875,28.3203125,-12.20703125,25.390625
1771542853.0664687,-5.37109375,44.43359375,68.359375,-41.015625,38.0859375
1771542853.070375,23.92578125,49.31640625,53.22265625,9.765625,113.76953125
1771542853.0742812,28.3203125,50.29296875,-19.53125,47.8515625,78.61328125
1771542853.0781875,-5.859375,47.8515625,9.27734375,0.0,18.06640625
1771542853.0820937,-3.90625,43.45703125,94.7265625,-39.55078125,73.2421875
1771542853.084125,26.85546875,46.38671875,57.6171875,6.34765625,115.72265625
1771542853.0880313,31.73828125,49.31640625,10.25390625,52.734375,43.45703125
1771542853.0919375,0.9765625,44.921875,38.57421875,25.390625,55.6640625
1771542853.0958438,-14.16015625,49.31640625,69.82421875,-18.06640625,118.65234375
1771542853.09975,20.01953125,52.24609375,42.48046875,5.37109375,41.9921875
1771542853.1036563,35.64453125,48.33984375,11.23046875,49.8046875,-6.34765625
1771542853.1075625,19.53125,47.36328125,28.80859375,42.48046875,72.75390625
1771542853.1114688,7.32421875,48.828125,51.7578125,-8.7890625,57.12890625
1771542853.115375,15.625,46.38671875,47.8515625,-12.6953125,4.39453125
1771542853.1192813,32.2265625,45.8984375,23.4375,38.0859375,31.25
1771542853.1231875,27.83203125,49.8046875,26.3671875,55.17578125,89.84375
1771542853.1270938,5.859375,51.7578125,53.7109375,7.32421875,109.375
1771542853.129125,21.484375,44.43359375,28.3203125,-20.01953125,91.796875
1771542853.1330314,47.8515625,35.15625,13.18359375,21.97265625,96.6796875
1771542853.1369376,31.73828125,36.1328125,42.48046875,52.24609375,86.9140625
1771542853.1408439,7.8125,39.0625,37.59765625,17.578125,58.10546875
1771542853.14475,38.0859375,51.7578125,34.66796875,3.90625,29.296875
1771542853.1486564,85.44921875,56.640625,26.85546875,61.5234375,20.01953125
1771542853.1525626,50.29296875,39.55078125,32.2265625,85.9375,25.390625
1771542853.1564689,11.71875,27.34375,49.8046875,56.15234375,47.36328125
1771542853.160375,59.5703125,33.69140625,21.97265625,44.921875,27.34375
1771542853.1642814,111.328125,35.64453125,67.3828125,91.796875,58.59375
1771542853.1681876,127.9296875,24.4140625,91.30859375,151.3671875,81.54296875
1771542853.1720939,126.953125,20.99609375,37.109375,156.73828125,51.26953125
1771542853.174125,123.046875,19.53125,54.19921875,129.8828125,64.94140625
1771542853.1780312,147.4609375,19.53125,94.23828125,134.27734375,23.92578125
1771542853.1819375,170.8984375,16.6015625,86.9140625,192.3828125,44.43359375
1771542853.1858437,186.5234375,16.6015625,28.80859375,236.328125,29.78515625
1771542853.18975,171.875,12.6953125,31.73828125,188.4765625,-14.16015625
1771542853.1936562,170.8984375,5.859375,82.51953125,155.2734375,28.3203125
1771542853.1975625,196.2890625,12.20703125,84.9609375,199.70703125,47.8515625
1771542853.2014687,197.265625,13.18359375,30.2734375,232.421875,29.296875
1771542853.205375,172.8515625,14.16015625,8.30078125,192.3828125,-5.859375
1771542853.2092812,154.296875,19.04296875,92.7734375,133.30078125,-1.46484375
1771542853.2131875,164.55078125,21.484375,101.5625,146.97265625,30.2734375
1771542853.2170937,159.66796875,21.484375,57.6171875,185.546875,76.66015625
1771542853.220125,134.27734375,24.90234375,53.22265625,171.38671875,78.61328125
1771542853.2240312,122.0703125,23.4375,81.0546875,112.3046875,81.0546875
1771542853.2279375,134.27734375,16.6015625,62.98828125,108.3984375,21.97265625
1771542853.2318437,142.08984375,21.484375,32.71484375,150.87890625,-5.859375
1771542853.23575,122.0703125,23.4375,43.45703125,153.80859375,59.5703125
1771542853.2396562,99.12109375,22.94921875,52.24609375,100.5859375,65.4296875
1771542853.2435625,110.83984375,24.4140625,76.171875,77.1484375,49.31640625
1771542853.2474687,127.44140625,26.3671875,31.25,115.72265625,93.75
1771542853.251375,112.3046875,22.94921875,24.90234375,138.671875,126.46484375
1771542853.2552812,90.33203125,22.4609375,72.75390625,97.16796875,65.91796875
1771542853.2591875,91.796875,25.390625,64.453125,59.5703125,59.08203125
1771542853.2630937,103.02734375,28.80859375,49.8046875,86.9140625,88.37890625
1771542853.264125,97.65625,31.73828125,37.109375,119.62890625,14.6484375
1771542853.2680314,87.40234375,26.85546875,43.45703125,93.26171875,25.390625
1771542853.2719376,81.0546875,22.4609375,41.9921875,50.78125,25.390625
1771542853.2758439,89.84375,27.83203125,55.6640625,67.87109375,23.92578125
1771542853.27975,97.16796875,33.203125,35.64453125,114.2578125,28.80859375
1771542853.2836564,86.42578125,35.15625,12.20703125,113.76953125,16.11328125
1771542853.2875626,71.77734375,35.64453125,24.90234375,62.98828125,10.25390625
1771542853.2914689,79.58984375,32.71484375,17.578125,52.24609375,3.90625
1771542853.295375,83.49609375,34.66796875,53.7109375,92.28515625,43.45703125
1771542853.2992814,68.84765625,34.1796875,58.59375,102.5390625,35.64453125
1771542853.3031876,52.734375,31.25,49.31640625,47.8515625,15.625
1771542853.3070939,57.6171875,32.71484375,76.66015625,22.4609375,48.828125
1771542853.309125,80.078125,34.66796875,62.98828125,71.77734375,46.38671875
1771542853.3130312,71.2890625,33.69140625,32.71484375,93.75,31.73828125
1771542853.3169374,41.50390625,33.69140625,37.109375,49.8046875,32.71484375
1771542853.3208437,44.921875,30.76171875,64.453125,19.04296875,-17.08984375
1771542853.32475,65.91796875,30.2734375,63.96484375,45.41015625,13.18359375
1771542853.3286562,57.12890625,38.57421875,19.04296875,84.9609375,3.41796875
1771542853.3325624,38.57421875,41.015625,-5.859375,63.4765625,31.73828125
1771542853.3364687,40.52734375,36.62109375,36.1328125,19.04296875,76.66015625
1771542853.340375,55.6640625,38.57421875,91.796875,36.1328125,18.06640625
1771542853.3442812,63.96484375,42.96875,42.48046875,93.75,-6.8359375
1771542853.3481874,60.05859375,34.66796875,11.23046875,101.07421875,-0.48828125
1771542853.3520937,64.94140625,27.34375,64.453125,58.10546875,6.34765625
1771542853.354125,86.42578125,37.59765625,84.9609375,61.03515625,58.10546875
1771542853.3580313,70.3125,47.8515625,36.1328125,82.03125,79.58984375
1771542853.3619375,57.12890625,52.24609375,12.6953125,89.35546875,72.265625
1771542853.3658438,85.44921875,41.9921875,40.52734375,80.56640625,60.546875
1771542853.36975,133.30078125,44.43359375,59.5703125,88.37890625,70.80078125
1771542853.3736563,141.6015625,54.6875,-0.9765625,124.51171875,53.22265625
1771542853.3775625,118.65234375,47.8515625,-27.34375,145.5078125,23.92578125
1771542853.3814688,105.46875,41.015625,42.96875,117.1875,3.90625
1771542853.385375,112.3046875,40.0390625,69.3359375,80.56640625,21.484375
1771542853.3892813,127.44140625,42.48046875,40.0390625,102.05078125,24.90234375
1771542853.3931875,131.34765625,41.9921875,18.5546875,144.53125,55.6640625
1771542853.3970938,112.79296875,38.57421875,29.78515625,130.37109375,83.984375
1771542853.414125,93.26171875,43.9453125,35.15625,77.1484375,15.625
1771542853.4180312,102.05078125,39.55078125,31.73828125,75.68359375,-20.01953125
1771542853.4219375,121.09375,35.64453125,37.59765625,121.58203125,77.1484375
1771542853.4258437,109.86328125,38.57421875,26.85546875,128.90625,60.05859375
1771542853.42975,91.796875,38.0859375,37.59765625,80.078125,37.109375
1771542853.4336562,106.93359375,43.45703125,42.48046875,68.84765625,105.95703125
1771542853.4375625,113.28125,45.8984375,19.04296875,111.81640625,84.47265625
1771542853.4414687,94.23828125,41.015625,30.76171875,126.46484375,61.03515625
1771542853.445375,71.77734375,41.50390625,32.71484375,77.1484375,64.94140625
1771542853.4492812,84.47265625,45.8984375,12.20703125,52.734375,29.296875
1771542853.4531875,96.19140625,40.52734375,43.45703125,89.84375,1.953125
1771542853.4570937,78.61328125,39.55078125,45.8984375,115.72265625,65.4296875
1771542853.460125,72.75390625,41.015625,1.46484375,88.37890625,70.80078125
1771542853.4640312,74.70703125,37.59765625,22.4609375,46.38671875,-7.8125
1771542853.4679375,79.1015625,35.64453125,69.82421875,61.03515625,13.18359375
1771542853.4718437,78.125,37.59765625,41.9921875,104.4921875,28.80859375
1771542853.47575,57.12890625,38.57421875,5.37109375,97.65625,-7.8125
1771542853.4796562,50.29296875,32.71484375,23.4375,50.78125,3.90625
1771542853.4835625,68.84765625,33.203125,48.33984375,44.921875,5.859375
1771542853.4874687,73.2421875,39.0625,46.875,84.47265625,19.53125
1771542853.491375,73.2421875,42.48046875,1.953125,95.21484375,47.8515625
1771542853.4952812,55.17578125,41.015625,1.953125,47.36328125,26.85546875
1771542853.4991875,47.36328125,36.62109375,77.1484375,21.484375,-0.9765625
1771542853.5030937,72.75390625,37.109375,57.12890625,60.05859375,31.73828125
1771542853.505125,69.82421875,36.1328125,16.11328125,85.44921875,36.62109375
1771542853.5090313,40.0390625,32.2265625,36.1328125,43.9453125,72.75390625
1771542853.5129375,39.55078125,34.1796875,58.10546875,3.90625,87.890625
1771542853.5168438,55.17578125,35.64453125,48.33984375,36.1328125,38.0859375
1771542853.52075,51.7578125,37.59765625,14.16015625,74.21875,11.23046875
1771542853.5246563,37.109375,34.66796875,12.6953125,46.38671875,39.55078125
1771542853.5285625,25.87890625,32.2265625,45.8984375,-0.48828125,38.57421875
1771542853.5324688,41.9921875,35.64453125,65.91796875,20.5078125,67.87109375
1771542853.536375,48.33984375,41.9921875,-11.23046875,71.2890625,67.87109375
1771542853.5402813,36.1328125,37.109375,-3.90625,59.5703125,62.01171875
1771542853.5441875,27.83203125,32.71484375,85.44921875,8.7890625,131.8359375
1771542853.5480938,34.1796875,36.62109375,53.22265625,9.765625,85.9375
1771542853.549125,47.8515625,37.59765625,21.484375,58.59375,11.71875
1771542853.5530312,34.66796875,38.0859375,31.73828125,68.359375,9.27734375
1771542853.5569375,14.16015625,39.0625,41.9921875,17.578125,39.0625
1771542853.5608437,20.99609375,37.109375,44.921875,-4.8828125,52.734375
1771542853.56475,45.8984375,36.62109375,33.69140625,44.43359375,75.1953125
1771542853.5686562,41.015625,40.52734375,6.8359375,73.73046875,53.7109375
1771542853.5725625,32.2265625,25.390625,26.85546875,49.8046875,34.1796875
1771542853.5764687,69.3359375,20.99609375,32.2265625,42.96875,50.78125
1771542853.580375,69.3359375,41.50390625,15.625,41.50390625,25.390625
1771542853.5842812,7.8125,52.734375,35.64453125,17.578125,-11.23046875
1771542853.5881875,-62.5,52.24609375,28.3203125,-40.52734375,7.32421875
1771542853.5920937,-92.7734375,45.41015625,-1.953125,-108.3984375,42.96875
1771542853.594125,-92.28515625,46.38671875,-2.44140625,-133.30078125,63.96484375
1771542853.5980313,-105.46875,63.4765625,-9.27734375,-121.09375,60.546875
1771542853.6019375,-118.1640625,72.75390625,-42.96875,-121.09375,42.48046875
1771542853.6058438,-141.6015625,57.12890625,-26.3671875,-181.640625,11.23046875
1771542853.60975,-145.5078125,56.640625,-1.953125,-198.2421875,12.6953125
1771542853.6136563,-129.8828125,56.15234375,-20.99609375,-138.671875,46.875
1771542853.6175625,-130.859375,47.8515625,-28.3203125,-106.93359375,67.3828125
1771542853.6214688,-130.859375,54.6875,-48.828125,-135.7421875,62.98828125
1771542853.625375,-117.1875,54.19921875,-13.18359375,-157.2265625,26.3671875
1771542853.6292813,-94.7265625,46.875,42.48046875,-117.1875,36.1328125
1771542853.6331875,-82.51953125,51.26953125,-10.7421875,-64.453125,34.1796875
1771542853.6370938,-97.65625,52.734375,-15.625,-95.21484375,35.64453125
1771542853.639125,-90.33203125,50.29296875,28.80859375,-129.39453125,23.4375
1771542853.6430314,-60.546875,49.8046875,26.3671875,-88.37890625,11.23046875
1771542853.6469376,-54.6875,46.875,-13.671875,-41.015625,46.875
1771542853.6508439,-66.40625,47.8515625,-15.625,-49.8046875,83.0078125
1771542853.65475,-71.2890625,57.12890625,13.671875,-96.6796875,46.38671875
1771542853.6586564,-37.59765625,53.22265625,15.625,-84.9609375,33.69140625
1771542853.6625626,-22.4609375,46.875,-22.94921875,-27.34375,24.4140625
1771542853.6664689,-52.734375,50.29296875,-20.5078125,-14.6484375,61.5234375
1771542853.670375,-64.94140625,49.31640625,45.8984375,-63.96484375,63.96484375
1771542853.6742814,-39.0625,49.31640625,52.24609375,-69.3359375,20.01953125
1771542853.6781876,-11.71875,51.7578125,8.30078125,-9.765625,17.578125
1771542853.6820939,-23.92578125,51.7578125,8.30078125,6.8359375,33.203125
1771542853.685125,-39.0625,49.31640625,55.6640625,-40.52734375,87.890625
1771542853.6890314,-31.25,51.26953125,57.12890625,-66.40625,70.3125
1771542853.6929376,-15.13671875,52.734375,40.0390625,-30.76171875,52.24609375
1771542853.6968439,-13.671875,54.19921875,23.92578125,11.71875,22.94921875
1771542853.70075,-29.296875,53.22265625,23.4375,-19.53125,-10.25390625
1771542853.7046564,-22.4609375,52.24609375,38.0859375,-63.96484375,54.6875
1771542853.7085626,8.7890625,49.31640625,15.625,-36.1328125,97.65625
1771542853.7124689,8.30078125,52.734375,7.32421875,10.25390625,27.83203125
1771542853.716375,-21.97265625,59.08203125,40.0390625,1.46484375,5.859375
1771542853.7202814,-22.4609375,51.26953125,37.59765625,-42.48046875,15.13671875
1771542853.7241876,7.32421875,48.33984375,49.8046875,-38.0859375,43.45703125
1771542853.7280939,19.53125,50.78125,28.3203125,10.7421875,25.390625
1771542853.730125,-6.8359375,49.31640625,17.08984375,28.3203125,8.7890625
1771542853.7340312,-24.4140625,47.8515625,25.390625,-23.4375,41.9921875
1771542853.7379375,-7.8125,49.8046875,35.15625,-43.9453125,68.84765625
1771542853.7418437,7.8125,48.33984375,54.6875,-2.9296875,81.0546875
1771542853.74575,7.32421875,46.875,24.90234375,24.4140625,37.59765625
1771542853.7496562,-15.13671875,45.41015625,-0.9765625,-8.30078125,43.9453125
1771542853.7535625,-13.18359375,43.45703125,22.94921875,-44.43359375,43.9453125
1771542853.7574687,11.23046875,42.48046875,78.125,-6.8359375,41.50390625
1771542853.761375,6.34765625,43.9453125,53.7109375,35.64453125,75.68359375
1771542853.7652812,-3.41796875,51.7578125,23.92578125,16.11328125,84.9609375
1771542853.7691875,-4.8828125,54.19921875,45.8984375,-32.71484375,76.171875
1771542853.7730937,2.9296875,46.875,56.15234375,-19.53125,21.484375
1771542853.804125,13.671875,49.31640625,35.64453125,29.296875,33.203125
1771542853.8080313,-2.44140625,47.36328125,14.6484375,27.34375,49.8046875
1771542853.8119376,-13.18359375,41.50390625,30.2734375,-19.04296875,47.36328125
1771542853.8158438,15.625,44.43359375,53.7109375,-21.484375,54.6875
1771542853.81975,35.15625,44.43359375,37.59765625,28.80859375,51.26953125
1771542853.8236563,33.69140625,50.78125,-29.78515625,55.6640625,27.83203125
1771542853.8275626,27.34375,59.08203125,-9.765625,12.20703125,1.953125
1771542853.8314688,19.04296875,48.828125,86.42578125,-20.99609375,50.78125
1771542853.835375,37.109375,41.50390625,63.96484375,25.87890625,92.28515625
1771542853.8392813,54.6875,44.43359375,21.484375,72.75390625,66.40625
1771542853.8431876,41.9921875,37.109375,40.52734375,45.41015625,20.99609375
1771542853.8470938,35.64453125,33.69140625,65.91796875,3.90625,31.25
1771542853.834125,39.0625,39.55078125,40.52734375,23.4375,14.6484375
1771542853.8380313,41.50390625,42.48046875,20.01953125,64.94140625,27.83203125
1771542853.8419375,28.80859375,44.43359375,30.2734375,56.15234375,26.3671875
1771542853.8458438,13.18359375,47.36328125,57.6171875,-0.9765625,59.08203125
1771542853.84975,30.76171875,39.0625,39.55078125,7.8125,88.8671875
1771542853.8536563,47.8515625,39.55078125,0.48828125,66.89453125,55.6640625
1771542853.8575625,35.15625,40.52734375,23.4375,66.40625,27.83203125
1771542853.8614688,16.11328125,37.109375,49.8046875,15.13671875,-0.9765625
1771542853.865375,27.34375,40.52734375,58.59375,3.90625,49.8046875
1771542853.8692813,48.33984375,40.0390625,42.96875,41.9921875,53.7109375
1771542853.8731875,40.52734375,43.9453125,35.64453125,63.96484375,29.78515625
1771542853.8770938,16.11328125,41.9921875,45.41015625,21.97265625,52.734375
1771542853.879125,28.80859375,40.0390625,19.53125,-5.37109375,47.8515625
1771542853.8830314,53.7109375,42.48046875,9.27734375,31.25,5.37109375
1771542853.8869376,46.875,38.57421875,53.22265625,66.40625,62.01171875
1771542853.8908439,24.4140625,39.0625,37.109375,41.9921875,83.984375
1771542853.89475,10.7421875,40.52734375,33.203125,-4.8828125,42.96875
1771542853.8986564,27.34375,36.1328125,37.109375,25.390625,46.38671875
1771542853.9025626,37.59765625,37.59765625,20.5078125,69.3359375,53.22265625
1771542853.9064689,26.3671875,40.0390625,16.11328125,58.10546875,31.25
1771542853.910375,22.4609375,39.0625,15.625,15.625,66.89453125
1771542853.9142814,33.203125,36.1328125,40.52734375,8.7890625,77.63671875
1771542853.9181876,40.0390625,35.64453125,67.3828125,45.41015625,18.5546875
1771542853.9220939,34.66796875,39.0625,33.69140625,61.5234375,80.078125
1771542853.925125,14.6484375,38.57421875,28.80859375,10.7421875,53.22265625
1771542853.9290311,16.6015625,38.0859375,62.98828125,-13.671875,32.71484375
1771542853.9329374,40.52734375,40.52734375,48.828125,45.41015625,50.29296875
1771542853.9368436,43.9453125,41.9921875,13.671875,73.73046875,45.41015625
1771542853.94075,24.4140625,43.45703125,31.25,24.90234375,129.8828125
1771542853.9446561,22.4609375,40.0390625,41.50390625,-7.32421875,92.7734375
1771542853.9485624,35.64453125,35.15625,33.203125,23.92578125,4.39453125
1771542853.9524686,43.45703125,35.64453125,3.90625,72.265625,56.15234375
1771542853.956375,42.48046875,37.59765625,-1.953125,65.4296875,63.4765625
1771542853.9602811,30.2734375,39.55078125,60.546875,9.27734375,9.27734375
1771542853.9641874,36.1328125,45.8984375,72.75390625,5.859375,-9.27734375
1771542853.9680936,33.69140625,52.24609375,20.5078125,40.52734375,29.78515625
1771542853.970125,25.87890625,48.33984375,8.30078125,41.015625,46.38671875
1771542853.9740312,24.4140625,43.45703125,50.29296875,8.30078125,39.0625
1771542853.9779375,40.0390625,44.43359375,55.17578125,9.27734375,36.62109375
1771542853.9818437,48.828125,45.8984375,28.80859375,45.8984375,4.8828125
1771542853.98575,23.4375,40.0390625,23.4375,45.8984375,12.20703125
1771542853.9896562,6.8359375,37.109375,34.1796875,3.41796875,71.2890625
1771542853.9935625,25.87890625,39.0625,41.9921875,-3.41796875,57.12890625
1771542853.9974687,58.59375,44.43359375,3.90625,41.9921875,-5.859375
1771542854.001375,45.8984375,45.8984375,16.6015625,71.2890625,16.11328125
1771542854.0052812,6.8359375,41.015625,60.05859375,33.203125,20.99609375
1771542854.0091875,5.37109375,40.52734375,53.7109375,-5.37109375,25.87890625
1771542854.0130937,33.203125,39.55078125,43.45703125,23.4375,110.83984375
1771542854.014125,39.55078125,37.59765625,32.71484375,68.359375,51.26953125
1771542854.0180314,14.16015625,36.62109375,38.57421875,51.26953125,-10.25390625
1771542854.0219376,6.34765625,36.1328125,33.203125,6.8359375,48.828125
1771542854.0258439,24.90234375,32.2265625,40.52734375,23.92578125,110.83984375
1771542854.02975,40.0390625,35.64453125,40.52734375,64.94140625,74.70703125
1771542854.0336564,29.78515625,39.0625,14.6484375,61.5234375,1.46484375
1771542854.0375626,0.0,39.55078125,8.7890625,13.18359375,-21.484375
1771542854.0414689,20.01953125,38.57421875,25.390625,6.8359375,10.25390625
1771542854.045375,40.0390625,37.59765625,55.17578125,49.8046875,47.36328125
1771542854.0492814,27.83203125,37.109375,36.62109375,64.453125,34.66796875
1771542854.0531876,8.7890625,35.64453125,41.9921875,22.94921875,75.1953125
1771542854.0570939,16.11328125,33.203125,62.01171875,-2.9296875,83.0078125
1771542854.060125,39.55078125,30.76171875,51.7578125,32.71484375,43.9453125
1771542854.0640314,34.66796875,36.1328125,7.32421875,67.3828125,47.36328125
1771542854.0679376,14.16015625,38.57421875,-5.37109375,41.9921875,33.203125
1771542854.0718439,18.06640625,40.0390625,47.8515625,0.9765625,-9.765625
1771542854.07575,36.1328125,42.48046875,50.78125,23.4375,3.90625
1771542854.0796564,36.62109375,40.0390625,6.8359375,68.359375,30.2734375
1771542854.0835626,30.76171875,41.50390625,-20.5078125,58.10546875,28.3203125
1771542854.0874689,22.4609375,38.57421875,31.25,4.39453125,35.15625
1771542854.091375,25.87890625,33.69140625,93.26171875,10.25390625,76.66015625
1771542854.0952814,30.76171875,36.62109375,38.57421875,63.96484375,48.33984375
1771542854.0991876,20.01953125,41.015625,10.25390625,64.94140625,7.8125
1771542854.1030939,7.32421875,40.52734375,44.43359375,10.7421875,45.41015625
1771542854.105125,11.71875,35.15625,54.6875,-0.48828125,20.99609375
1771542854.1090312,30.76171875,38.57421875,21.97265625,49.8046875,-7.32421875
1771542854.1129375,30.2734375,38.0859375,10.7421875,75.1953125,33.203125
1771542854.1168437,8.30078125,35.64453125,28.80859375,21.484375,39.0625
1771542854.12075,41.50390625,47.36328125,34.66796875,14.16015625,20.01953125
1771542854.1246562,88.37890625,53.7109375,11.71875,87.890625,46.38671875
1771542854.1285625,55.6640625,39.55078125,-23.92578125,95.703125,59.08203125
1771542854.1324687,-2.44140625,22.94921875,44.921875,27.83203125,27.83203125
1771542854.136375,-24.4140625,20.5078125,110.3515625,-28.3203125,17.578125
1771542854.1402812,4.39453125,28.80859375,89.35546875,0.0,28.80859375
1771542854.1441875,8.30078125,19.53125,78.125,42.96875,45.41015625
1771542854.1480937,-23.92578125,9.27734375,92.7734375,26.3671875,75.68359375
1771542854.165125,-30.76171875,13.18359375,107.91015625,-22.94921875,80.078125
1771542854.1690311,-19.53125,8.30078125,113.28125,-23.92578125,31.25
1771542854.1729374,-16.11328125,-1.46484375,119.62890625,27.34375,61.5234375
1771542854.1768436,-27.83203125,3.41796875,107.91015625,40.52734375,73.73046875
1771542854.18075,-36.62109375,1.953125,103.02734375,-11.23046875,8.30078125
1771542854.1846561,-16.11328125,-3.41796875,105.95703125,-30.2734375,1.953125
1771542854.1885624,-0.48828125,2.44140625,94.23828125,21.484375,58.59375
1771542854.1924686,-12.6953125,11.23046875,84.9609375,52.24609375,29.296875
1771542854.196375,-26.85546875,8.7890625,96.6796875,13.671875,-7.32421875
1771542854.2002811,-19.53125,8.30078125,69.82421875,-18.5546875,25.87890625
1771542854.2041874,-2.44140625,11.71875,80.078125,12.6953125,30.76171875
1771542854.2080936,0.9765625,16.6015625,108.88671875,48.828125,50.78125
1771542854.209125,-0.48828125,22.4609375,67.3828125,30.2734375,22.94921875
1771542854.2130313,-9.765625,16.11328125,78.125,-10.7421875,-32.71484375
1771542854.2169375,-4.39453125,16.11328125,117.67578125,2.44140625,46.38671875
1771542854.2208438,10.7421875,23.92578125,85.44921875,43.9453125,100.09765625
1771542854.22475,1.46484375,28.3203125,44.43359375,47.8515625,59.08203125
1771542854.2286563,-5.37109375,26.85546875,55.6640625,0.0,49.31640625
1771542854.2325625,13.671875,21.484375,88.8671875,-4.39453125,35.64453125
1771542854.2364688,33.203125,30.76171875,90.8203125,49.31640625,53.22265625
1771542854.240375,27.83203125,30.76171875,40.0390625,64.453125,85.44921875
1771542854.2442813,13.671875,25.87890625,25.390625,20.01953125,80.078125
1771542854.2481875,16.11328125,26.85546875,100.5859375,-0.48828125,44.43359375
1771542854.2520938,33.203125,23.92578125,97.65625,41.015625,-7.32421875
1771542854.254125,35.15625,27.83203125,61.03515625,73.2421875,56.640625
1771542854.2580314,15.13671875,28.3203125,67.87109375,35.15625,101.07421875
1771542854.2619376,14.6484375,27.83203125,88.8671875,-5.37109375,53.22265625
1771542854.2658439,37.109375,38.57421875,85.44921875,21.484375,63.96484375
1771542854.26975,39.55078125,38.0859375,45.8984375,63.96484375,56.15234375
1771542854.2736564,21.484375,33.203125,28.3203125,46.875,-3.90625
1771542854.2775626,9.765625,34.1796875,64.453125,-3.90625,12.20703125
1771542854.2814689,27.34375,31.73828125,85.44921875,10.7421875,64.94140625
1771542854.285375,36.1328125,36.62109375,43.45703125,66.40625,38.0859375
1771542854.2892814,15.13671875,38.57421875,49.8046875,63.96484375,18.06640625
1771542854.2931876,7.8125,36.1328125,77.63671875,5.37109375,54.6875
1771542854.2970939,23.92578125,33.69140625,60.546875,-2.9296875,38.57421875
1771542854.299125,35.15625,32.71484375,16.11328125,45.41015625,61.03515625
1771542854.3030312,22.94921875,36.62109375,30.2734375,61.03515625,61.5234375
1771542854.3069375,4.8828125,35.15625,77.1484375,16.11328125,31.25
1771542854.3108437,14.6484375,37.59765625,71.77734375,-14.16015625,44.921875
1771542854.31475,33.203125,41.50390625,54.6875,28.3203125,37.109375
1771542854.3186562,27.83203125,40.52734375,38.0859375,63.4765625,70.80078125
1771542854.3225625,10.25390625,42.96875,52.734375,27.83203125,96.6796875
1771542854.3264687,15.13671875,39.0625,46.38671875,-11.71875,45.41015625
1771542854.330375,38.0859375,31.73828125,33.69140625,6.8359375,21.484375
1771542854.3342812,40.0390625,42.48046875,66.89453125,50.29296875,13.671875
1771542854.3381875,22.94921875,46.38671875,53.22265625,47.8515625,-11.71875
1771542854.3420937,2.9296875,34.1796875,59.5703125,-5.37109375,14.6484375
1771542854.345125,12.6953125,33.69140625,74.21875,-4.39453125,47.8515625
1771542854.3490312,59.08203125,44.43359375,41.015625,61.5234375,35.64453125
1771542854.3529375,75.68359375,54.6875,20.99609375,87.890625,38.57421875
1771542854.3568437,26.85546875,44.921875,47.36328125,20.5078125,81.54296875
1771542854.36075,-12.6953125,33.69140625,76.171875,-33.203125,39.55078125
1771542854.3646562,10.7421875,30.76171875,64.94140625,18.06640625,22.4609375
1771542854.3685625,30.2734375,29.296875,53.22265625,70.3125,77.1484375
1771542854.3724687,-0.9765625,34.1796875,37.59765625,19.53125,28.80859375
1771542854.376375,4.39453125,27.83203125,88.37890625,-10.25390625,72.265625
1771542854.3802812,26.85546875,25.87890625,117.1875,25.390625,75.68359375
1771542854.3841875,19.04296875,31.25,63.4765625,46.38671875,56.15234375
1771542854.3880937,11.71875,35.64453125,52.24609375,23.92578125,102.5390625
1771542854.389125,17.578125,39.0625,78.125,-5.37109375,39.0625
1771542854.3930314,27.83203125,35.64453125,90.8203125,19.04296875,41.9921875
1771542854.3969376,30.2734375,35.64453125,48.828125,65.91796875,47.8515625
1771542854.4008439,18.5546875,37.109375,30.2734375,63.4765625,5.37109375
1771542854.40475,11.71875,36.62109375,60.546875,14.16015625,-14.6484375
1771542854.4086564,22.94921875,31.25,77.1484375,2.44140625,0.0
1771542854.4125626,33.203125,32.71484375,38.0859375,50.78125,31.25
1771542854.4164689,28.80859375,35.15625,-2.9296875,73.73046875,1.953125
1771542854.420375,16.11328125,36.62109375,67.87109375,18.5546875,10.7421875
1771542854.4242814,18.5546875,38.0859375,115.72265625,-2.9296875,82.03125
1771542854.4281876,40.0390625,38.57421875,65.91796875,49.31640625,38.57421875
1771542854.4320939,33.69140625,37.109375,47.8515625,69.82421875,24.4140625
1771542854.434125,9.27734375,34.66796875,62.01171875,26.85546875,73.2421875
1771542854.4380312,13.671875,39.55078125,72.75390625,-5.37109375,64.94140625
1771542854.4419374,44.921875,38.57421875,64.94140625,28.3203125,44.43359375
1771542854.4458437,52.24609375,38.0859375,45.41015625,65.91796875,15.13671875
1771542854.44975,31.73828125,42.96875,46.875,43.9453125,23.4375
1771542854.4536562,22.94921875,42.96875,53.7109375,-4.39453125,23.92578125
1771542854.4575624,38.57421875,40.52734375,26.3671875,9.27734375,31.25
1771542854.4614687,41.015625,41.50390625,22.4609375,58.10546875,37.109375
1771542854.465375,24.90234375,42.48046875,65.91796875,53.22265625,22.94921875
1771542854.4692812,17.578125,39.0625,61.03515625,6.8359375,24.90234375
1771542854.4731874,23.92578125,35.64453125,60.546875,-7.32421875,39.55078125
1771542854.4770937,34.1796875,34.1796875,57.12890625,34.1796875,12.6953125
1771542854.479125,33.203125,40.0390625,51.26953125,61.03515625,50.29296875
1771542854.4830313,17.08984375,40.52734375,35.15625,17.08984375,50.29296875
1771542854.4869375,17.578125,38.0859375,44.43359375,-10.7421875,14.16015625
1771542854.4908438,33.69140625,38.0859375,56.640625,29.296875,18.5546875
1771542854.49475,21.97265625,41.50390625,32.2265625,63.96484375,-22.94921875
1771542854.4986563,3.41796875,45.41015625,9.765625,30.76171875,24.4140625
1771542854.5025625,13.671875,43.45703125,24.4140625,-6.34765625,62.01171875
1771542854.5064688,34.1796875,40.0390625,81.54296875,20.5078125,19.53125
1771542854.510375,33.203125,41.9921875,59.5703125,62.01171875,49.31640625
1771542854.5142813,19.04296875,48.828125,10.7421875,49.31640625,51.26953125
1771542854.5181875,10.7421875,47.36328125,36.1328125,-2.9296875,35.64453125
1771542854.5220938,26.3671875,41.015625,61.5234375,2.9296875,-8.7890625
1771542854.539125,43.45703125,42.48046875,49.8046875,54.19921875,19.53125
1771542854.5430312,30.2734375,43.45703125,28.3203125,50.29296875,47.8515625
1771542854.5469375,5.37109375,41.015625,45.8984375,-7.8125,28.3203125
1771542854.5508437,17.578125,39.55078125,71.2890625,-18.5546875,21.484375
1771542854.55475,41.015625,39.55078125,52.24609375,31.25,63.4765625
1771542854.5586562,34.66796875,41.9921875,7.32421875,53.22265625,93.26171875
1771542854.5625625,8.30078125,39.0625,24.90234375,1.953125,46.875
1771542854.5664687,4.8828125,40.52734375,73.2421875,-32.2265625,12.20703125
1771542854.570375,35.15625,43.45703125,52.24609375,16.11328125,59.08203125
1771542854.5742812,39.0625,41.50390625,-6.34765625,55.6640625,29.78515625
1771542854.5781875,16.11328125,41.015625,16.11328125,18.5546875,-28.80859375
1771542854.5820937,15.13671875,44.43359375,53.22265625,-24.4140625,30.76171875
1771542854.584125,34.66796875,44.43359375,33.69140625,2.9296875,19.53125
1771542854.5880313,36.62109375,43.9453125,8.7890625,51.7578125,8.30078125
1771542854.5919375,14.16015625,46.875,27.83203125,42.48046875,31.25
1771542854.5958438,12.6953125,45.8984375,51.7578125,-11.71875,58.59375
1771542854.59975,29.78515625,40.52734375,41.50390625,-12.6953125,79.1015625
1771542854.6036563,41.50390625,45.41015625,7.32421875,42.48046875,69.3359375
1771542854.6075625,41.50390625,48.828125,20.5078125,54.6875,99.12109375
1771542854.6114688,3.90625,41.9921875,47.36328125,2.44140625,55.6640625
1771542854.615375,10.25390625,45.8984375,22.94921875,-10.7421875,3.41796875
1771542854.6192813,38.57421875,48.828125,4.39453125,36.1328125,1.953125
1771542854.6231875,30.2734375,45.8984375,39.0625,59.5703125,5.37109375
1771542854.6270938,10.7421875,47.8515625,41.9921875,24.90234375,30.2734375
1771542854.629125,11.71875,53.7109375,50.29296875,-18.5546875,57.6171875
1771542854.6330314,41.50390625,52.734375,41.015625,13.671875,33.203125
1771542854.6369376,44.921875,49.31640625,34.66796875,61.5234375,48.828125
1771542854.6408439,27.34375,51.7578125,22.94921875,32.2265625,45.8984375
1771542854.64475,20.5078125,49.31640625,21.484375,-17.08984375,46.38671875
1771542854.6486564,38.0859375,47.8515625,30.2734375,-3.90625,46.875
1771542854.6525626,40.0390625,50.29296875,23.92578125,40.0390625,2.44140625
1771542854.6564689,19.53125,50.29296875,24.90234375,39.0625,20.99609375
1771542854.660375,15.13671875,51.26953125,9.765625,-9.765625,77.1484375
1771542854.6642814,26.85546875,45.41015625,48.33984375,-14.6484375,139.6484375
1771542854.6681876,37.59765625,47.8515625,59.08203125,30.76171875,54.19921875
1771542854.6720939,30.76171875,52.734375,13.671875,47.8515625,3.90625
1771542854.674125,21.97265625,45.8984375,20.01953125,5.859375,34.66796875
1771542854.6780312,29.296875,46.38671875,60.546875,-19.04296875,68.359375
1771542854.6819375,38.57421875,45.8984375,52.734375,28.80859375,67.3828125
1771542854.6858437,37.59765625,50.29296875,5.37109375,65.4296875,80.56640625
1771542854.68975,15.13671875,51.26953125,-0.48828125,16.6015625,81.0546875
1771542854.6936562,19.53125,43.9453125,23.4375,-20.01953125,9.765625
1771542854.6975625,46.38671875,48.33984375,39.0625,18.06640625,6.34765625
