timestamps,TP9,AF7,AF8,TP10,Right AUX
1771279700.905125,32.2265625,136.23046875,38.57421875,54.6875,21.484375
1771279700.9090312,41.9921875,154.296875,36.62109375,54.19921875,31.73828125
1771279700.9129374,24.90234375,-38.57421875,41.50390625,38.0859375,50.78125
1771279700.9168437,14.16015625,-73.73046875,36.1328125,33.203125,54.6875
1771279700.92075,41.9921875,60.546875,39.55078125,48.828125,21.97265625
1771279700.9246562,45.8984375,127.9296875,32.71484375,46.875,11.71875
1771279700.9285624,17.578125,-9.27734375,22.94921875,34.66796875,19.53125
1771279700.9324687,16.6015625,-86.42578125,34.66796875,29.296875,31.25
1771279700.936375,35.64453125,0.48828125,38.57421875,39.55078125,20.5078125
1771279700.9402812,47.36328125,29.296875,32.71484375,42.96875,9.27734375
1771279700.9441874,41.9921875,34.1796875,32.2265625,36.1328125,3.41796875
1771279700.9480937,21.484375,-13.18359375,29.78515625,20.01953125,9.27734375
1771279700.950125,27.83203125,-67.3828125,27.83203125,18.5546875,21.484375
1771279700.9540312,52.24609375,101.07421875,23.92578125,36.62109375,-5.859375
1771279700.9579375,57.6171875,210.9375,28.80859375,41.50390625,45.8984375
1771279700.9618437,37.109375,10.25390625,32.2265625,30.2734375,50.78125
1771279700.96575,30.2734375,-173.33984375,25.87890625,29.78515625,13.18359375
1771279700.9696562,53.7109375,-32.71484375,35.15625,48.828125,20.99609375
1771279700.9735625,49.31640625,147.4609375,30.76171875,48.33984375,17.08984375
1771279700.9774687,27.83203125,34.1796875,22.94921875,28.80859375,-16.11328125
1771279700.981375,24.90234375,-201.171875,30.2734375,26.85546875,-27.83203125
1771279700.9852812,33.69140625,-82.03125,35.64453125,41.9921875,35.64453125
1771279700.9891875,42.48046875,283.69140625,42.48046875,43.45703125,72.75390625
1771279700.9930937,34.66796875,155.76171875,35.15625,32.71484375,60.05859375
1771279700.995125,19.53125,-125.9765625,31.73828125,25.390625,10.25390625
1771279700.9990313,32.2265625,-22.94921875,38.57421875,35.64453125,-35.64453125
1771279701.0029376,40.52734375,230.46875,34.1796875,45.8984375,32.2265625
1771279701.0068438,31.25,75.1953125,26.3671875,41.015625,24.4140625
1771279701.01075,20.99609375,-190.91796875,25.390625,31.25,0.48828125
1771279701.0146563,20.01953125,-137.6953125,28.3203125,34.66796875,-1.953125
1771279701.0185626,40.52734375,132.8125,34.1796875,45.41015625,46.38671875
1771279701.0224688,40.0390625,167.96875,33.69140625,40.52734375,49.31640625
1771279701.026375,23.4375,-174.31640625,26.3671875,27.34375,-0.48828125
1771279701.0302813,35.64453125,-158.69140625,31.73828125,29.296875,18.06640625
1771279701.0341876,50.78125,216.796875,35.15625,55.17578125,59.08203125
1771279701.0380938,55.6640625,238.28125,36.62109375,69.3359375,97.16796875
1771279701.040125,41.9921875,-0.9765625,43.45703125,52.24609375,56.640625
1771279701.0440311,26.85546875,-73.2421875,27.34375,34.66796875,77.1484375
1771279701.0479374,48.828125,77.1484375,31.25,53.7109375,102.5390625
1771279701.0518436,57.12890625,167.96875,45.41015625,71.2890625,50.78125
1771279701.05575,38.57421875,28.80859375,39.0625,45.8984375,17.08984375
1771279701.0596561,37.59765625,-185.05859375,36.62109375,38.0859375,-5.37109375
1771279701.0635624,52.734375,-87.890625,42.96875,54.6875,10.7421875
1771279701.0674686,62.01171875,93.26171875,42.48046875,56.15234375,24.90234375
1771279701.071375,60.546875,-11.23046875,36.62109375,42.96875,63.4765625
1771279701.0752811,36.1328125,-57.6171875,36.1328125,39.55078125,46.38671875
1771279701.0791874,25.87890625,28.3203125,39.0625,39.55078125,46.875
1771279701.0830936,43.9453125,172.8515625,37.59765625,47.36328125,65.4296875
1771279701.084125,44.43359375,200.68359375,29.296875,48.33984375,29.78515625
1771279701.0880313,16.6015625,13.671875,30.76171875,29.78515625,35.64453125
1771279701.0919375,13.671875,-126.953125,27.34375,31.73828125,14.16015625
1771279701.0958438,36.62109375,30.76171875,19.04296875,51.26953125,1.46484375
1771279701.09975,42.96875,207.03125,27.83203125,47.8515625,51.7578125
1771279701.1036563,28.80859375,-2.9296875,35.15625,25.87890625,57.12890625
1771279701.1075625,7.32421875,-179.19921875,35.15625,11.23046875,69.82421875
1771279701.1114688,23.4375,-134.765625,37.109375,27.34375,105.46875
1771279701.115375,50.78125,93.75,41.9921875,34.66796875,75.68359375
1771279701.1192813,38.0859375,184.5703125,34.1796875,14.16015625,1.953125
1771279701.1231875,21.97265625,-92.28515625,20.99609375,16.6015625,11.23046875
1771279701.1270938,35.15625,-80.56640625,17.08984375,38.0859375,41.015625
1771279701.129125,53.22265625,209.9609375,29.78515625,36.62109375,29.296875
1771279701.1330314,50.78125,184.08203125,31.73828125,31.73828125,24.4140625
1771279701.1369376,34.1796875,-117.1875,24.4140625,16.11328125,19.53125
1771279701.1408439,21.484375,-127.44140625,41.50390625,12.6953125,48.33984375
1771279701.14475,33.69140625,129.8828125,45.41015625,34.66796875,54.6875
1771279701.1486564,48.33984375,141.6015625,37.109375,38.0859375,30.2734375
1771279701.1525626,38.0859375,-161.1328125,34.66796875,27.83203125,17.08984375
1771279701.1564689,26.3671875,-277.34375,33.203125,30.2734375,-1.953125
1771279701.160375,28.3203125,103.02734375,41.50390625,25.87890625,1.46484375
1771279701.1642814,43.9453125,307.6171875,44.43359375,31.73828125,68.84765625
1771279701.1681876,24.90234375,55.6640625,37.109375,31.25,75.68359375
1771279701.1720939,3.41796875,-115.72265625,24.90234375,13.18359375,50.29296875
1771279701.174125,27.83203125,53.7109375,26.85546875,15.13671875,44.43359375
1771279701.1780312,48.828125,224.12109375,34.66796875,30.2734375,41.9921875
1771279701.1819375,22.94921875,66.89453125,40.52734375,25.87890625,7.32421875
1771279701.1858437,0.48828125,-111.328125,47.8515625,25.390625,19.53125
1771279701.18975,12.20703125,-36.1328125,39.55078125,26.3671875,31.25
1771279701.1936562,40.52734375,113.76953125,34.1796875,27.34375,11.71875
1771279701.1975625,41.9921875,15.625,25.390625,24.4140625,67.87109375
1771279701.2014687,23.92578125,-115.72265625,32.71484375,17.578125,79.1015625
1771279701.205375,22.4609375,0.9765625,42.96875,30.2734375,9.765625
1771279701.2092812,32.2265625,122.55859375,28.3203125,38.57421875,-18.5546875
1771279701.2131875,45.8984375,158.69140625,30.2734375,36.1328125,-20.01953125
1771279701.2170937,32.71484375,27.83203125,23.4375,21.484375,2.9296875
1771279701.220125,17.08984375,-130.859375,14.16015625,11.23046875,-19.04296875
1771279701.2240312,37.59765625,-39.55078125,30.76171875,20.5078125,-35.64453125
1771279701.2279375,34.66796875,158.69140625,37.59765625,30.2734375,41.015625
1771279701.2318437,8.7890625,126.953125,29.296875,9.27734375,58.10546875
1771279701.23575,9.765625,-54.6875,21.484375,-5.859375,40.0390625
1771279701.2396562,24.90234375,-111.328125,19.04296875,7.32421875,43.45703125
1771279701.2435625,35.64453125,28.3203125,24.4140625,13.671875,6.34765625
1771279701.2474687,28.80859375,170.41015625,16.11328125,9.27734375,10.25390625
1771279701.251375,13.671875,-3.41796875,19.53125,16.11328125,5.859375
1771279701.2552812,13.18359375,-28.80859375,37.109375,32.71484375,76.171875
1771279701.2591875,32.2265625,181.640625,34.1796875,39.55078125,71.2890625
1771279701.2630937,36.62109375,234.86328125,35.15625,36.1328125,46.38671875
1771279701.279125,9.27734375,-6.8359375,34.1796875,19.04296875,74.70703125
1771279701.2830312,5.37109375,-143.5546875,30.2734375,19.04296875,17.08984375
1771279701.2869375,28.3203125,80.56640625,30.2734375,45.41015625,0.9765625
1771279701.2908437,28.80859375,188.4765625,33.69140625,40.0390625,26.85546875
1771279701.29475,2.9296875,24.90234375,30.76171875,7.32421875,19.04296875
1771279701.2986562,-7.8125,-259.27734375,15.625,-0.48828125,22.4609375
1771279701.3025625,15.13671875,-94.7265625,26.3671875,14.6484375,46.875
1771279701.3064687,33.203125,293.9453125,28.80859375,30.2734375,17.578125
1771279701.310375,41.9921875,124.0234375,21.97265625,20.99609375,23.4375
1771279701.3142812,12.6953125,-170.8984375,34.66796875,3.90625,33.203125
1771279701.3181875,-0.9765625,-35.64453125,35.64453125,11.71875,5.37109375
1771279701.3220937,23.92578125,204.1015625,34.1796875,33.69140625,-11.71875
1771279701.325125,20.99609375,109.375,39.0625,39.55078125,16.11328125
1771279701.3290312,4.39453125,-107.421875,31.73828125,9.27734375,22.94921875
1771279701.3329375,6.8359375,-67.3828125,20.5078125,3.90625,-7.8125
1771279701.3368437,32.2265625,162.109375,28.3203125,33.69140625,-12.6953125
1771279701.34075,30.76171875,144.53125,34.1796875,29.78515625,29.296875
1771279701.3446562,15.13671875,-111.81640625,36.62109375,27.34375,72.75390625
1771279701.3485625,17.578125,-133.30078125,22.4609375,28.3203125,111.328125
1771279701.3524687,38.0859375,123.53515625,11.71875,30.2734375,75.1953125
1771279701.356375,51.26953125,171.875,33.69140625,45.8984375,46.875
1771279701.3602812,25.390625,-137.6953125,39.55078125,35.15625,51.26953125
1771279701.3641875,1.953125,-110.83984375,36.62109375,18.5546875,26.3671875
1771279701.3680937,24.90234375,136.23046875,37.59765625,34.1796875,57.6171875
1771279701.369125,52.734375,250.0,41.50390625,45.41015625,83.984375
1771279701.3730311,44.43359375,129.8828125,30.2734375,35.64453125,22.94921875
1771279701.3769374,19.53125,-64.94140625,26.85546875,30.2734375,-1.953125
1771279701.3808436,22.94921875,-18.5546875,42.48046875,40.52734375,23.92578125
1771279701.38475,52.24609375,173.828125,50.29296875,56.15234375,47.36328125
1771279701.3886561,49.8046875,124.51171875,42.48046875,52.734375,32.2265625
1771279701.3925624,26.85546875,-91.796875,34.66796875,34.1796875,30.76171875
1771279701.3964686,26.3671875,-78.125,34.1796875,39.0625,51.7578125
1771279701.400375,52.734375,-0.9765625,22.94921875,57.6171875,59.08203125
1771279701.4042811,58.10546875,102.05078125,37.59765625,56.15234375,69.3359375
1771279701.4081874,41.50390625,111.328125,42.48046875,35.64453125,46.875
1771279701.4120936,40.0390625,-61.5234375,25.390625,26.3671875,44.921875
1771279701.414125,51.26953125,53.7109375,35.15625,49.8046875,34.66796875
1771279701.4180312,64.94140625,246.58203125,39.0625,60.546875,-10.25390625
1771279701.4219375,54.6875,108.88671875,29.78515625,53.22265625,7.8125
1771279701.4258437,63.4765625,-123.53515625,34.66796875,63.96484375,46.38671875
1771279701.42975,90.33203125,-9.765625,36.1328125,86.42578125,54.6875
1771279701.4336562,89.35546875,173.33984375,22.94921875,64.94140625,32.71484375
1771279701.4375625,47.8515625,128.90625,29.78515625,29.296875,39.0625
1771279701.4414687,16.11328125,-135.25390625,31.73828125,31.25,44.921875
1771279701.445375,35.15625,-154.296875,19.53125,32.2265625,58.59375
1771279701.4492812,47.36328125,245.60546875,31.73828125,43.9453125,40.52734375
1771279701.4531875,43.45703125,225.5859375,29.78515625,41.9921875,-10.7421875
1771279701.4570937,47.36328125,-70.80078125,13.671875,22.4609375,11.71875
1771279701.459125,41.50390625,-68.84765625,15.625,40.0390625,18.5546875
1771279701.4630313,56.15234375,209.47265625,30.76171875,51.7578125,20.5078125
1771279701.4669375,70.80078125,244.140625,27.34375,48.33984375,-1.46484375
1771279701.4708438,43.45703125,24.90234375,11.71875,38.0859375,19.04296875
1771279701.47475,36.62109375,-55.17578125,33.203125,41.9921875,84.47265625
1771279701.4786563,51.7578125,41.015625,30.76171875,52.24609375,40.0390625
1771279701.4825625,54.6875,205.56640625,24.90234375,58.59375,38.0859375
1771279701.4864688,49.31640625,-24.90234375,34.1796875,58.10546875,25.87890625
1771279701.490375,30.76171875,-182.6171875,29.296875,54.19921875,-3.90625
1771279701.4942813,34.66796875,114.2578125,39.0625,52.24609375,38.57421875
1771279701.4981875,58.10546875,240.234375,37.59765625,55.6640625,38.57421875
1771279701.5020938,49.8046875,138.671875,30.76171875,48.828125,40.0390625
1771279701.505125,35.15625,-51.26953125,25.390625,25.87890625,81.54296875
1771279701.5090313,49.31640625,-6.8359375,22.94921875,34.66796875,83.0078125
1771279701.5129375,70.3125,128.90625,33.69140625,61.03515625,30.2734375
1771279701.5168438,58.59375,104.00390625,39.55078125,60.546875,39.0625
1771279701.52075,41.015625,-0.9765625,36.1328125,43.9453125,14.16015625
1771279701.5246563,40.0390625,-90.33203125,37.59765625,47.36328125,-5.859375
1771279701.5285625,60.546875,0.0,37.109375,54.19921875,40.0390625
1771279701.5324688,72.75390625,104.4921875,26.3671875,49.31640625,52.24609375
1771279701.536375,37.59765625,99.609375,31.25,39.55078125,36.1328125
1771279701.5402813,21.97265625,-23.92578125,39.0625,28.80859375,23.4375
1771279701.5441875,48.33984375,89.35546875,35.64453125,44.921875,80.56640625
1771279701.5480938,67.3828125,281.25,41.015625,58.59375,97.16796875
1771279701.550125,43.9453125,147.94921875,38.57421875,47.8515625,30.76171875
1771279701.5540311,30.2734375,-71.77734375,35.64453125,51.26953125,23.92578125
1771279701.5579374,42.48046875,-78.61328125,39.0625,56.15234375,19.04296875
1771279701.5618436,51.7578125,157.71484375,41.50390625,47.8515625,36.62109375
1771279701.56575,49.8046875,229.00390625,24.4140625,36.1328125,107.91015625
1771279701.5696561,32.71484375,-81.0546875,15.13671875,23.4375,66.89453125
1771279701.5735624,22.4609375,-257.8125,39.55078125,40.0390625,25.390625
1771279701.5774686,55.6640625,43.9453125,36.1328125,54.6875,73.2421875
1771279701.581375,69.3359375,338.8671875,22.4609375,49.31640625,107.91015625
1771279701.5852811,36.1328125,19.53125,29.296875,39.55078125,-17.08984375
1771279701.5891874,29.78515625,-123.53515625,47.36328125,30.76171875,-26.85546875
1771279701.5930936,44.43359375,153.80859375,54.6875,43.45703125,63.96484375
1771279701.595125,53.22265625,260.25390625,41.9921875,51.26953125,7.32421875
1771279701.5990312,41.015625,25.390625,34.1796875,44.43359375,-22.94921875
1771279701.6029375,26.3671875,-142.08984375,29.296875,43.45703125,7.8125
1771279701.6068437,41.50390625,63.96484375,35.15625,53.7109375,32.2265625
1771279701.61075,56.640625,285.64453125,44.921875,57.6171875,65.91796875
1771279701.6146562,54.6875,20.5078125,20.5078125,45.8984375,4.8828125
1771279701.6185625,41.015625,-266.11328125,12.6953125,26.3671875,-45.8984375
1771279701.6224687,42.48046875,-20.99609375,40.52734375,29.296875,-4.8828125
1771279701.626375,56.15234375,300.29296875,44.43359375,49.8046875,33.69140625
1771279701.6302812,44.921875,131.34765625,26.3671875,34.1796875,25.87890625
1771279701.6341875,27.83203125,-138.671875,21.484375,16.6015625,7.32421875
1771279701.6380937,28.80859375,26.3671875,39.0625,28.3203125,32.71484375
1771279701.655125,50.78125,235.83984375,49.8046875,49.31640625,28.3203125
1771279701.6590312,56.640625,249.51171875,39.55078125,45.8984375,27.83203125
1771279701.6629374,33.69140625,36.62109375,35.15625,32.2265625,-9.765625
1771279701.6668437,17.578125,-28.3203125,40.52734375,43.9453125,18.5546875
1771279701.67075,32.71484375,119.62890625,35.15625,45.8984375,20.99609375
1771279701.6746562,45.8984375,165.0390625,33.69140625,45.8984375,-17.578125
1771279701.6785624,34.1796875,73.2421875,40.52734375,36.1328125,42.48046875
1771279701.6824687,29.78515625,-74.21875,41.50390625,23.4375,16.6015625
1771279701.686375,33.203125,20.5078125,28.80859375,39.0625,-3.90625
1771279701.6902812,40.0390625,115.234375,26.3671875,48.33984375,80.56640625
1771279701.6941874,34.66796875,81.54296875,40.0390625,36.1328125,93.26171875
1771279701.6980937,16.6015625,42.96875,41.50390625,15.13671875,40.0390625
1771279701.699125,25.87890625,-27.34375,35.15625,31.25,29.296875
1771279701.7030313,46.38671875,134.27734375,47.8515625,62.98828125,-1.953125
1771279701.7069376,29.78515625,251.46484375,54.6875,45.8984375,21.484375
1771279701.7108438,-7.8125,38.57421875,37.109375,12.20703125,47.8515625
1771279701.71475,4.39453125,-116.69921875,26.85546875,28.3203125,-0.48828125
1771279701.7186563,36.62109375,48.33984375,36.62109375,52.24609375,23.92578125
1771279701.7225626,36.62109375,164.55078125,42.96875,47.36328125,29.78515625
1771279701.7264688,19.04296875,79.1015625,41.015625,37.109375,38.57421875
1771279701.730375,12.20703125,-165.52734375,38.57421875,31.73828125,12.6953125
1771279701.7342813,40.0390625,-110.83984375,26.3671875,41.50390625,-12.20703125
1771279701.7381876,55.17578125,249.51171875,32.2265625,43.45703125,48.33984375
1771279701.7420938,34.1796875,166.50390625,38.0859375,35.64453125,53.7109375
1771279701.744125,20.99609375,-104.4921875,32.2265625,38.0859375,50.78125
1771279701.7480311,34.1796875,-6.34765625,50.78125,49.31640625,29.296875
1771279701.7519374,59.5703125,270.5078125,53.22265625,56.640625,-3.41796875
1771279701.7558436,45.41015625,182.6171875,39.55078125,40.0390625,-11.23046875
1771279701.75975,23.4375,-83.984375,25.87890625,28.80859375,0.48828125
1771279701.7636561,41.50390625,-109.86328125,22.94921875,37.109375,24.90234375
1771279701.7675624,55.17578125,127.44140625,41.015625,47.8515625,25.390625
1771279701.7714686,44.43359375,228.515625,43.45703125,48.828125,41.50390625
1771279701.775375,17.578125,-137.20703125,30.76171875,36.1328125,42.96875
1771279701.7792811,14.16015625,-160.64453125,40.52734375,43.9453125,62.01171875
1771279701.7831874,43.45703125,215.33203125,40.52734375,45.41015625,76.171875
1771279701.7870936,55.17578125,202.1484375,35.64453125,42.96875,27.83203125
1771279701.790125,29.296875,-38.57421875,30.76171875,36.1328125,34.1796875
1771279701.7940311,9.27734375,-97.65625,23.4375,19.04296875,82.03125
1771279701.7979374,28.3203125,73.73046875,34.1796875,36.62109375,61.03515625
1771279701.8018436,47.36328125,130.859375,40.0390625,47.8515625,9.27734375
1771279701.80575,36.1328125,14.6484375,28.80859375,28.3203125,51.7578125
1771279701.8096561,19.04296875,-130.37109375,32.71484375,22.94921875,58.10546875
1771279701.8135624,22.94921875,-46.875,44.43359375,32.71484375,49.31640625
1771279701.8174686,44.921875,116.69921875,44.921875,48.33984375,22.94921875
1771279701.821375,33.203125,39.0625,43.45703125,43.45703125,6.34765625
1771279701.8252811,7.32421875,-3.90625,34.66796875,32.71484375,49.31640625
1771279701.8291874,6.8359375,-22.4609375,33.69140625,35.64453125,13.671875
1771279701.8330936,17.08984375,117.67578125,44.43359375,36.1328125,0.48828125
1771279701.835125,23.4375,194.3359375,40.0390625,33.69140625,25.390625
1771279701.8390312,20.01953125,28.80859375,36.62109375,18.5546875,31.73828125
1771279701.8429375,17.578125,-141.6015625,40.0390625,18.06640625,20.5078125
1771279701.8468437,20.01953125,-29.78515625,44.921875,37.59765625,10.7421875
1771279701.85075,18.06640625,162.109375,39.55078125,32.2265625,-43.9453125
1771279701.8546562,8.30078125,0.48828125,27.34375,19.04296875,-57.6171875
1771279701.8585625,2.9296875,-119.140625,35.64453125,24.90234375,41.015625
1771279701.8624687,26.3671875,-77.63671875,41.9921875,36.62109375,80.56640625
1771279701.866375,40.0390625,128.90625,45.8984375,38.0859375,5.37109375
1771279701.8702812,19.04296875,236.328125,41.015625,24.90234375,5.859375
1771279701.8741875,16.11328125,-35.15625,33.69140625,13.18359375,61.03515625
1771279701.8780937,11.23046875,-54.19921875,41.015625,20.99609375,64.94140625
1771279701.880125,11.23046875,193.84765625,48.828125,35.15625,30.76171875
1771279701.8840313,17.578125,221.6796875,45.8984375,27.83203125,52.734375
1771279701.8879375,13.671875,-48.33984375,41.50390625,16.11328125,72.265625
1771279701.8918438,17.08984375,-88.37890625,45.8984375,20.01953125,101.5625
1771279701.89575,21.97265625,140.13671875,58.59375,26.85546875,62.01171875
1771279701.8996563,23.4375,187.5,66.40625,24.4140625,7.8125
1771279701.9035625,12.20703125,-87.890625,58.10546875,4.39453125,31.73828125
1771279701.9074688,-12.20703125,-237.3046875,57.6171875,-9.27734375,-1.953125
1771279701.911375,-14.6484375,89.84375,64.453125,9.27734375,-33.203125
1771279701.9152813,-4.8828125,301.7578125,70.3125,10.7421875,-18.06640625
1771279701.9191875,-14.6484375,36.62109375,58.10546875,-32.71484375,27.34375
1771279701.9230938,-35.15625,-171.38671875,40.52734375,-58.10546875,-18.06640625
1771279701.924125,-41.50390625,109.86328125,57.6171875,-45.41015625,-21.484375
1771279701.9280312,-47.8515625,336.9140625,78.125,-41.9921875,68.359375
1771279701.9319375,-63.4765625,197.265625,67.3828125,-58.59375,47.8515625
1771279701.9358437,-67.3828125,-3.41796875,60.05859375,-71.2890625,0.0
1771279701.93975,-67.87109375,80.078125,69.3359375,-76.171875,51.7578125
1771279701.9436562,-53.22265625,231.4453125,68.84765625,-83.0078125,42.96875
1771279701.9475625,-59.5703125,129.39453125,66.89453125,-104.00390625,26.3671875
1771279701.9514687,-110.83984375,-2.9296875,60.546875,-128.41796875,47.8515625
1771279701.955375,-113.76953125,162.109375,62.01171875,-119.140625,72.265625
1771279701.9592812,-107.421875,332.03125,71.77734375,-129.39453125,76.66015625
1771279701.9631875,-112.3046875,349.12109375,74.21875,-139.6484375,62.01171875
1771279701.9670937,-126.953125,240.234375,73.2421875,-146.484375,37.109375
1771279701.970125,-146.97265625,156.73828125,74.21875,-173.33984375,27.83203125
1771279701.9740312,-139.16015625,252.44140625,71.2890625,-178.22265625,48.33984375
1771279701.9779375,-129.8828125,383.30078125,77.63671875,-158.69140625,18.06640625
1771279701.9818437,-151.3671875,324.21875,83.0078125,-164.0625,0.9765625
1771279701.98575,-155.2734375,146.484375,76.171875,-186.5234375,29.296875
1771279701.9896562,-135.25390625,70.3125,72.75390625,-177.734375,-2.9296875
1771279701.9935625,-124.51171875,240.234375,80.56640625,-154.78515625,2.44140625
1771279701.9974687,-120.60546875,414.55078125,79.58984375,-146.97265625,14.16015625
1771279702.001375,-128.90625,251.953125,66.89453125,-162.109375,32.2265625
1771279702.0052812,-111.328125,141.6015625,57.6171875,-150.390625,42.48046875
1771279702.0091875,-71.2890625,347.16796875,57.6171875,-117.1875,29.78515625
1771279702.0130937,-61.5234375,463.8671875,58.59375,-105.46875,24.90234375
1771279702.029125,-77.1484375,228.02734375,46.38671875,-104.98046875,2.44140625
1771279702.0330312,-69.3359375,47.36328125,37.59765625,-94.23828125,42.48046875
1771279702.0369375,-27.83203125,257.8125,42.96875,-60.05859375,64.453125
1771279702.0408437,-7.32421875,433.10546875,39.0625,-48.33984375,-8.30078125
1771279702.04475,-9.765625,239.74609375,24.90234375,-54.19921875,-8.30078125
1771279702.0486562,5.859375,10.25390625,16.11328125,-41.015625,46.875
1771279702.0525625,38.57421875,150.87890625,16.6015625,-21.97265625,48.33984375
1771279702.0564687,56.640625,454.1015625,18.06640625,-3.41796875,62.5
1771279702.060375,51.26953125,328.125,4.39453125,10.25390625,96.6796875
1771279702.0642812,58.10546875,-59.5703125,-6.8359375,28.3203125,45.41015625
1771279702.0681875,82.03125,91.796875,2.9296875,49.8046875,2.9296875
1771279702.0720937,119.140625,414.55078125,1.46484375,75.68359375,22.94921875
1771279702.074125,118.1640625,250.48828125,-18.5546875,81.54296875,17.578125
1771279702.0780313,105.95703125,25.87890625,-23.92578125,62.98828125,15.13671875
1771279702.0819376,139.6484375,104.4921875,-15.13671875,92.28515625,-8.7890625
1771279702.0858438,180.17578125,346.6796875,-12.20703125,135.7421875,34.1796875
1771279702.08975,189.94140625,343.26171875,-20.5078125,141.6015625,74.21875
1771279702.0936563,175.29296875,55.6640625,-27.83203125,133.30078125,44.921875
1771279702.0975626,175.29296875,-22.94921875,-22.4609375,149.90234375,57.12890625
1771279702.1014688,204.1015625,241.2109375,-4.8828125,189.94140625,34.66796875
1771279702.105375,222.16796875,295.41015625,-8.7890625,188.96484375,33.203125
1771279702.1092813,206.0546875,39.55078125,-28.3203125,173.33984375,53.7109375
1771279702.1131876,183.10546875,29.78515625,-23.4375,180.6640625,27.83203125
1771279702.1170938,197.265625,187.5,-13.671875,193.84765625,63.96484375
1771279702.120125,235.3515625,304.6875,-10.25390625,209.47265625,57.12890625
1771279702.1240313,217.7734375,202.1484375,-11.71875,200.68359375,9.765625
1771279702.1279376,194.82421875,-31.73828125,-15.625,208.49609375,15.13671875
1771279702.1318438,214.35546875,-7.8125,-16.11328125,211.9140625,-1.46484375
1771279702.13575,227.5390625,173.33984375,-6.8359375,209.9609375,-2.9296875
1771279702.1396563,232.91015625,187.5,4.39453125,229.00390625,53.7109375
1771279702.1435626,211.42578125,-5.859375,-2.44140625,206.54296875,31.25
1771279702.1474688,213.37890625,-42.48046875,-3.90625,205.56640625,33.69140625
1771279702.151375,242.1875,52.734375,-3.90625,227.5390625,69.82421875
1771279702.1552813,244.62890625,202.63671875,-5.37109375,221.19140625,65.4296875
1771279702.1591876,222.16796875,176.7578125,5.37109375,217.28515625,24.4140625
1771279702.1630938,208.984375,-57.6171875,4.8828125,211.42578125,43.45703125
1771279702.164125,229.98046875,67.87109375,-2.44140625,205.56640625,52.734375
1771279702.1680312,251.46484375,316.89453125,4.39453125,214.84375,40.0390625
1771279702.1719375,227.5390625,190.4296875,9.765625,205.56640625,42.96875
1771279702.1758437,195.3125,-93.75,8.30078125,188.4765625,32.2265625
1771279702.17975,201.171875,-71.2890625,5.859375,202.1484375,0.48828125
1771279702.1836562,206.0546875,166.50390625,12.6953125,200.68359375,12.6953125
1771279702.1875625,193.359375,208.984375,22.4609375,186.03515625,64.453125
1771279702.1914687,177.24609375,-65.91796875,11.23046875,180.17578125,41.50390625
1771279702.195375,187.98828125,-196.77734375,13.18359375,178.7109375,25.390625
1771279702.1992812,207.51953125,246.09375,25.87890625,182.6171875,30.76171875
1771279702.2031875,174.31640625,420.41015625,21.97265625,173.828125,26.3671875
1771279702.2070937,125.48828125,103.515625,20.01953125,156.25,36.1328125
1771279702.209125,125.0,5.859375,18.06640625,146.97265625,10.7421875
1771279702.2130313,160.15625,267.08984375,21.97265625,150.390625,49.8046875
1771279702.2169375,157.2265625,362.3046875,31.73828125,150.390625,36.1328125
1771279702.2208438,124.0234375,144.53125,26.85546875,133.30078125,17.578125
1771279702.22475,109.86328125,-13.18359375,18.06640625,122.55859375,-14.6484375
1771279702.2286563,124.51171875,87.890625,31.25,140.13671875,-64.94140625
1771279702.2325625,133.30078125,327.1484375,42.96875,147.4609375,34.1796875
1771279702.2364688,119.140625,110.3515625,41.015625,130.859375,75.68359375
1771279702.240375,98.6328125,-105.46875,33.69140625,113.28125,18.5546875
1771279702.2442813,110.83984375,235.3515625,31.25,129.8828125,38.0859375
1771279702.2481875,124.51171875,436.5234375,30.76171875,136.71875,109.375
1771279702.2520938,104.98046875,301.7578125,22.94921875,100.09765625,75.68359375
1771279702.254125,89.35546875,117.1875,29.296875,85.9375,44.43359375
1771279702.2580314,87.890625,123.53515625,40.0390625,91.30859375,91.796875
1771279702.2619376,106.93359375,249.51171875,41.9921875,101.5625,81.0546875
1771279702.2658439,109.86328125,281.25,39.0625,95.21484375,36.62109375
1771279702.26975,90.8203125,129.39453125,36.1328125,90.33203125,26.85546875
1771279702.2736564,82.03125,-33.203125,33.69140625,92.28515625,12.20703125
1771279702.2775626,95.21484375,53.7109375,35.64453125,88.37890625,27.34375
1771279702.2814689,111.81640625,183.10546875,34.66796875,86.42578125,20.01953125
1771279702.285375,83.0078125,228.515625,32.71484375,70.80078125,20.5078125
1771279702.2892814,55.6640625,74.70703125,35.15625,62.5,41.015625
1771279702.2931876,62.01171875,50.29296875,43.45703125,76.171875,26.85546875
1771279702.2970939,74.21875,298.33984375,46.875,78.125,26.85546875
1771279702.299125,65.91796875,310.05859375,42.48046875,70.3125,17.08984375
1771279702.3030312,46.875,53.7109375,38.57421875,58.10546875,19.53125
1771279702.3069375,56.640625,9.765625,35.64453125,62.98828125,-15.13671875
1771279702.3108437,77.1484375,268.06640625,41.9921875,75.68359375,-23.92578125
1771279702.31475,62.98828125,330.078125,44.921875,76.171875,29.296875
1771279702.3186562,45.41015625,12.20703125,35.15625,68.84765625,28.3203125
1771279702.3225625,50.29296875,-211.42578125,29.296875,54.6875,24.4140625
1771279702.3264687,62.98828125,119.62890625,42.48046875,67.3828125,48.828125
1771279702.330375,71.77734375,444.3359375,50.78125,77.1484375,56.640625
1771279702.3342812,46.38671875,130.859375,47.8515625,64.453125,29.296875
1771279702.3381875,34.1796875,-60.05859375,46.38671875,62.98828125,26.85546875
1771279702.3420937,63.4765625,115.72265625,44.921875,63.4765625,12.6953125
1771279702.345125,68.84765625,325.1953125,56.640625,80.078125,44.921875
1771279702.3490312,42.48046875,145.5078125,38.57421875,68.359375,48.33984375
1771279702.3529375,29.78515625,-142.578125,22.4609375,41.015625,38.0859375
1771279702.3568437,65.4296875,88.8671875,44.921875,57.12890625,29.78515625
1771279702.36075,83.49609375,355.95703125,54.19921875,65.4296875,45.8984375
1771279702.3646562,59.5703125,112.79296875,43.9453125,56.15234375,47.8515625
1771279702.3685625,36.62109375,-219.23828125,39.55078125,46.875,28.80859375
1771279702.3724687,45.41015625,41.015625,41.9921875,46.38671875,50.29296875
1771279702.376375,73.2421875,336.9140625,39.0625,52.734375,33.203125
1771279702.3802812,62.5,264.16015625,39.55078125,57.6171875,41.015625
1771279702.3841875,41.50390625,9.765625,38.0859375,55.6640625,6.8359375
1771279702.3880937,38.57421875,-17.08984375,37.59765625,42.48046875,3.90625
1771279702.404125,49.8046875,228.515625,45.41015625,51.26953125,99.609375
1771279702.4080312,59.5703125,271.97265625,50.78125,68.359375,82.03125
1771279702.4119375,49.31640625,45.8984375,42.96875,47.36328125,40.52734375
1771279702.4158437,24.4140625,-66.40625,30.2734375,22.94921875,19.04296875
1771279702.41975,37.109375,144.53125,36.1328125,40.0390625,34.1796875
1771279702.4236562,68.359375,125.9765625,42.96875,63.4765625,60.546875
1771279702.4275625,49.8046875,-60.05859375,40.52734375,52.734375,44.43359375
1771279702.4314687,20.99609375,25.390625,36.62109375,28.80859375,41.9921875
1771279702.435375,27.83203125,87.890625,43.45703125,39.0625,25.390625
1771279702.4392812,44.43359375,252.9296875,51.26953125,56.640625,56.15234375
1771279702.4431875,40.0390625,258.7890625,37.109375,40.52734375,41.50390625
1771279702.4470937,23.92578125,21.97265625,22.94921875,15.13671875,18.5546875
1771279702.449125,38.0859375,-72.265625,35.64453125,20.99609375,16.6015625
1771279702.4530313,54.19921875,171.875,48.33984375,58.10546875,53.22265625
1771279702.4569376,35.15625,305.6640625,45.8984375,55.6640625,66.89453125
1771279702.4608438,6.34765625,51.7578125,40.0390625,25.390625,3.41796875
1771279702.46475,5.859375,-163.57421875,38.0859375,23.92578125,16.6015625
1771279702.4686563,35.15625,-41.015625,36.1328125,33.203125,32.71484375
1771279702.4725626,50.29296875,223.14453125,40.0390625,41.9921875,29.296875
1771279702.4764688,27.34375,178.22265625,41.50390625,25.390625,59.08203125
1771279702.480375,20.01953125,-118.65234375,36.1328125,18.06640625,106.4453125
1771279702.4842813,41.9921875,-145.99609375,39.55078125,38.0859375,15.625
1771279702.4881876,58.59375,270.01953125,42.96875,43.9453125,-65.91796875
1771279702.4920938,38.57421875,253.41796875,38.57421875,32.2265625,-24.4140625
1771279702.495125,18.5546875,-55.17578125,32.2265625,20.5078125,-4.39453125
1771279702.4990313,20.99609375,10.7421875,24.4140625,22.4609375,40.0390625
1771279702.5029376,39.55078125,281.73828125,30.2734375,40.52734375,51.7578125
1771279702.5068438,33.203125,230.46875,39.55078125,37.59765625,15.13671875
1771279702.51075,18.06640625,-79.1015625,31.73828125,20.5078125,-8.30078125
1771279702.5146563,34.66796875,-135.25390625,33.203125,19.04296875,19.53125
1771279702.5185626,44.43359375,107.421875,41.50390625,35.15625,17.578125
1771279702.5224688,47.8515625,273.92578125,48.33984375,44.921875,16.11328125
1771279702.526375,32.2265625,-97.16796875,41.015625,30.2734375,44.43359375
1771279702.5302813,13.671875,-284.1796875,29.78515625,21.484375,-11.71875
1771279702.5341876,27.83203125,199.70703125,35.64453125,41.015625,-23.4375
1771279702.5380938,36.1328125,332.03125,38.0859375,44.43359375,7.32421875
1771279702.539125,18.06640625,97.16796875,31.73828125,27.83203125,7.8125
1771279702.5430312,16.6015625,-37.59765625,30.2734375,29.296875,5.37109375
1771279702.5469375,47.36328125,97.65625,33.69140625,47.36328125,26.3671875
1771279702.5508437,60.05859375,249.51171875,35.15625,49.31640625,59.5703125
1771279702.55475,53.22265625,132.32421875,28.3203125,49.8046875,44.921875
1771279702.5586562,56.15234375,-114.2578125,32.71484375,69.82421875,40.0390625
1771279702.5625625,64.94140625,-85.44921875,50.29296875,77.1484375,24.90234375
1771279702.5664687,45.41015625,119.62890625,56.640625,44.921875,12.6953125
1771279702.570375,7.32421875,76.171875,49.31640625,1.953125,37.59765625
1771279702.5742812,-12.20703125,-10.25390625,42.48046875,-15.13671875,49.31640625
1771279702.5781875,-0.9765625,21.484375,43.9453125,2.44140625,60.05859375
1771279702.5820937,6.8359375,112.3046875,46.38671875,13.18359375,48.33984375
1771279702.585125,-4.39453125,199.70703125,47.8515625,-1.46484375,22.94921875
1771279702.5890312,-15.13671875,144.04296875,49.31640625,-12.20703125,92.7734375
1771279702.5929375,-12.6953125,-73.73046875,35.64453125,0.0,71.2890625
1771279702.5968437,20.99609375,24.90234375,31.73828125,19.04296875,3.90625
1771279702.60075,27.34375,239.74609375,46.875,21.97265625,-8.30078125
1771279702.6046562,-0.9765625,75.68359375,43.9453125,15.13671875,45.8984375
1771279702.6085625,18.5546875,-130.37109375,37.109375,7.8125,53.22265625
1771279702.6124687,31.73828125,-184.08203125,31.73828125,17.08984375,-22.94921875
1771279702.616375,21.97265625,108.88671875,42.96875,32.71484375,-14.6484375
1771279702.6202812,16.11328125,323.2421875,48.33984375,25.390625,41.50390625
1771279702.6241875,-5.37109375,-22.94921875,36.1328125,17.578125,14.6484375
1771279702.6280937,8.30078125,-119.62890625,39.0625,28.3203125,26.85546875
1771279702.630125,41.50390625,170.41015625,48.33984375,36.62109375,47.36328125
1771279702.6340313,45.41015625,285.64453125,50.29296875,35.15625,-13.18359375
1771279702.6379375,28.3203125,-35.15625,44.921875,26.85546875,21.97265625
1771279702.6418438,20.01953125,-211.42578125,36.1328125,21.484375,24.90234375
1771279702.64575,42.48046875,126.953125,41.015625,36.1328125,-2.44140625
1771279702.6496563,57.6171875,260.7421875,47.36328125,54.19921875,30.2734375
1771279702.6535625,30.76171875,-85.44921875,38.57421875,37.59765625,9.765625
1771279702.6574688,18.5546875,-280.76171875,33.69140625,21.484375,0.48828125
1771279702.661375,42.96875,107.421875,40.0390625,39.55078125,29.296875
1771279702.6652813,62.01171875,363.28125,33.203125,55.6640625,34.1796875
1771279702.6691875,41.9921875,146.97265625,31.73828125,52.734375,36.62109375
1771279702.6730938,8.7890625,-88.37890625,41.015625,33.203125,38.0859375
1771279702.675125,36.62109375,30.2734375,47.8515625,32.71484375,31.73828125
1771279702.6790311,55.17578125,249.0234375,44.43359375,54.6875,35.15625
1771279702.6829374,32.2265625,78.61328125,37.59765625,44.43359375,7.32421875
1771279702.6868436,17.08984375,-135.25390625,32.2265625,28.80859375,-15.625
1771279702.69075,26.85546875,-49.8046875,21.484375,33.69140625,4.39453125
1771279702.6946561,65.4296875,115.234375,29.296875,41.50390625,34.66796875
1771279702.6985624,56.640625,-3.90625,39.55078125,49.8046875,21.484375
1771279702.7024686,36.62109375,-139.6484375,40.52734375,44.921875,2.9296875
1771279702.706375,17.578125,13.18359375,40.52734375,16.6015625,33.69140625
1771279702.7102811,21.97265625,141.6015625,45.41015625,17.08984375,38.0859375
1771279702.7141874,43.9453125,202.63671875,49.8046875,32.2265625,-15.625
1771279702.7180936,5.859375,114.2578125,39.0625,3.41796875,27.34375
1771279702.720125,-26.85546875,-74.21875,32.2265625,-12.6953125,20.99609375
1771279702.7240312,-4.8828125,-49.31640625,33.69140625,5.859375,-31.25
1771279702.7279375,36.62109375,183.59375,40.0390625,21.97265625,20.5078125
1771279702.7318437,39.0625,185.546875,38.0859375,16.11328125,62.98828125
1771279702.73575,7.32421875,-115.72265625,26.3671875,8.30078125,42.96875
1771279702.7396562,6.34765625,-226.07421875,30.76171875,17.08984375,-19.04296875
1771279702.7435625,28.3203125,-73.2421875,41.015625,36.62109375,13.671875
1771279702.7474687,20.5078125,160.15625,41.9921875,35.15625,42.48046875
1771279702.751375,-4.8828125,77.1484375,34.1796875,6.34765625,26.3671875
1771279702.7552812,4.39453125,-73.2421875,33.203125,15.13671875,37.109375
1771279702.7591875,40.0390625,166.015625,34.66796875,35.15625,51.26953125
1771279702.7630937,50.29296875,284.1796875,37.109375,32.2265625,20.99609375
1771279702.779125,24.90234375,48.33984375,31.73828125,37.109375,35.15625
1771279702.7830312,11.71875,-142.578125,22.4609375,29.78515625,41.9921875
1771279702.7869375,34.1796875,57.12890625,28.3203125,22.94921875,35.15625
1771279702.7908437,47.36328125,293.9453125,49.8046875,33.69140625,66.40625
1771279702.79475,43.9453125,111.328125,49.31640625,28.80859375,66.89453125
1771279702.7986562,25.87890625,-209.47265625,37.59765625,20.01953125,29.78515625
1771279702.8025625,23.92578125,-143.5546875,39.55078125,28.80859375,-2.44140625
1771279702.8064687,54.6875,150.390625,36.62109375,47.8515625,9.765625
1771279702.810375,48.828125,199.21875,32.2265625,29.78515625,60.546875
1771279702.8142812,12.6953125,-231.93359375,28.3203125,7.32421875,80.078125
1771279702.8181875,16.11328125,-238.76953125,32.2265625,25.390625,10.7421875
1771279702.8220937,30.76171875,295.8984375,40.52734375,40.52734375,20.99609375
1771279702.824125,18.06640625,242.67578125,35.15625,29.78515625,41.50390625
1771279702.8280313,-0.48828125,-65.91796875,33.203125,12.20703125,33.69140625
1771279702.8319376,11.23046875,-62.01171875,42.48046875,20.99609375,36.1328125
1771279702.8358438,25.87890625,163.0859375,42.96875,38.57421875,22.4609375
1771279702.83975,43.45703125,191.40625,35.15625,40.52734375,25.87890625
1771279702.8436563,35.64453125,-113.76953125,33.203125,23.4375,-3.41796875
1771279702.8475626,17.08984375,-201.66015625,33.203125,13.18359375,8.30078125
1771279702.8514688,26.85546875,96.6796875,29.78515625,24.90234375,13.671875
1771279702.855375,35.15625,154.78515625,29.78515625,34.66796875,-21.97265625
1771279702.8592813,23.92578125,-155.76171875,34.1796875,26.85546875,15.625
1771279702.8631876,22.4609375,-127.44140625,32.2265625,21.97265625,17.08984375
1771279702.8670938,40.52734375,108.3984375,24.90234375,31.73828125,-9.27734375
1771279702.870125,59.5703125,260.25390625,34.66796875,39.0625,17.08984375
1771279702.8740313,48.33984375,185.546875,41.9921875,43.9453125,-9.27734375
1771279702.8779376,24.4140625,-31.73828125,39.55078125,33.203125,-3.41796875
1771279702.8818438,24.4140625,-53.7109375,45.8984375,31.25,11.71875
1771279702.88575,53.22265625,144.04296875,46.875,42.48046875,17.578125
1771279702.8896563,43.9453125,153.3203125,45.41015625,29.78515625,38.57421875
1771279702.8935626,6.34765625,-90.8203125,44.43359375,18.5546875,35.15625
1771279702.8974688,4.39453125,-125.9765625,33.203125,15.625,16.6015625
1771279702.901375,28.3203125,-63.96484375,32.71484375,30.76171875,13.18359375
1771279702.9052813,26.85546875,161.62109375,41.50390625,31.73828125,77.63671875
1771279702.9091876,4.39453125,196.2890625,32.2265625,13.671875,87.40234375
1771279702.9130938,12.20703125,-174.31640625,27.83203125,14.16015625,24.4140625
1771279702.915125,34.66796875,-73.73046875,37.109375,32.71484375,34.1796875
1771279702.9190311,37.109375,304.19921875,40.0390625,42.96875,48.828125
1771279702.9229374,29.296875,201.66015625,36.1328125,36.62109375,17.08984375
1771279702.9268436,22.4609375,-123.53515625,33.69140625,31.25,29.296875
1771279702.93075,38.0859375,-63.4765625,36.62109375,40.0390625,57.6171875
1771279702.9346561,61.5234375,170.8984375,37.59765625,52.24609375,66.40625
1771279702.9385624,57.12890625,200.1953125,28.3203125,57.12890625,91.30859375
1771279702.9424686,58.59375,-123.53515625,33.203125,59.5703125,62.01171875
1771279702.946375,75.1953125,-241.2109375,39.0625,71.77734375,38.0859375
1771279702.9502811,90.33203125,173.33984375,27.83203125,84.9609375,-11.23046875
1771279702.9541874,95.703125,292.96875,25.390625,91.30859375,-8.30078125
1771279702.9580936,80.56640625,-68.84765625,28.3203125,87.40234375,36.62109375
1771279702.960125,79.58984375,-205.078125,28.3203125,84.47265625,4.8828125
1771279702.9640312,104.4921875,98.14453125,37.109375,105.95703125,28.3203125
1771279702.9679375,111.328125,227.5390625,38.57421875,110.83984375,75.1953125
1771279702.9718437,111.81640625,-4.8828125,32.71484375,111.328125,38.0859375
1771279702.97575,109.86328125,-163.57421875,28.80859375,107.91015625,15.625
1771279702.9796562,115.72265625,-44.43359375,33.203125,107.421875,7.32421875
1771279702.9835625,128.90625,213.37890625,42.96875,116.69921875,62.98828125
1771279702.9874687,109.86328125,3.41796875,26.3671875,93.26171875,61.03515625
1771279702.991375,91.30859375,-245.60546875,24.4140625,88.37890625,21.97265625
1771279702.9952812,107.421875,69.3359375,43.9453125,108.88671875,66.89453125
1771279702.9991875,121.58203125,247.0703125,45.41015625,121.58203125,89.35546875
1771279703.0030937,118.1640625,118.65234375,39.55078125,124.0234375,38.57421875
1771279703.004125,102.5390625,-41.015625,34.1796875,103.02734375,43.45703125
1771279703.0080314,100.09765625,-44.43359375,29.296875,87.890625,59.08203125
1771279703.0119376,115.234375,49.8046875,26.3671875,105.46875,-22.94921875
1771279703.0158439,103.02734375,156.25,30.2734375,104.4921875,8.7890625
1771279703.01975,84.9609375,-26.85546875,37.109375,83.0078125,43.45703125
1771279703.0236564,86.42578125,-191.40625,33.203125,84.47265625,38.57421875
1771279703.0275626,104.98046875,-67.87109375,34.66796875,96.19140625,33.69140625
1771279703.0314689,111.328125,-48.33984375,47.8515625,88.37890625,-24.90234375
1771279703.035375,80.078125,34.66796875,58.10546875,75.68359375,-3.41796875
1771279703.0392814,59.5703125,0.0,51.26953125,66.89453125,-9.27734375
1771279703.0431876,84.9609375,22.4609375,47.8515625,72.75390625,-3.41796875
1771279703.0470939,99.12109375,284.1796875,43.9453125,82.03125,53.22265625
1771279703.049125,72.75390625,228.515625,38.57421875,78.125,43.9453125
1771279703.0530312,50.29296875,-69.82421875,37.59765625,71.77734375,25.390625
1771279703.0569375,62.98828125,-94.23828125,31.25,71.77734375,56.15234375
1771279703.0608437,98.14453125,159.66796875,33.69140625,77.63671875,26.85546875
1771279703.06475,93.26171875,184.08203125,43.45703125,75.1953125,-40.52734375
1771279703.0686562,61.5234375,-104.98046875,46.875,73.2421875,4.8828125
1771279703.0725625,63.4765625,-361.328125,39.0625,77.1484375,11.23046875
1771279703.0764687,79.58984375,-92.28515625,37.109375,71.77734375,-8.30078125
1771279703.080375,89.84375,338.8671875,41.015625,79.1015625,-12.6953125
1771279703.0842812,67.3828125,111.81640625,34.1796875,62.98828125,-2.44140625
1771279703.0881875,52.24609375,-134.765625,30.76171875,35.15625,30.76171875
1771279703.0920937,69.82421875,74.70703125,33.203125,52.734375,1.46484375
1771279703.095125,74.21875,275.87890625,38.57421875,63.96484375,-41.015625
1771279703.0990312,57.12890625,67.3828125,35.15625,52.24609375,-12.6953125
1771279703.1029375,46.875,-190.4296875,30.2734375,49.8046875,8.30078125
1771279703.1068437,60.05859375,-22.94921875,36.62109375,50.78125,0.48828125
1771279703.11075,66.89453125,258.7890625,38.0859375,56.15234375,23.4375
1771279703.1146562,54.19921875,19.53125,26.3671875,49.8046875,-9.765625
1771279703.1185625,25.390625,-327.1484375,36.1328125,37.59765625,1.46484375
1771279703.1224687,21.484375,-52.24609375,49.31640625,38.57421875,36.1328125
1771279703.126375,48.33984375,229.98046875,44.43359375,44.43359375,8.30078125
1771279703.1302812,49.31640625,111.328125,52.734375,43.9453125,41.9921875
1771279703.1341875,25.87890625,-67.87109375,58.10546875,37.59765625,46.38671875
1771279703.1380937,25.390625,-59.08203125,47.8515625,44.921875,-3.41796875
1771279703.155125,43.45703125,168.45703125,48.33984375,59.08203125,44.921875
1771279703.1590312,41.9921875,248.046875,48.828125,55.6640625,41.9921875
1771279703.1629374,29.78515625,50.29296875,45.8984375,40.0390625,23.92578125
1771279703.1668437,32.2265625,-65.4296875,46.875,29.296875,88.8671875
1771279703.17075,44.921875,41.015625,40.0390625,35.15625,78.61328125
1771279703.1746562,57.12890625,106.4453125,40.0390625,51.7578125,8.30078125
1771279703.1785624,48.33984375,20.5078125,39.55078125,50.29296875,3.41796875
1771279703.1824687,23.92578125,-47.8515625,31.25,28.3203125,59.5703125
1771279703.186375,35.64453125,-22.4609375,31.25,37.109375,50.29296875
1771279703.1902812,63.4765625,16.6015625,37.59765625,54.6875,-10.7421875
1771279703.1941874,40.0390625,118.1640625,38.57421875,41.9921875,43.45703125
1771279703.1980937,15.13671875,0.0,33.69140625,34.1796875,74.21875
1771279703.200125,34.66796875,-141.11328125,37.59765625,49.31640625,34.66796875
1771279703.2040312,67.3828125,95.703125,50.29296875,52.24609375,61.5234375
1771279703.2079375,57.6171875,291.9921875,51.7578125,39.55078125,72.265625
1771279703.2118437,6.8359375,51.26953125,42.96875,25.87890625,19.53125
1771279703.21575,7.8125,-180.6640625,41.9921875,29.296875,26.3671875
1771279703.2196562,41.50390625,-50.78125,41.9921875,46.875,20.99609375
1771279703.2235625,56.15234375,140.625,33.69140625,49.8046875,-6.34765625
1771279703.2274687,37.59765625,105.95703125,34.66796875,38.0859375,52.24609375
1771279703.231375,27.34375,-168.9453125,39.55078125,32.71484375,86.9140625
1771279703.2352812,53.22265625,-176.26953125,37.59765625,37.59765625,45.8984375
1771279703.2391875,71.2890625,291.015625,45.8984375,48.828125,12.20703125
1771279703.2430937,51.26953125,280.76171875,41.9921875,38.0859375,50.29296875
1771279703.247125,24.4140625,-53.22265625,37.59765625,22.4609375,92.7734375
1771279703.2510312,23.4375,-102.5390625,42.48046875,34.1796875,66.89453125
1771279703.2549374,48.828125,172.36328125,41.015625,41.015625,57.12890625
1771279703.2588437,45.41015625,258.7890625,36.1328125,36.62109375,67.87109375
1771279703.26275,11.71875,-127.44140625,28.3203125,27.83203125,37.109375
1771279703.2666562,20.99609375,-219.23828125,31.73828125,22.94921875,60.05859375
1771279703.2705624,55.17578125,102.5390625,39.0625,37.59765625,58.59375
1771279703.2744687,51.7578125,287.109375,43.45703125,40.52734375,67.3828125
1771279703.278375,15.625,-108.3984375,38.57421875,24.90234375,96.6796875
1771279703.2822812,-0.48828125,-286.62109375,38.57421875,22.94921875,23.92578125
1771279703.2861874,39.0625,128.90625,47.8515625,37.59765625,-25.87890625
1771279703.2900937,64.453125,267.578125,41.50390625,37.109375,23.92578125
1771279703.290125,29.78515625,72.265625,37.109375,25.87890625,60.05859375
1771279703.2940311,5.859375,-111.328125,38.0859375,12.6953125,24.90234375
1771279703.2979374,20.5078125,0.0,40.52734375,24.90234375,2.9296875
1771279703.3018436,43.9453125,174.31640625,49.31640625,50.29296875,41.9921875
1771279703.30575,30.76171875,65.4296875,43.45703125,28.80859375,23.4375
1771279703.3096561,2.44140625,-181.15234375,31.73828125,14.16015625,35.64453125
1771279703.3135624,19.53125,-143.06640625,37.59765625,29.296875,11.71875
1771279703.3174686,50.29296875,93.75,48.33984375,38.57421875,-21.97265625
1771279703.321375,47.36328125,-39.55078125,41.50390625,29.296875,19.04296875
1771279703.3252811,23.92578125,-88.8671875,35.64453125,10.25390625,-3.90625
1771279703.3291874,38.0859375,26.3671875,31.73828125,16.11328125,3.41796875
1771279703.3330936,61.5234375,156.25,35.15625,45.41015625,22.4609375
1771279703.334125,41.9921875,267.578125,52.734375,52.734375,7.8125
1771279703.3380313,17.08984375,122.55859375,48.33984375,26.3671875,48.33984375
1771279703.3419375,19.04296875,-95.21484375,35.15625,12.20703125,47.36328125
1771279703.3458438,48.33984375,10.7421875,39.0625,34.1796875,20.01953125
1771279703.34975,55.17578125,224.609375,47.36328125,48.828125,-2.9296875
1771279703.3536563,15.625,54.6875,41.50390625,28.80859375,9.27734375
1771279703.3575625,-2.9296875,-193.84765625,33.69140625,25.87890625,25.87890625
1771279703.3614688,19.53125,-251.46484375,30.76171875,37.59765625,7.8125
1771279703.365375,36.1328125,42.96875,37.59765625,45.8984375,24.90234375
1771279703.3692813,25.87890625,312.98828125,44.921875,42.48046875,31.25
1771279703.3731875,16.11328125,-6.34765625,36.62109375,27.83203125,14.6484375
1771279703.3770938,35.64453125,-92.7734375,39.0625,33.69140625,39.0625
1771279703.379125,49.31640625,210.9375,42.48046875,40.0390625,11.23046875
1771279703.3830314,38.57421875,271.484375,44.921875,38.57421875,-19.53125
1771279703.3869376,18.5546875,-41.50390625,41.9921875,34.66796875,18.06640625
1771279703.3908439,21.484375,-174.31640625,43.45703125,35.64453125,22.4609375
1771279703.39475,45.41015625,118.65234375,45.8984375,46.875,4.8828125
1771279703.3986564,44.43359375,236.328125,39.0625,48.828125,37.109375
1771279703.4025626,20.01953125,-94.23828125,36.62109375,23.92578125,36.1328125
1771279703.4064689,18.06640625,-297.36328125,37.109375,16.6015625,50.78125
1771279703.410375,34.1796875,11.71875,42.96875,34.1796875,48.33984375
1771279703.4142814,43.9453125,286.62109375,46.38671875,41.9921875,3.90625
1771279703.4181876,34.1796875,79.1015625,39.55078125,33.203125,-48.828125
1771279703.4220939,27.34375,-196.77734375,35.15625,22.94921875,-39.0625
1771279703.424125,50.78125,5.859375,52.24609375,54.19921875,-20.99609375
1771279703.4280312,64.453125,289.55078125,61.03515625,75.68359375,-2.9296875
1771279703.4319375,51.7578125,232.91015625,38.0859375,51.7578125,66.40625
1771279703.4358437,37.59765625,-61.03515625,30.76171875,43.9453125,20.01953125
1771279703.43975,41.015625,-97.16796875,41.015625,56.15234375,-24.90234375
1771279703.4436562,66.40625,97.65625,44.921875,67.3828125,17.08984375
1771279703.4475625,71.2890625,-11.23046875,39.0625,71.77734375,-0.48828125
1771279703.4514687,51.7578125,-145.99609375,34.66796875,63.96484375,8.7890625
1771279703.455375,56.640625,-6.34765625,43.45703125,58.10546875,46.38671875
1771279703.4592812,78.125,150.390625,46.38671875,71.77734375,58.59375
1771279703.4631875,85.9375,213.8671875,37.109375,73.73046875,69.82421875
1771279703.4670937,64.94140625,38.57421875,34.66796875,60.05859375,60.546875
1771279703.470125,41.50390625,-83.0078125,32.71484375,56.640625,46.38671875
1771279703.4740312,56.15234375,-47.8515625,29.78515625,65.91796875,40.52734375
1771279703.4779375,85.9375,96.19140625,40.0390625,74.21875,34.66796875
1771279703.4818437,70.3125,157.2265625,34.66796875,63.4765625,41.015625
1771279703.48575,38.0859375,-65.91796875,28.3203125,52.24609375,20.5078125
1771279703.4896562,45.41015625,-221.19140625,36.62109375,53.7109375,10.25390625
1771279703.4935625,61.5234375,-62.98828125,43.45703125,55.17578125,7.32421875
1771279703.4974687,60.05859375,213.37890625,41.50390625,49.31640625,1.46484375
1771279703.501375,42.48046875,49.8046875,24.4140625,39.0625,12.6953125
1771279703.5052812,39.0625,-129.8828125,23.92578125,41.50390625,19.04296875
1771279703.5091875,66.89453125,97.16796875,44.43359375,62.5,-11.23046875
1771279703.5130937,58.59375,290.52734375,47.36328125,44.921875,19.04296875
1771279703.529125,35.15625,75.1953125,37.109375,35.15625,98.6328125
1771279703.5330312,47.8515625,-184.08203125,31.73828125,53.7109375,96.19140625
1771279703.5369375,62.5,19.53125,26.3671875,53.22265625,74.70703125
1771279703.5408437,50.78125,274.90234375,31.73828125,31.25,60.546875
1771279703.54475,-10.25390625,111.81640625,33.69140625,-15.13671875,41.9921875
1771279703.5486562,-37.59765625,-411.1328125,29.78515625,-41.015625,-35.15625
1771279703.5525625,-30.2734375,-310.546875,35.15625,-41.50390625,-60.05859375
1771279703.5564687,-31.73828125,329.1015625,48.33984375,-37.109375,18.5546875
1771279703.560375,-56.15234375,243.1640625,47.8515625,-60.05859375,22.94921875
1771279703.5642812,-84.9609375,-127.9296875,30.2734375,-90.8203125,28.3203125
1771279703.5681875,-58.10546875,-74.70703125,28.80859375,-71.2890625,31.25
1771279703.5720937,-27.34375,216.796875,33.69140625,-46.38671875,-11.71875
1771279703.574125,-34.66796875,204.58984375,22.4609375,-49.8046875,20.01953125
1771279703.5780313,-54.19921875,-58.10546875,22.4609375,-53.7109375,101.07421875
1771279703.5819376,-43.45703125,-105.95703125,24.90234375,-47.8515625,83.984375
1771279703.5858438,-0.48828125,69.3359375,23.4375,-21.484375,3.41796875
1771279703.58975,16.6015625,116.69921875,26.85546875,-9.765625,-4.8828125
1771279703.5936563,-6.8359375,-139.16015625,18.5546875,-24.90234375,21.97265625
1771279703.5975626,-4.8828125,-187.01171875,21.97265625,-18.5546875,26.85546875
1771279703.6014688,13.671875,138.671875,29.296875,-0.9765625,51.7578125
1771279703.605375,14.6484375,201.66015625,27.34375,11.71875,66.89453125
1771279703.6092813,-0.48828125,-65.4296875,29.296875,-2.44140625,68.359375
1771279703.6131876,-14.6484375,-87.890625,24.90234375,-6.8359375,51.26953125
1771279703.6170938,10.25390625,48.33984375,17.578125,7.32421875,42.96875
1771279703.620125,20.99609375,216.796875,32.2265625,3.90625,52.24609375
1771279703.6240313,19.04296875,176.7578125,37.109375,6.8359375,32.2265625
1771279703.6279376,10.7421875,-49.8046875,23.4375,6.8359375,20.01953125
1771279703.6318438,7.8125,-84.47265625,28.80859375,1.953125,49.8046875
1771279703.63575,40.0390625,104.00390625,34.1796875,19.04296875,29.296875
1771279703.6396563,41.50390625,113.28125,30.76171875,23.4375,23.92578125
1771279703.6435626,18.5546875,-148.4375,28.3203125,9.765625,22.4609375
1771279703.6474688,7.8125,-196.2890625,27.34375,8.7890625,-9.27734375
1771279703.651375,24.4140625,-87.890625,29.296875,17.578125,25.390625
1771279703.6552813,41.015625,86.42578125,36.1328125,19.53125,61.5234375
1771279703.6591876,23.4375,194.82421875,33.69140625,9.765625,36.1328125
1771279703.6630938,17.08984375,-85.44921875,23.4375,11.23046875,-2.44140625
1771279703.665125,41.015625,-38.57421875,34.1796875,33.69140625,-17.578125
1771279703.6690311,35.64453125,320.80078125,43.45703125,30.76171875,42.48046875
1771279703.6729374,20.5078125,225.09765625,34.1796875,23.92578125,59.5703125
1771279703.6768436,16.6015625,-158.69140625,27.83203125,25.390625,41.9921875
1771279703.68075,27.34375,-159.1796875,32.71484375,26.85546875,22.4609375
1771279703.6846561,47.36328125,78.125,38.57421875,36.1328125,-24.4140625
1771279703.6885624,37.109375,196.2890625,39.0625,27.83203125,33.203125
1771279703.6924686,11.71875,-67.3828125,25.87890625,18.5546875,114.2578125
1771279703.696375,21.484375,-440.4296875,25.390625,16.11328125,50.78125
1771279703.7002811,42.96875,31.25,41.015625,30.2734375,6.8359375
1771279703.7041874,38.57421875,368.65234375,43.45703125,42.96875,5.859375
1771279703.7080936,18.06640625,21.97265625,28.3203125,36.62109375,7.8125
1771279703.709125,6.34765625,-105.95703125,25.390625,27.34375,81.0546875
1771279703.7130313,32.2265625,128.41796875,38.0859375,33.203125,57.6171875
1771279703.7169375,46.38671875,273.4375,41.9921875,38.57421875,13.671875
1771279703.7208438,22.94921875,48.828125,37.109375,33.69140625,19.53125
1771279703.72475,7.32421875,-163.57421875,31.73828125,18.06640625,39.55078125
1771279703.7286563,25.390625,-79.1015625,42.48046875,32.71484375,61.03515625
1771279703.7325625,43.9453125,162.109375,37.109375,54.6875,65.91796875
1771279703.7364688,26.85546875,-53.7109375,28.80859375,27.83203125,35.15625
1771279703.740375,12.6953125,-256.34765625,42.96875,16.11328125,36.62109375
1771279703.7442813,25.390625,62.5,48.33984375,26.85546875,66.40625
1771279703.7481875,51.26953125,203.61328125,43.45703125,40.0390625,36.1328125
1771279703.7520938,37.109375,109.375,41.015625,35.64453125,15.13671875
1771279703.754125,-0.48828125,-16.6015625,39.55078125,14.16015625,34.66796875
1771279703.7580314,-0.48828125,-61.5234375,37.59765625,11.71875,13.671875
1771279703.7619376,50.29296875,85.9375,34.66796875,43.45703125,25.87890625
1771279703.7658439,73.73046875,209.9609375,45.8984375,64.453125,60.546875
1771279703.76975,20.01953125,31.25,51.7578125,24.4140625,-5.37109375
1771279703.7736564,-33.203125,-219.7265625,34.66796875,-45.8984375,-35.15625
1771279703.7775626,-54.6875,-88.8671875,43.9453125,-69.3359375,32.2265625
1771279703.7814689,-92.7734375,194.3359375,54.6875,-93.26171875,11.71875
1771279703.785375,-136.23046875,172.8515625,54.6875,-131.8359375,-14.6484375
1771279703.7892814,-171.875,-13.671875,60.546875,-169.43359375,36.1328125
1771279703.7931876,-187.98828125,-112.79296875,57.12890625,-198.2421875,48.828125
1771279703.7970939,-193.359375,76.66015625,65.91796875,-200.68359375,61.03515625
1771279703.800125,-220.703125,255.37109375,77.63671875,-228.02734375,27.34375
1771279703.8040311,-262.20703125,-54.6875,73.73046875,-266.11328125,15.13671875
1771279703.8079374,-289.0625,-157.71484375,77.63671875,-284.1796875,50.29296875
1771279703.8118436,-286.1328125,199.21875,87.890625,-282.71484375,61.5234375
1771279703.81575,-300.78125,340.8203125,84.9609375,-299.8046875,50.78125
1771279703.8196561,-333.984375,-24.90234375,80.56640625,-318.359375,45.8984375
1771279703.8235624,-333.0078125,-347.65625,83.0078125,-318.359375,40.0390625
1771279703.8274686,-317.87109375,-25.390625,82.51953125,-319.82421875,28.3203125
1771279703.831375,-330.56640625,437.98828125,82.03125,-322.75390625,59.08203125
1771279703.8352811,-341.30859375,144.53125,82.03125,-325.1953125,56.640625
1771279703.8391874,-337.890625,-187.98828125,82.51953125,-318.84765625,19.53125
1771279703.8430936,-308.59375,23.92578125,97.65625,-294.921875,15.625
1771279703.844125,-285.64453125,343.75,106.93359375,-281.73828125,60.05859375
1771279703.8480313,-288.57421875,153.80859375,100.09765625,-277.34375,41.50390625
1771279703.8519375,-288.0859375,-187.5,83.49609375,-261.23046875,9.765625
1771279703.8558438,-250.9765625,-81.0546875,84.9609375,-238.76953125,41.015625
1771279703.85975,-215.8203125,231.93359375,99.12109375,-213.8671875,54.6875
1771279703.8636563,-211.42578125,104.4921875,70.3125,-202.63671875,33.203125
1771279703.8675625,-207.03125,-385.7421875,60.05859375,-191.89453125,41.015625
1771279703.8714688,-191.89453125,-184.08203125,98.6328125,-178.22265625,58.59375
1771279703.875375,-175.78125,309.08203125,97.65625,-165.52734375,38.57421875
1771279703.8792813,-162.109375,276.3671875,79.1015625,-143.06640625,29.296875
1771279703.8831875,-169.921875,-5.37109375,77.1484375,-137.6953125,24.90234375
1771279703.8870938,-160.64453125,-115.72265625,80.078125,-128.41796875,-15.13671875
1771279703.905125,-124.0234375,106.93359375,80.56640625,-86.9140625,9.27734375
1771279703.9090312,-123.53515625,258.7890625,77.1484375,-78.61328125,43.9453125
1771279703.9129374,-128.41796875,63.4765625,69.82421875,-84.47265625,24.90234375
1771279703.9168437,-112.79296875,-106.4453125,63.96484375,-68.359375,19.04296875
1771279703.92075,-86.42578125,-0.9765625,74.21875,-51.26953125,-13.18359375
1771279703.9246562,-48.33984375,146.484375,76.171875,-47.36328125,-15.625
1771279703.9285624,-53.7109375,54.6875,61.5234375,-50.29296875,19.53125
1771279703.9324687,-70.3125,-133.7890625,61.03515625,-27.34375,56.640625
1771279703.936375,-47.8515625,-9.27734375,67.3828125,0.48828125,48.33984375
1771279703.9402812,-23.92578125,62.5,60.546875,11.71875,57.12890625
1771279703.9441874,-14.16015625,51.26953125,65.91796875,13.671875,35.15625
1771279703.9480937,-25.390625,76.171875,68.84765625,18.5546875,-9.765625
1771279703.949125,-22.94921875,-18.06640625,56.15234375,31.25,61.5234375
1771279703.9530313,14.6484375,164.0625,51.26953125,44.43359375,69.82421875
1771279703.9569376,29.78515625,334.9609375,59.5703125,44.43359375,55.6640625
1771279703.9608438,9.765625,108.88671875,57.12890625,30.2734375,50.78125
1771279703.96475,11.23046875,-150.390625,48.828125,40.52734375,33.203125
1771279703.9686563,37.109375,-52.734375,48.33984375,60.05859375,16.6015625
1771279703.9725626,51.26953125,229.98046875,46.875,60.546875,65.4296875
1771279703.9764688,49.8046875,169.43359375,37.109375,52.734375,53.22265625
1771279703.980375,31.73828125,-202.63671875,26.3671875,48.33984375,14.16015625
1771279703.9842813,40.52734375,-267.578125,35.64453125,55.6640625,30.76171875
1771279703.9881876,83.49609375,243.1640625,49.8046875,71.77734375,3.41796875
1771279703.9920938,62.98828125,360.83984375,46.875,74.21875,20.01953125
1771279703.994125,29.78515625,-8.30078125,42.96875,62.5,53.7109375
1771279703.9980311,62.01171875,-34.1796875,47.36328125,66.40625,-20.5078125
1771279704.0019374,74.21875,289.0625,41.50390625,78.61328125,-15.13671875
1771279704.0058436,45.8984375,318.84765625,34.66796875,66.89453125,48.33984375
1771279704.00975,25.390625,-14.16015625,38.0859375,55.17578125,53.7109375
1771279704.0136561,29.78515625,-230.46875,33.69140625,52.734375,-17.578125
1771279704.0175624,52.734375,59.5703125,36.62109375,59.5703125,-34.66796875
1771279704.0214686,71.77734375,330.078125,49.31640625,66.89453125,-1.953125
1771279704.025375,58.10546875,-104.00390625,37.109375,61.5234375,17.578125
1771279704.0292811,42.96875,-222.16796875,17.578125,55.17578125,74.70703125
1771279704.0331874,52.24609375,179.19921875,32.2265625,65.4296875,75.1953125
1771279704.0370936,58.59375,257.8125,36.62109375,76.171875,17.578125
1771279704.039125,46.38671875,57.12890625,23.4375,62.98828125,6.8359375
1771279704.0430312,34.66796875,-70.80078125,31.25,46.38671875,12.6953125
1771279704.0469375,47.8515625,86.9140625,39.0625,68.359375,51.26953125
1771279704.0508437,66.40625,253.41796875,42.96875,90.8203125,88.8671875
1771279704.05475,64.94140625,152.34375,41.9921875,69.3359375,49.31640625
1771279704.0586562,51.7578125,-173.828125,34.1796875,51.7578125,-35.15625
1771279704.0625625,44.921875,-154.78515625,37.109375,53.22265625,-35.64453125
1771279704.0664687,70.3125,125.0,25.87890625,60.05859375,50.78125
1771279704.070375,70.80078125,88.8671875,17.578125,63.4765625,55.6640625
1771279704.0742812,38.0859375,36.62109375,32.71484375,52.24609375,12.20703125
1771279704.0781875,35.64453125,0.48828125,25.390625,50.78125,-11.71875
1771279704.0820937,60.546875,136.71875,31.73828125,71.2890625,-27.34375
1771279704.085125,85.44921875,247.0703125,47.36328125,77.1484375,8.30078125
1771279704.0890312,79.58984375,80.078125,46.38671875,66.89453125,40.52734375
1771279704.0929375,46.875,-17.08984375,38.0859375,62.01171875,94.7265625
1771279704.0968437,57.6171875,10.7421875,33.69140625,63.96484375,90.8203125
1771279704.10075,71.2890625,214.35546875,20.99609375,62.5,51.26953125
1771279704.1046562,64.94140625,121.09375,6.34765625,61.5234375,51.7578125
1771279704.1085625,35.15625,-194.82421875,22.94921875,48.828125,-5.859375
1771279704.1124687,24.4140625,-226.5625,41.015625,40.52734375,5.859375
1771279704.116375,48.33984375,145.5078125,49.8046875,56.15234375,70.3125
1771279704.1202812,35.64453125,360.3515625,52.24609375,52.24609375,54.6875
1771279704.1241875,24.90234375,-18.5546875,46.38671875,40.52734375,20.01953125
1771279704.1280937,27.34375,-108.3984375,38.57421875,34.1796875,44.921875
1771279704.130125,50.29296875,242.67578125,42.48046875,38.57421875,96.19140625
1771279704.1340313,63.4765625,323.73046875,40.52734375,43.45703125,60.546875
1771279704.1379375,35.15625,-34.66796875,31.73828125,30.2734375,42.48046875
1771279704.1418438,32.71484375,-236.81640625,35.15625,27.34375,22.94921875
1771279704.14575,51.7578125,76.66015625,33.203125,46.875,-0.9765625
1771279704.1496563,61.03515625,249.0234375,26.3671875,57.6171875,28.80859375
1771279704.1535625,41.50390625,-28.80859375,30.76171875,43.45703125,49.31640625
1771279704.1574688,32.2265625,-381.8359375,28.3203125,26.85546875,78.61328125
1771279704.161375,54.19921875,-36.1328125,36.1328125,37.109375,81.0546875
1771279704.1652813,51.7578125,392.08984375,40.52734375,57.12890625,22.4609375
1771279704.1691875,33.203125,196.77734375,40.52734375,36.1328125,27.83203125
1771279704.1730938,26.85546875,-31.25,34.66796875,19.53125,109.375
1771279704.175125,41.015625,23.92578125,30.76171875,38.57421875,81.54296875
1771279704.1790311,67.87109375,218.26171875,37.109375,46.38671875,4.8828125
1771279704.1829374,58.10546875,152.83203125,32.2265625,41.015625,-19.53125
1771279704.1868436,20.01953125,-104.00390625,21.484375,29.296875,-30.2734375
1771279704.19075,21.97265625,-117.67578125,19.04296875,29.296875,1.953125
1771279704.1946561,49.8046875,97.65625,34.1796875,53.22265625,48.828125
1771279704.1985624,50.29296875,6.34765625,41.9921875,53.22265625,21.484375
1771279704.2024686,35.15625,-195.80078125,35.64453125,31.73828125,34.66796875
1771279704.206375,29.78515625,-32.2265625,38.57421875,30.76171875,46.875
1771279704.2102811,48.828125,156.73828125,40.52734375,43.45703125,40.0390625
1771279704.2141874,58.59375,256.8359375,36.62109375,53.7109375,41.015625
1771279704.2180936,37.109375,130.859375,35.64453125,45.41015625,7.32421875
1771279704.219125,20.5078125,-52.24609375,34.66796875,36.62109375,54.6875
1771279704.2230313,35.64453125,-63.4765625,32.2265625,45.41015625,11.23046875
1771279704.2269375,60.05859375,143.5546875,34.66796875,50.78125,-4.8828125
1771279704.2308438,44.43359375,197.265625,36.1328125,37.109375,50.29296875
1771279704.23475,17.578125,-74.21875,20.01953125,28.3203125,9.765625
1771279704.2386563,35.64453125,-237.3046875,-2.9296875,41.50390625,24.4140625
1771279704.2425625,60.546875,-83.0078125,31.25,47.36328125,0.0
1771279704.2464688,52.24609375,177.24609375,58.10546875,41.9921875,19.53125
1771279704.250375,29.78515625,29.78515625,49.31640625,34.1796875,55.17578125
1771279704.2542813,24.90234375,-162.59765625,41.015625,35.64453125,51.26953125
1771279704.2581875,45.8984375,71.77734375,36.1328125,45.8984375,67.3828125
1771279704.2620938,53.7109375,274.4140625,43.9453125,42.96875,25.390625
1771279704.279125,26.85546875,43.9453125,46.38671875,32.71484375,15.13671875
1771279704.2830312,16.6015625,-154.296875,34.1796875,26.3671875,18.06640625
1771279704.2869375,51.26953125,36.1328125,39.55078125,48.33984375,25.390625
1771279704.2908437,63.4765625,306.640625,46.875,50.29296875,24.90234375
1771279704.29475,31.25,123.046875,28.80859375,33.203125,-8.30078125
1771279704.2986562,12.20703125,-244.140625,12.6953125,20.5078125,13.18359375
1771279704.3025625,29.296875,-146.97265625,32.2265625,25.87890625,70.3125
1771279704.3064687,46.875,246.09375,58.10546875,40.52734375,15.625
1771279704.310375,36.62109375,230.95703125,47.8515625,33.203125,14.6484375
1771279704.3142812,21.484375,-182.12890625,33.69140625,20.5078125,78.125
1771279704.3181875,39.55078125,-187.98828125,38.57421875,23.92578125,75.68359375
1771279704.3220937,58.10546875,225.5859375,40.0390625,44.43359375,23.92578125
1771279704.324125,47.8515625,227.05078125,39.55078125,41.50390625,12.6953125
1771279704.3280313,33.69140625,-123.046875,38.0859375,24.4140625,46.875
1771279704.3319376,31.25,-121.58203125,31.25,27.83203125,56.15234375
1771279704.3358438,45.8984375,143.06640625,30.76171875,36.1328125,13.671875
1771279704.33975,57.6171875,196.77734375,39.0625,40.52734375,-21.484375
1771279704.3436563,34.66796875,-100.5859375,26.85546875,26.85546875,-34.66796875
1771279704.3475626,21.97265625,-230.95703125,29.78515625,19.04296875,7.8125
1771279704.3514688,38.57421875,94.23828125,48.33984375,39.55078125,71.2890625
1771279704.355375,54.6875,223.14453125,45.8984375,57.6171875,105.46875
1771279704.3592813,38.57421875,-90.33203125,32.71484375,35.15625,53.7109375
1771279704.3631876,6.34765625,-115.234375,35.64453125,12.6953125,42.48046875
1771279704.3670938,18.06640625,14.16015625,41.50390625,33.203125,27.34375
1771279704.369125,37.59765625,161.62109375,45.41015625,43.9453125,11.23046875
1771279704.3730311,35.15625,185.546875,56.640625,35.15625,40.0390625
1771279704.3769374,17.578125,-26.85546875,44.43359375,21.97265625,23.4375
1771279704.3808436,22.94921875,-67.87109375,31.25,27.83203125,56.640625
1771279704.38475,48.828125,59.5703125,42.96875,39.0625,43.9453125
1771279704.3886561,49.31640625,72.75390625,48.33984375,38.0859375,7.8125
1771279704.3925624,31.73828125,-75.68359375,45.8984375,30.2734375,-5.859375
1771279704.3964686,27.34375,-113.28125,31.25,22.94921875,-2.44140625
1771279704.400375,44.43359375,-85.9375,28.3203125,32.2265625,36.62109375
1771279704.4042811,54.19921875,127.9296875,40.52734375,43.9453125,62.01171875
1771279704.4081874,27.83203125,189.453125,41.015625,30.76171875,14.6484375
1771279704.4120936,11.23046875,-123.53515625,25.87890625,32.2265625,14.16015625
1771279704.415125,34.1796875,-37.109375,29.78515625,53.7109375,57.12890625
1771279704.4190311,59.08203125,280.76171875,44.921875,46.38671875,43.45703125
1771279704.4229374,39.0625,229.00390625,43.45703125,29.296875,82.51953125
1771279704.4268436,5.37109375,-197.75390625,30.2734375,22.94921875,106.93359375
1771279704.43075,35.15625,-247.55859375,19.53125,39.0625,50.29296875
1771279704.4346561,64.453125,97.16796875,30.76171875,53.22265625,17.578125
1771279704.4385624,32.71484375,188.4765625,48.828125,36.62109375,25.390625
1771279704.4424686,-5.859375,-132.32421875,39.0625,2.9296875,20.5078125
1771279704.446375,5.859375,-354.98046875,25.87890625,13.671875,-23.4375
1771279704.4502811,15.13671875,162.109375,49.31640625,32.71484375,-14.16015625
1771279704.4541874,15.625,407.2265625,50.78125,16.11328125,15.625
1771279704.4580936,4.39453125,31.25,43.45703125,6.8359375,0.48828125
1771279704.459125,-10.25390625,-110.83984375,43.9453125,13.18359375,79.58984375
1771279704.4630313,10.25390625,118.1640625,42.96875,28.3203125,66.89453125
1771279704.4669375,23.4375,257.8125,41.9921875,30.2734375,-23.4375
1771279704.4708438,2.44140625,87.40234375,38.57421875,19.53125,41.015625
1771279704.47475,-11.23046875,-166.015625,36.62109375,17.578125,53.22265625
1771279704.4786563,24.4140625,-130.37109375,40.52734375,30.76171875,19.04296875
1771279704.4825625,49.31640625,175.78125,44.921875,41.015625,75.68359375
1771279704.4864688,18.06640625,-13.671875,30.76171875,24.4140625,73.73046875
1771279704.490375,0.48828125,-339.84375,30.2734375,14.6484375,8.30078125
1771279704.4942813,18.5546875,-19.53125,23.92578125,25.87890625,-7.32421875
1771279704.4981875,52.24609375,275.87890625,19.53125,41.50390625,23.4375
1771279704.5020938,49.31640625,262.6953125,42.48046875,42.96875,74.21875
1771279704.505125,20.99609375,28.3203125,45.41015625,32.2265625,49.8046875
1771279704.5090313,22.4609375,-83.984375,39.0625,31.25,18.5546875
1771279704.5129375,49.31640625,72.75390625,39.55078125,39.0625,40.52734375
1771279704.5168438,50.29296875,235.3515625,43.9453125,42.48046875,97.16796875
1771279704.52075,18.5546875,69.3359375,36.62109375,41.50390625,80.56640625
1771279704.5246563,13.18359375,-222.16796875,35.15625,31.73828125,44.921875
1771279704.5285625,45.41015625,-145.99609375,49.31640625,41.015625,72.75390625
1771279704.5324688,59.5703125,10.25390625,42.96875,54.19921875,36.1328125
1771279704.536375,41.9921875,80.56640625,32.2265625,36.62109375,3.41796875
1771279704.5402813,12.6953125,-8.7890625,29.78515625,26.3671875,7.8125
1771279704.5441875,24.4140625,-74.70703125,26.85546875,41.015625,46.38671875
1771279704.5480938,47.8515625,168.45703125,32.71484375,50.29296875,68.84765625
1771279704.549125,34.66796875,274.90234375,37.109375,31.73828125,58.10546875
1771279704.5530312,16.11328125,-49.8046875,39.55078125,16.11328125,31.25
1771279704.5569375,25.390625,-155.2734375,50.29296875,26.85546875,29.78515625
1771279704.5608437,57.12890625,152.34375,56.15234375,48.828125,61.03515625
1771279704.56475,57.12890625,272.4609375,47.8515625,50.29296875,50.29296875
1771279704.5686562,24.4140625,-97.16796875,35.15625,34.66796875,16.11328125
1771279704.5725625,18.06640625,-450.68359375,34.1796875,39.0625,-5.37109375
1771279704.5764687,42.48046875,-97.16796875,39.0625,59.5703125,15.625
1771279704.580375,47.36328125,374.51171875,32.71484375,63.4765625,6.34765625
1771279704.5842812,31.25,128.90625,29.78515625,40.0390625,22.94921875
1771279704.5881875,30.2734375,-179.6875,36.1328125,20.01953125,111.81640625
1771279704.5920937,53.22265625,16.6015625,42.96875,39.0625,97.16796875
1771279704.609125,53.22265625,338.8671875,41.9921875,49.8046875,48.33984375
1771279704.6130311,31.25,135.25390625,34.1796875,31.25,76.66015625
1771279704.6169374,14.16015625,-262.6953125,44.43359375,19.53125,75.1953125
1771279704.6208436,20.5078125,-101.07421875,49.31640625,28.3203125,24.4140625
1771279704.62475,47.8515625,286.62109375,43.45703125,46.875,64.94140625
1771279704.6286561,41.9921875,92.7734375,47.36328125,41.50390625,66.40625
1771279704.6325624,17.08984375,-358.3984375,42.96875,20.5078125,31.25
1771279704.6364686,25.87890625,-159.66796875,36.1328125,17.578125,41.50390625
1771279704.640375,49.31640625,234.86328125,32.2265625,42.48046875,15.625
1771279704.6442811,37.109375,272.94921875,36.62109375,39.0625,67.87109375
1771279704.6481874,19.53125,18.06640625,45.8984375,9.765625,105.46875
1771279704.6520936,11.71875,-155.2734375,37.109375,16.11328125,24.90234375
1771279704.654125,24.90234375,23.4375,39.0625,31.73828125,25.87890625
1771279704.6580312,53.7109375,137.6953125,47.36328125,33.69140625,47.36328125
1771279704.6619375,40.52734375,-33.69140625,39.0625,28.80859375,-20.5078125
1771279704.6658437,13.671875,-152.83203125,30.76171875,23.92578125,-38.0859375
1771279704.66975,22.4609375,-27.34375,35.64453125,33.69140625,-23.92578125
1771279704.6736562,48.828125,146.484375,44.43359375,34.66796875,5.859375
1771279704.6775625,39.55078125,79.58984375,50.29296875,18.06640625,28.3203125
1771279704.6814687,2.9296875,-109.86328125,41.015625,13.671875,-24.90234375
1771279704.685375,13.18359375,-81.0546875,33.203125,18.5546875,-33.203125
1771279704.6892812,44.921875,-13.18359375,42.96875,33.69140625,39.0625
1771279704.6931875,33.69140625,57.12890625,48.33984375,30.76171875,30.2734375
1771279704.6970937,9.765625,38.0859375,42.48046875,5.859375,28.3203125
1771279704.699125,11.71875,-130.37109375,38.0859375,7.8125,62.5
1771279704.7030313,32.2265625,99.12109375,34.66796875,26.3671875,51.26953125
1771279704.7069376,34.1796875,233.3984375,40.52734375,31.25,20.01953125
1771279704.7108438,16.6015625,6.34765625,40.0390625,18.5546875,21.97265625
1771279704.71475,12.6953125,-224.609375,33.69140625,12.20703125,19.04296875
1771279704.7186563,30.2734375,-143.5546875,34.1796875,22.4609375,34.1796875
1771279704.7225626,28.3203125,166.9921875,35.15625,23.92578125,28.80859375
1771279704.7264688,1.953125,161.62109375,26.85546875,4.8828125,10.7421875
1771279704.730375,10.7421875,-211.42578125,35.64453125,15.13671875,2.9296875
1771279704.7342813,31.73828125,-255.37109375,47.36328125,29.296875,19.04296875
1771279704.7381876,45.8984375,278.3203125,38.0859375,24.4140625,26.85546875
1771279704.7420938,31.73828125,281.25,42.48046875,21.484375,-15.13671875
1771279704.745125,18.5546875,-134.27734375,52.734375,15.625,-38.57421875
1771279704.7490313,39.0625,-99.609375,47.36328125,20.99609375,9.765625
1771279704.7529376,30.76171875,253.41796875,42.48046875,31.73828125,25.390625
1771279704.7568438,11.71875,285.64453125,41.9921875,25.87890625,12.6953125
1771279704.76075,3.90625,-16.11328125,32.71484375,12.6953125,79.58984375
1771279704.7646563,6.34765625,-222.65625,30.2734375,15.625,66.40625
1771279704.7685626,31.25,19.53125,41.9921875,33.203125,50.78125
1771279704.7724688,40.0390625,238.76953125,42.96875,33.69140625,60.05859375
1771279704.776375,17.578125,-190.4296875,36.62109375,22.4609375,4.39453125
1771279704.7802813,7.32421875,-395.01953125,41.015625,15.625,-0.9765625
1771279704.7841876,22.94921875,145.99609375,53.22265625,25.390625,20.99609375
1771279704.7880938,43.45703125,372.55859375,46.38671875,26.85546875,10.7421875
1771279704.789125,15.625,140.13671875,50.78125,8.7890625,7.8125
1771279704.7930312,-17.08984375,-22.4609375,60.546875,0.0,76.66015625
1771279704.7969375,-9.765625,64.453125,54.19921875,-13.18359375,100.09765625
1771279704.8008437,-0.48828125,198.2421875,53.7109375,-13.671875,35.64453125
1771279704.80475,-5.859375,133.30078125,61.5234375,-7.8125,33.69140625
1771279704.8086562,-27.34375,-177.24609375,69.82421875,-19.04296875,46.38671875
1771279704.8125625,-51.7578125,-219.23828125,65.4296875,-44.921875,9.765625
1771279704.8164687,-42.48046875,21.484375,60.546875,-55.6640625,-10.7421875
1771279704.820375,-43.45703125,-108.3984375,63.96484375,-67.3828125,-14.16015625
1771279704.8242812,-66.40625,-126.953125,64.94140625,-81.0546875,8.7890625
1771279704.8281875,-81.54296875,-10.25390625,64.94140625,-72.75390625,-2.44140625
1771279704.8320937,-75.1953125,119.140625,75.1953125,-79.58984375,31.73828125
1771279704.834125,-71.2890625,347.16796875,80.56640625,-89.84375,110.3515625
1771279704.8380313,-105.95703125,173.33984375,66.89453125,-114.2578125,47.36328125
1771279704.8419375,-110.83984375,-123.53515625,63.96484375,-122.55859375,-8.7890625
1771279704.8458438,-95.703125,-40.52734375,59.5703125,-117.1875,-17.08984375
1771279704.84975,-96.19140625,236.81640625,55.6640625,-121.58203125,-26.85546875
1771279704.8536563,-110.3515625,126.953125,67.3828125,-134.27734375,16.11328125
1771279704.8575625,-126.953125,-161.62109375,63.4765625,-147.94921875,16.6015625
1771279704.8614688,-125.0,-243.65234375,62.98828125,-143.5546875,25.390625
1771279704.865375,-117.67578125,92.7734375,71.2890625,-142.08984375,41.015625
1771279704.8692813,-116.2109375,395.5078125,67.3828125,-156.25,40.52734375
1771279704.8731875,-119.62890625,-34.1796875,60.05859375,-152.83203125,10.7421875
1771279704.8770938,-123.046875,-262.6953125,62.98828125,-142.578125,-50.78125
1771279704.879125,-98.6328125,167.96875,61.5234375,-122.0703125,-6.8359375
1771279704.8830314,-88.37890625,413.57421875,51.7578125,-111.328125,63.96484375
1771279704.8869376,-105.95703125,-7.32421875,48.33984375,-125.48828125,35.15625
1771279704.8908439,-79.58984375,-239.2578125,48.33984375,-102.05078125,56.640625
1771279704.89475,-14.6484375,80.56640625,45.41015625,-53.22265625,97.16796875
1771279704.8986564,-0.9765625,225.09765625,35.15625,-43.9453125,67.3828125
1771279704.9025626,-21.484375,-112.79296875,19.04296875,-59.08203125,63.4765625
1771279704.9064689,-10.25390625,-485.83984375,16.11328125,-41.015625,22.94921875
1771279704.910375,27.83203125,-78.61328125,15.625,-1.953125,59.5703125
1771279704.9142814,73.2421875,351.5625,8.30078125,45.8984375,62.01171875
1771279704.9181876,80.56640625,156.73828125,-4.8828125,49.31640625,48.828125
1771279704.9220939,78.125,-194.82421875,-17.08984375,41.015625,34.66796875
1771279704.925125,119.140625,-238.76953125,-19.53125,83.49609375,-3.90625
1771279704.9290311,167.96875,135.7421875,-15.625,131.8359375,31.25
1771279704.9329374,192.87109375,125.0,-29.296875,150.87890625,39.55078125
1771279704.9368436,187.98828125,-192.87109375,-38.0859375,155.76171875,43.9453125
1771279704.94075,196.77734375,-187.98828125,-32.71484375,179.6875,37.59765625
1771279704.9446561,248.53515625,-54.6875,-29.78515625,211.9140625,-36.62109375
1771279704.9485624,267.08984375,-115.72265625,-30.2734375,224.609375,-26.3671875
1771279704.9524686,241.2109375,-260.25390625,-40.52734375,222.16796875,21.484375
1771279704.956375,245.1171875,-166.9921875,-43.45703125,238.76953125,16.6015625
1771279704.9602811,284.66796875,14.16015625,-33.69140625,261.71875,52.734375
1771279704.9641874,296.875,169.921875,-29.78515625,254.39453125,45.41015625
1771279704.9680936,286.62109375,80.56640625,-29.78515625,252.44140625,40.0390625
1771279704.984125,287.59765625,-165.0390625,-34.1796875,261.71875,51.7578125
1771279704.9880311,292.96875,-156.73828125,-38.0859375,265.13671875,66.40625
1771279704.9919374,308.59375,-28.80859375,-31.73828125,279.296875,-4.39453125
1771279704.9958436,301.26953125,-10.7421875,-27.83203125,274.90234375,-27.34375
1771279704.99975,272.4609375,-164.0625,-24.4140625,254.39453125,-0.48828125
1771279705.0036561,287.109375,-322.75390625,-21.484375,264.6484375,4.39453125
1771279705.0075624,327.63671875,-270.5078125,-15.625,284.1796875,47.8515625
1771279705.0114686,313.4765625,-4.8828125,-16.11328125,279.296875,-14.16015625
1771279705.015375,272.4609375,-12.6953125,-13.671875,271.484375,-77.63671875
1771279705.0192811,281.73828125,-203.125,-4.8828125,283.69140625,-2.9296875
1771279705.0231874,309.08203125,32.2265625,-7.8125,291.9921875,20.01953125
1771279705.0270936,299.8046875,295.8984375,-8.7890625,283.203125,22.94921875
1771279705.030125,279.78515625,71.2890625,-7.8125,275.390625,47.36328125
1771279705.0340312,267.08984375,-269.53125,-3.41796875,257.8125,21.484375
1771279705.0379374,273.4375,-111.328125,4.39453125,255.859375,-1.953125
1771279705.0418437,287.59765625,282.2265625,9.27734375,262.6953125,60.546875
1771279705.04575,257.32421875,150.390625,4.39453125,249.51171875,94.7265625
1771279705.0496562,232.91015625,-356.4453125,1.953125,234.86328125,-21.484375
1771279705.0535624,245.1171875,-316.40625,13.671875,240.234375,-5.859375
1771279705.0574687,252.44140625,98.14453125,8.30078125,236.328125,20.99609375
1771279705.061375,225.5859375,202.1484375,5.37109375,212.40234375,-11.23046875
1771279705.0652812,198.2421875,-332.51953125,8.30078125,193.359375,0.0
1771279705.0691874,201.66015625,-419.43359375,15.13671875,186.03515625,7.32421875
1771279705.0730937,207.03125,252.44140625,25.390625,196.2890625,18.5546875
1771279705.074125,192.3828125,345.703125,21.484375,187.98828125,54.6875
1771279705.0780313,165.52734375,-2.9296875,10.7421875,154.78515625,89.84375
1771279705.0819376,145.5078125,-138.671875,7.32421875,155.76171875,52.734375
1771279705.0858438,172.8515625,125.9765625,19.53125,165.52734375,54.19921875
1771279705.08975,192.3828125,283.203125,30.2734375,158.69140625,104.4921875
1771279705.0936563,155.2734375,-42.48046875,24.90234375,143.5546875,102.5390625
1771279705.0975626,132.32421875,-293.45703125,16.11328125,126.953125,40.52734375
1771279705.1014688,151.85546875,-79.1015625,28.80859375,139.16015625,-6.34765625
1771279705.105375,163.57421875,133.7890625,39.55078125,151.85546875,-16.11328125
1771279705.1092813,144.53125,-155.76171875,23.4375,134.765625,-13.671875
1771279705.1131876,114.74609375,-228.02734375,18.06640625,120.1171875,-27.34375
1771279705.1170938,122.55859375,39.55078125,30.2734375,132.32421875,17.578125
1771279705.119125,143.5546875,188.96484375,29.78515625,137.20703125,49.31640625
1771279705.1230311,128.41796875,210.44921875,27.83203125,127.9296875,13.18359375
1771279705.1269374,99.12109375,74.21875,28.3203125,107.421875,42.96875
1771279705.1308436,107.91015625,-57.6171875,30.76171875,106.93359375,35.64453125
1771279705.13475,131.8359375,162.59765625,39.55078125,125.9765625,54.19921875
1771279705.1386561,121.09375,248.046875,39.0625,109.375,70.80078125
1771279705.1425624,84.9609375,-53.22265625,26.3671875,89.35546875,23.92578125
1771279705.1464686,73.2421875,-166.015625,19.53125,94.7265625,26.85546875
1771279705.150375,102.5390625,6.34765625,31.25,111.328125,88.37890625
1771279705.1542811,122.0703125,230.46875,40.0390625,103.515625,108.3984375
1771279705.1581874,88.8671875,199.70703125,36.1328125,80.56640625,80.078125
1771279705.1620936,73.2421875,-63.96484375,34.66796875,83.984375,52.734375
1771279705.165125,96.19140625,-182.12890625,33.203125,86.9140625,12.20703125
1771279705.1690311,104.4921875,211.9140625,26.85546875,81.0546875,4.39453125
1771279705.1729374,83.0078125,392.08984375,22.4609375,75.1953125,49.31640625
1771279705.1768436,62.5,-19.04296875,25.87890625,65.91796875,82.03125
1771279705.18075,76.171875,-144.04296875,34.1796875,76.66015625,-2.44140625
1771279705.1846561,98.14453125,122.0703125,44.43359375,91.30859375,-27.83203125
1771279705.1885624,93.75,274.4140625,47.36328125,79.58984375,27.34375
1771279705.1924686,70.3125,-46.38671875,33.69140625,66.89453125,36.1328125
1771279705.196375,79.58984375,-375.9765625,19.04296875,79.58984375,-3.90625
1771279705.2002811,98.6328125,145.5078125,33.203125,101.07421875,3.41796875
1771279705.2041874,110.83984375,484.86328125,42.48046875,106.4453125,0.48828125
1771279705.2080936,84.47265625,87.890625,36.1328125,83.49609375,4.39453125
1771279705.209125,60.546875,-226.5625,29.78515625,80.078125,15.625
1771279705.2130313,91.30859375,113.28125,33.69140625,105.46875,26.3671875
1771279705.2169375,118.1640625,456.54296875,36.62109375,109.375,56.640625
1771279705.2208438,108.88671875,138.18359375,32.2265625,105.95703125,44.921875
1771279705.22475,94.23828125,-192.3828125,32.71484375,100.5859375,24.90234375
1771279705.2286563,110.83984375,-108.3984375,31.73828125,109.86328125,0.48828125
1771279705.2325625,119.140625,289.0625,35.15625,115.234375,54.19921875
1771279705.2364688,110.83984375,115.72265625,34.1796875,114.74609375,50.78125
1771279705.240375,82.03125,-257.8125,28.80859375,95.21484375,32.71484375
1771279705.2442813,82.51953125,36.62109375,34.66796875,91.796875,38.0859375
1771279705.2481875,107.421875,301.26953125,38.57421875,106.93359375,27.34375
1771279705.2520938,96.6796875,293.9453125,34.66796875,91.30859375,8.30078125
1771279705.255125,75.68359375,39.55078125,34.66796875,79.58984375,-21.97265625
1771279705.2590313,78.125,-57.12890625,29.296875,73.73046875,1.46484375
1771279705.2629375,92.7734375,48.33984375,25.87890625,87.890625,-6.34765625
1771279705.2668438,86.42578125,196.77734375,32.2265625,88.37890625,20.99609375
1771279705.27075,55.6640625,189.94140625,40.52734375,64.94140625,85.9375
1771279705.2746563,49.31640625,-147.94921875,37.109375,57.12890625,35.15625
1771279705.2785625,75.68359375,-174.31640625,31.73828125,71.77734375,11.23046875
1771279705.2824688,91.30859375,73.2421875,41.015625,81.0546875,41.9921875
1771279705.286375,72.265625,242.1875,41.9921875,61.03515625,62.01171875
1771279705.2902813,43.9453125,44.43359375,39.0625,47.36328125,27.83203125
1771279705.2941875,68.84765625,-41.9921875,41.9921875,55.17578125,8.30078125
1771279705.2980938,79.1015625,297.8515625,38.0859375,68.84765625,62.5
1771279705.299125,51.26953125,321.77734375,40.52734375,65.4296875,-2.9296875
1771279705.3030312,41.50390625,-3.90625,39.55078125,47.36328125,1.46484375
1771279705.3069375,56.15234375,-159.66796875,37.59765625,49.31640625,9.765625
1771279705.3108437,75.68359375,167.48046875,41.015625,64.94140625,9.27734375
1771279705.31475,68.84765625,317.3828125,38.0859375,62.01171875,36.1328125
1771279705.3186562,42.96875,-70.80078125,34.66796875,46.875,20.5078125
1771279705.3225625,44.921875,-420.41015625,37.109375,50.78125,29.296875
1771279705.3264687,64.453125,-205.56640625,41.015625,61.5234375,5.37109375
1771279705.330375,70.3125,398.4375,46.38671875,64.94140625,-19.53125
1771279705.3342812,57.6171875,266.11328125,40.52734375,54.6875,-22.4609375
1771279705.3381875,38.0859375,-121.09375,29.78515625,47.8515625,-16.11328125
1771279705.3420937,49.31640625,51.26953125,30.2734375,61.03515625,-33.203125
1771279705.344125,67.3828125,448.2421875,37.59765625,63.96484375,13.671875
1771279705.3480313,55.17578125,294.921875,34.1796875,44.921875,55.6640625
1771279705.3519375,41.50390625,-139.6484375,17.578125,46.875,18.5546875
1771279705.3558438,60.546875,-18.5546875,32.71484375,71.2890625,23.92578125
1771279705.35975,68.84765625,363.76953125,47.8515625,71.2890625,32.2265625
1771279705.3636563,60.546875,269.04296875,35.64453125,51.7578125,96.6796875
1771279705.3675625,48.33984375,-258.30078125,33.203125,38.0859375,93.26171875
1771279705.3714688,44.921875,-219.7265625,33.69140625,41.015625,32.71484375
1771279705.375375,67.3828125,351.07421875,41.015625,60.05859375,66.40625
1771279705.3792813,61.03515625,393.5546875,44.921875,55.6640625,81.54296875
1771279705.3831875,40.52734375,19.04296875,42.96875,49.8046875,35.15625
1771279705.3870938,54.6875,-31.25,45.8984375,63.4765625,4.8828125
1771279705.404125,75.1953125,184.5703125,44.921875,72.75390625,-0.9765625
1771279705.4080312,79.1015625,377.44140625,47.8515625,73.73046875,19.53125
1771279705.4119375,58.59375,241.69921875,40.52734375,58.59375,69.82421875
1771279705.4158437,39.0625,-28.80859375,30.76171875,49.8046875,36.62109375
1771279705.41975,49.31640625,83.0078125,39.0625,58.59375,57.12890625
1771279705.4236562,68.84765625,228.02734375,36.62109375,63.96484375,62.5
1771279705.4275625,61.5234375,152.34375,28.80859375,52.734375,25.87890625
1771279705.4314687,40.52734375,47.8515625,34.1796875,48.33984375,50.78125
1771279705.435375,49.8046875,69.3359375,37.59765625,56.15234375,78.61328125
1771279705.4392812,78.125,73.2421875,39.55078125,59.08203125,76.66015625
1771279705.4431875,61.5234375,127.9296875,40.0390625,52.24609375,12.6953125
1771279705.4470937,36.62109375,179.6875,37.59765625,39.0625,6.34765625
1771279705.449125,41.015625,-42.96875,40.52734375,48.33984375,-8.30078125
1771279705.4530313,56.15234375,166.50390625,41.50390625,58.10546875,13.671875
1771279705.4569376,57.12890625,477.5390625,35.15625,51.7578125,56.15234375
1771279705.4608438,37.109375,274.4140625,39.0625,44.43359375,55.6640625
1771279705.46475,30.2734375,-81.0546875,39.0625,38.0859375,57.6171875
1771279705.4686563,36.62109375,-40.0390625,34.66796875,35.15625,52.24609375
1771279705.4725626,44.43359375,287.59765625,39.0625,32.2265625,5.859375
1771279705.4764688,27.34375,346.19140625,41.50390625,29.296875,16.6015625
1771279705.480375,10.25390625,-69.3359375,36.62109375,21.484375,77.1484375
1771279705.4842813,28.3203125,-217.7734375,35.15625,26.3671875,83.0078125
1771279705.4881876,50.29296875,386.23046875,44.43359375,40.0390625,81.54296875
1771279705.4920938,38.0859375,447.75390625,40.0390625,37.109375,43.9453125
1771279705.494125,15.13671875,-115.234375,34.1796875,29.296875,43.45703125
1771279705.4980311,26.3671875,-137.20703125,38.57421875,34.1796875,3.41796875
1771279705.5019374,46.875,362.3046875,39.55078125,43.9453125,-25.87890625
1771279705.5058436,48.33984375,522.4609375,45.41015625,41.50390625,46.875
1771279705.50975,31.73828125,144.04296875,42.48046875,28.3203125,62.5
1771279705.5136561,21.484375,-174.8046875,28.3203125,22.4609375,19.04296875
1771279705.5175624,39.0625,105.95703125,29.296875,35.15625,15.625
1771279705.5214686,44.43359375,535.64453125,38.0859375,32.71484375,69.3359375
1771279705.525375,28.3203125,61.03515625,35.64453125,18.06640625,65.91796875
1771279705.5292811,25.390625,-312.5,41.9921875,27.83203125,-4.8828125
1771279705.5331874,39.55078125,214.84375,43.45703125,38.57421875,-8.7890625
1771279705.5370936,42.96875,446.77734375,29.78515625,35.64453125,17.08984375
1771279705.540125,22.4609375,294.43359375,28.80859375,26.85546875,63.4765625
1771279705.5440311,16.6015625,46.38671875,30.2734375,21.97265625,44.921875
1771279705.5479374,24.90234375,1.46484375,32.2265625,22.4609375,11.71875
1771279705.5518436,37.59765625,258.30078125,42.96875,36.1328125,33.203125
1771279705.55575,37.59765625,236.81640625,44.43359375,36.1328125,1.953125
1771279705.5596561,13.671875,-94.7265625,41.9921875,33.69140625,-26.85546875
1771279705.5635624,17.578125,-106.4453125,41.015625,31.73828125,2.44140625
1771279705.5674686,53.7109375,188.4765625,35.64453125,32.71484375,15.13671875
1771279705.571375,42.96875,174.8046875,33.69140625,34.1796875,14.16015625
1771279705.5752811,10.7421875,131.34765625,45.8984375,14.16015625,13.18359375
1771279705.5791874,6.8359375,83.984375,45.8984375,7.8125,15.13671875
1771279705.5830936,29.78515625,212.890625,37.109375,18.5546875,50.29296875
1771279705.584125,39.55078125,452.63671875,39.55078125,23.4375,55.17578125
1771279705.5880313,17.08984375,296.38671875,37.59765625,17.578125,20.5078125
1771279705.5919375,6.8359375,-45.8984375,30.2734375,20.01953125,0.48828125
1771279705.5958438,30.2734375,42.96875,30.2734375,20.01953125,47.36328125
1771279705.59975,38.57421875,307.6171875,36.62109375,17.578125,60.546875
1771279705.6036563,24.90234375,151.3671875,34.1796875,19.53125,29.296875
1771279705.6075625,20.99609375,-83.984375,33.69140625,18.5546875,23.4375
1771279705.6114688,18.06640625,-218.26171875,41.50390625,21.484375,29.78515625
1771279705.615375,23.92578125,15.625,42.48046875,31.73828125,60.05859375
1771279705.6192813,18.5546875,458.0078125,42.48046875,25.390625,53.7109375
1771279705.6231875,-4.39453125,167.48046875,37.109375,9.27734375,22.94921875
1771279705.6270938,5.37109375,-55.17578125,37.59765625,19.04296875,51.26953125
1771279705.630125,38.0859375,307.6171875,42.48046875,34.1796875,62.98828125
1771279705.6340313,33.203125,495.1171875,35.64453125,25.390625,26.3671875
1771279705.6379375,0.48828125,137.6953125,31.25,8.30078125,58.10546875
1771279705.6418438,-5.859375,-146.97265625,32.71484375,-0.48828125,86.42578125
1771279705.64575,22.4609375,110.83984375,34.66796875,10.7421875,43.9453125
1771279705.6496563,34.66796875,316.89453125,33.69140625,23.4375,39.0625
1771279705.6535625,8.30078125,41.9921875,36.1328125,8.7890625,58.10546875
1771279705.6574688,7.32421875,-526.85546875,32.71484375,-3.90625,7.8125
1771279705.661375,36.1328125,-226.5625,34.66796875,7.8125,-10.7421875
1771279705.6652813,50.29296875,461.42578125,38.57421875,31.73828125,-7.32421875
1771279705.6691875,48.33984375,353.02734375,28.3203125,33.69140625,31.25
1771279705.6730938,13.671875,6.8359375,24.90234375,18.5546875,77.1484375
1771279705.674125,5.37109375,0.9765625,31.25,18.06640625,39.0625
1771279705.6780312,35.64453125,305.17578125,36.62109375,20.5078125,30.76171875
1771279705.6819375,32.2265625,348.14453125,38.57421875,17.578125,75.68359375
1771279705.6858437,5.859375,0.9765625,42.96875,13.18359375,44.921875
1771279705.68975,11.71875,-140.625,35.15625,20.99609375,0.0
1771279705.6936562,38.0859375,74.70703125,26.3671875,40.52734375,18.06640625
1771279705.6975625,44.921875,45.8984375,34.1796875,38.0859375,27.83203125
1771279705.7014687,12.20703125,-113.76953125,36.62109375,19.04296875,46.875
1771279705.705375,-0.9765625,-9.765625,33.69140625,14.6484375,69.3359375
1771279705.7092812,34.1796875,41.50390625,35.15625,31.73828125,26.85546875
1771279705.7131875,52.734375,232.421875,36.1328125,41.9921875,36.62109375
1771279705.7170937,25.87890625,270.5078125,29.296875,25.390625,54.6875
1771279705.720125,10.25390625,18.5546875,28.3203125,18.06640625,31.73828125
1771279705.7240312,51.7578125,-14.6484375,39.0625,42.96875,57.12890625
1771279705.7279375,82.51953125,262.6953125,47.8515625,69.3359375,73.73046875
1771279705.7318437,47.8515625,317.87109375,32.71484375,51.26953125,32.2265625
1771279705.73575,-6.8359375,-25.87890625,22.4609375,11.71875,-14.6484375
1771279705.7396562,-19.53125,-268.06640625,33.69140625,-4.39453125,19.53125
1771279705.7435625,-3.90625,-112.79296875,40.0390625,-10.7421875,74.21875
1771279705.7474687,-4.8828125,285.15625,38.57421875,-13.18359375,62.98828125
1771279705.751375,-17.578125,167.96875,35.15625,-15.13671875,30.2734375
1771279705.7552812,-19.04296875,-161.1328125,36.1328125,-20.01953125,17.08984375
1771279705.7591875,-5.859375,98.14453125,41.015625,-6.8359375,24.4140625
1771279705.7630937,1.46484375,332.51953125,42.48046875,-4.39453125,-3.90625
1771279705.780125,-10.7421875,104.98046875,39.0625,-10.25390625,9.27734375
1771279705.7840312,-25.87890625,-224.609375,34.1796875,-10.7421875,36.62109375
1771279705.7879374,-3.41796875,-101.07421875,29.296875,-2.9296875,-2.44140625
1771279705.7918437,19.04296875,398.4375,36.1328125,4.8828125,26.85546875
1771279705.79575,5.859375,376.953125,30.2734375,8.30078125,99.609375
1771279705.7996562,-6.34765625,-291.50390625,12.6953125,5.37109375,59.5703125
1771279705.8035624,3.41796875,-348.6328125,29.78515625,5.37109375,16.11328125
1771279705.8074687,26.3671875,326.171875,47.8515625,21.484375,-13.671875
1771279705.811375,17.578125,359.86328125,39.55078125,21.97265625,-2.44140625
1771279705.8152812,-0.48828125,-49.8046875,43.9453125,13.18359375,58.10546875
1771279705.8191874,13.18359375,-104.00390625,40.0390625,9.765625,54.6875
1771279705.8230937,32.71484375,250.48828125,33.203125,23.92578125,22.4609375
1771279705.825125,34.66796875,326.171875,37.59765625,32.71484375,7.8125
1771279705.8290312,14.16015625,-42.96875,32.71484375,16.11328125,17.08984375
1771279705.8329375,19.53125,-245.1171875,33.69140625,20.01953125,-0.9765625
1771279705.8368437,34.1796875,85.44921875,41.9921875,35.64453125,-24.4140625
1771279705.84075,41.9921875,259.27734375,39.55078125,30.2734375,-30.2734375
1771279705.8446562,31.73828125,-93.26171875,27.34375,17.578125,-1.46484375
1771279705.8485625,19.04296875,-291.015625,25.87890625,18.06640625,43.9453125
1771279705.8524687,47.8515625,24.90234375,37.59765625,33.203125,32.2265625
1771279705.856375,53.22265625,232.421875,40.0390625,43.45703125,-9.765625
1771279705.8602812,18.06640625,-25.390625,35.15625,38.0859375,35.15625
1771279705.8641875,9.27734375,-99.609375,35.64453125,30.76171875,47.8515625
1771279705.8680937,35.15625,9.27734375,41.9921875,38.57421875,-6.34765625
1771279705.870125,58.10546875,225.09765625,42.48046875,41.9921875,-23.92578125
1771279705.8740313,55.17578125,294.921875,41.50390625,36.1328125,-0.48828125
1771279705.8779376,39.55078125,42.96875,30.76171875,35.64453125,26.3671875
1771279705.8818438,39.55078125,-90.8203125,21.484375,36.62109375,50.29296875
1771279705.88575,54.6875,83.0078125,36.1328125,40.0390625,30.2734375
1771279705.8896563,53.7109375,157.2265625,41.9921875,44.43359375,-24.90234375
1771279705.8935626,23.92578125,-50.29296875,41.015625,31.25,29.78515625
1771279705.8974688,17.578125,-172.36328125,34.66796875,32.2265625,50.78125
1771279705.901375,45.8984375,-131.8359375,28.80859375,46.38671875,69.82421875
1771279705.9052813,47.8515625,97.65625,39.55078125,42.96875,85.9375
1771279705.9091876,35.64453125,291.015625,32.71484375,36.1328125,51.7578125
1771279705.9130938,30.76171875,-38.57421875,25.390625,37.59765625,45.8984375
1771279705.914125,41.015625,-53.22265625,36.62109375,36.62109375,43.45703125
1771279705.9180312,54.19921875,355.46875,40.0390625,42.48046875,53.7109375
1771279705.9219375,35.15625,344.23828125,39.55078125,42.96875,47.8515625
1771279705.9258437,21.97265625,-146.97265625,29.78515625,22.4609375,-0.48828125
1771279705.92975,26.3671875,-253.41796875,25.390625,20.99609375,-18.06640625
1771279705.9336562,43.9453125,105.95703125,35.64453125,43.9453125,32.2265625
1771279705.9375625,53.7109375,173.33984375,37.109375,45.41015625,33.69140625
1771279705.9414687,35.15625,-186.5234375,29.296875,28.80859375,9.765625
1771279705.945375,24.90234375,-528.80859375,27.34375,22.4609375,33.203125
1771279705.9492812,50.29296875,24.4140625,38.57421875,40.52734375,92.28515625
1771279705.9531875,52.734375,525.390625,35.64453125,46.38671875,49.31640625
1771279705.9570937,22.4609375,159.1796875,33.69140625,25.87890625,39.55078125
1771279705.960125,12.20703125,-132.8125,27.83203125,21.484375,50.78125
1771279705.9640312,36.62109375,72.75390625,17.578125,43.9453125,-21.97265625
1771279705.9679375,55.6640625,368.65234375,36.1328125,50.78125,-17.578125
1771279705.9718437,45.41015625,181.640625,47.36328125,38.57421875,10.25390625
1771279705.97575,35.64453125,-133.30078125,42.48046875,35.15625,39.0625
1771279705.9796562,41.015625,-130.37109375,34.1796875,42.96875,32.2265625
1771279705.9835625,56.15234375,169.921875,37.59765625,49.31640625,34.1796875
1771279705.9874687,46.38671875,43.45703125,41.50390625,37.109375,39.0625
1771279705.991375,14.16015625,-319.82421875,35.15625,21.97265625,41.50390625
1771279705.9952812,18.06640625,-106.93359375,33.69140625,28.80859375,29.78515625
1771279705.9991875,43.9453125,292.96875,33.69140625,39.0625,21.97265625
1771279706.0030937,41.50390625,331.54296875,32.71484375,35.15625,68.84765625
1771279706.005125,25.390625,73.73046875,36.1328125,21.484375,46.875
1771279706.0090313,25.390625,-51.26953125,35.64453125,18.5546875,-1.46484375
1771279706.0129375,48.828125,74.21875,35.64453125,40.0390625,-35.15625
1771279706.0168438,60.546875,270.01953125,46.38671875,55.17578125,-41.015625
1771279706.02075,17.08984375,166.9921875,44.43359375,25.87890625,-10.7421875
1771279706.0246563,4.39453125,-205.56640625,34.1796875,29.296875,-20.5078125
1771279706.0285625,33.203125,-193.84765625,37.59765625,42.48046875,-3.41796875
1771279706.0324688,55.17578125,50.29296875,46.38671875,35.15625,11.23046875
1771279706.036375,25.390625,206.54296875,39.55078125,19.04296875,-4.39453125
1771279706.0402813,-10.25390625,49.31640625,35.15625,0.9765625,-11.71875
1771279706.0441875,12.6953125,-46.38671875,42.48046875,12.20703125,-19.53125
1771279706.0480938,32.71484375,268.5546875,53.7109375,25.390625,41.015625
1771279706.050125,20.5078125,405.2734375,51.26953125,13.18359375,30.2734375
1771279706.0540311,7.8125,114.2578125,45.8984375,-12.6953125,-27.83203125
1771279706.0579374,16.11328125,-136.23046875,48.828125,-1.953125,-4.8828125
1771279706.0618436,8.7890625,215.33203125,69.3359375,15.13671875,40.0390625
1771279706.06575,-10.7421875,601.07421875,79.1015625,-0.9765625,80.078125
1771279706.0696561,-45.8984375,252.44140625,69.3359375,-26.85546875,78.61328125
1771279706.0735624,-65.91796875,-247.55859375,70.80078125,-50.29296875,41.9921875
1771279706.0774686,-46.875,50.29296875,80.078125,-56.640625,33.69140625
1771279706.081375,-40.0390625,760.25390625,78.125,-65.91796875,75.1953125
1771279706.0852811,-78.61328125,620.60546875,68.359375,-93.26171875,76.66015625
1771279706.0891874,-107.421875,208.0078125,72.75390625,-111.81640625,35.64453125
1771279706.0930936,-105.46875,406.25,83.49609375,-106.4453125,35.64453125
1771279706.095125,-102.5390625,841.796875,86.9140625,-100.5859375,47.8515625
1771279706.0990312,-122.55859375,658.69140625,86.9140625,-112.79296875,41.50390625
1771279706.1029375,-147.4609375,159.66796875,83.984375,-136.71875,41.9921875
1771279706.1068437,-134.765625,299.8046875,90.8203125,-139.16015625,34.1796875
1771279706.11075,-118.1640625,748.53515625,94.23828125,-129.8828125,20.99609375
1771279706.1146562,-129.8828125,622.55859375,85.9375,-142.08984375,25.87890625
1771279706.1185625,-145.99609375,42.96875,88.8671875,-157.2265625,14.16015625
1771279706.1224687,-143.5546875,181.15234375,93.26171875,-149.4140625,33.69140625
1771279706.126375,-135.7421875,750.48828125,93.75,-143.5546875,80.078125
1771279706.1302812,-124.0234375,822.75390625,93.26171875,-140.625,62.01171875
1771279706.1341875,-131.8359375,552.24609375,88.8671875,-138.671875,108.88671875
1771279706.1380937,-149.90234375,342.28515625,82.51953125,-146.97265625,99.12109375
1771279706.157125,-127.9296875,511.23046875,85.44921875,-121.09375,58.59375
1771279706.1610312,-88.37890625,723.6328125,88.8671875,-91.796875,60.05859375
1771279706.1649375,-91.796875,508.30078125,72.265625,-96.19140625,3.90625
1771279706.1688437,-95.703125,229.4921875,64.94140625,-88.37890625,8.7890625
1771279706.17275,-58.10546875,273.4375,65.4296875,-54.19921875,67.3828125
1771279706.1766562,-23.92578125,308.59375,51.26953125,-37.59765625,27.83203125
1771279706.1805625,-24.4140625,196.77734375,42.48046875,-37.59765625,24.4140625
1771279706.1844687,-35.64453125,208.49609375,29.78515625,-30.76171875,9.27734375
1771279706.188375,-5.859375,267.08984375,20.99609375,-0.48828125,3.90625
1771279706.1922812,40.52734375,519.04296875,34.66796875,28.80859375,31.73828125
1771279706.1961875,48.33984375,694.82421875,35.15625,38.57421875,58.10546875
1771279706.2000937,38.57421875,429.6875,25.87890625,42.48046875,82.51953125
1771279706.199125,60.05859375,124.0234375,26.85546875,65.4296875,72.265625
1771279706.2030313,95.21484375,266.11328125,25.390625,94.23828125,30.76171875
1771279706.2069376,98.14453125,562.98828125,12.20703125,92.7734375,17.578125
1771279706.2108438,83.984375,362.3046875,11.71875,83.49609375,13.18359375
1771279706.21475,86.9140625,-76.171875,11.23046875,86.9140625,-17.08984375
1771279706.2186563,104.00390625,-43.9453125,12.6953125,107.91015625,-0.48828125
1771279706.2225626,116.2109375,291.9921875,12.6953125,108.3984375,19.53125
1771279706.2264688,105.46875,270.01953125,8.30078125,95.703125,46.875
1771279706.230375,94.7265625,-145.01953125,-0.48828125,97.65625,38.0859375
1771279706.2342813,112.79296875,-277.34375,-7.8125,103.02734375,-11.23046875
1771279706.2381876,133.30078125,382.8125,7.8125,107.421875,78.61328125
1771279706.2420938,120.1171875,557.6171875,16.11328125,102.05078125,45.8984375
1771279706.244125,93.26171875,-116.2109375,6.8359375,87.40234375,-32.71484375
1771279706.2480311,97.65625,-299.8046875,3.41796875,95.703125,8.30078125
1771279706.2519374,121.09375,335.9375,14.16015625,118.1640625,67.87109375
1771279706.2558436,115.234375,510.25390625,11.23046875,104.98046875,63.96484375
1771279706.25975,89.35546875,71.77734375,8.30078125,74.70703125,34.66796875
1771279706.2636561,83.0078125,-263.671875,9.765625,67.87109375,28.80859375
1771279706.2675624,98.14453125,-60.546875,10.25390625,82.51953125,5.859375
1771279706.2714686,96.19140625,329.58984375,16.11328125,89.84375,4.39453125
1771279706.275375,71.77734375,-53.22265625,8.30078125,78.61328125,27.83203125
1771279706.2792811,62.01171875,-542.96875,5.859375,73.73046875,-1.953125
1771279706.2831874,82.51953125,21.484375,20.99609375,88.8671875,11.71875
1771279706.2870936,104.00390625,465.33203125,18.06640625,102.5390625,45.41015625
1771279706.289125,87.890625,210.9375,5.37109375,89.35546875,-15.625
1771279706.2930312,68.359375,-107.91015625,12.20703125,76.171875,-32.71484375
1771279706.2969375,82.03125,-20.01953125,19.53125,85.9375,15.13671875
1771279706.3008437,107.421875,261.71875,24.90234375,95.703125,50.29296875
1771279706.30475,97.65625,234.375,26.85546875,93.26171875,31.25
1771279706.3086562,69.3359375,-158.69140625,22.94921875,83.49609375,31.73828125
1771279706.3125625,69.82421875,-308.10546875,20.01953125,77.1484375,21.484375
1771279706.3164687,87.890625,-3.41796875,17.08984375,85.44921875,22.94921875
1771279706.320375,87.890625,76.66015625,21.97265625,85.9375,76.171875
1771279706.3242812,68.84765625,27.34375,19.53125,66.89453125,78.61328125
1771279706.3281875,62.01171875,-74.21875,16.11328125,62.98828125,13.18359375
1771279706.3320937,77.63671875,-101.07421875,23.92578125,73.2421875,-10.7421875
1771279706.334125,89.84375,191.89453125,25.87890625,70.80078125,20.99609375
1771279706.3380313,72.265625,266.6015625,22.4609375,58.10546875,56.15234375
1771279706.3419375,56.640625,-63.96484375,20.99609375,47.36328125,70.80078125
1771279706.3458438,67.3828125,-41.015625,14.16015625,57.12890625,89.35546875
1771279706.34975,73.73046875,276.85546875,12.20703125,77.63671875,58.10546875
1771279706.3536563,61.03515625,152.34375,20.5078125,67.87109375,17.08984375
1771279706.3575625,40.0390625,-243.1640625,25.390625,51.26953125,41.50390625
1771279706.3614688,46.875,-442.3828125,22.94921875,55.6640625,51.26953125
1771279706.365375,72.265625,-43.9453125,33.69140625,61.5234375,76.171875
1771279706.3692813,65.91796875,427.734375,28.3203125,61.03515625,79.1015625
1771279706.3731875,43.9453125,89.84375,19.53125,50.78125,75.1953125
1771279706.3770938,62.5,-287.59765625,33.203125,49.8046875,26.3671875
1771279706.380125,79.58984375,34.1796875,37.109375,73.73046875,-23.4375
1771279706.3840313,60.05859375,316.89453125,40.0390625,76.171875,-24.90234375
1771279706.3879375,42.96875,-52.24609375,26.85546875,59.5703125,-15.625
1771279706.3918438,39.55078125,-330.56640625,20.5078125,58.10546875,46.38671875
1771279706.39575,59.5703125,9.27734375,29.78515625,63.4765625,48.33984375
1771279706.3996563,78.61328125,327.63671875,29.296875,68.84765625,51.7578125
1771279706.4035625,68.84765625,11.71875,23.92578125,61.5234375,44.921875
1771279706.4074688,58.10546875,-492.67578125,24.90234375,58.59375,7.32421875
1771279706.411375,66.89453125,-151.85546875,34.1796875,58.10546875,21.97265625
1771279706.4152813,75.68359375,426.7578125,35.15625,60.546875,27.83203125
1771279706.4191875,62.01171875,280.76171875,29.296875,56.640625,0.0
1771279706.4230938,40.52734375,-105.46875,24.90234375,44.921875,-2.44140625
1771279706.424125,50.29296875,-75.1953125,23.4375,47.36328125,5.37109375
1771279706.4280312,73.73046875,224.609375,21.97265625,57.12890625,-34.66796875
1771279706.4319375,66.40625,309.5703125,28.80859375,54.6875,-0.9765625
1771279706.4358437,35.64453125,-50.29296875,25.87890625,40.0390625,58.59375
1771279706.43975,34.66796875,-242.67578125,22.4609375,38.57421875,56.15234375
1771279706.4436562,67.3828125,25.87890625,26.3671875,47.36328125,23.92578125
1771279706.4475625,67.3828125,24.4140625,20.5078125,41.9921875,2.44140625
1771279706.4514687,38.57421875,-245.1171875,28.80859375,33.203125,33.69140625
1771279706.455375,40.52734375,-153.80859375,39.0625,44.921875,27.34375
1771279706.4592812,61.03515625,139.16015625,23.4375,52.734375,29.296875
1771279706.4631875,72.75390625,335.9375,20.5078125,50.29296875,4.8828125
1771279706.4670937,48.828125,274.90234375,26.85546875,45.41015625,18.06640625
1771279706.469125,23.4375,-28.80859375,24.90234375,38.0859375,31.73828125
1771279706.4730313,35.64453125,-133.30078125,31.25,41.9921875,-19.53125
1771279706.4769375,59.5703125,145.5078125,27.34375,57.6171875,-30.76171875
1771279706.4808438,63.96484375,327.1484375,21.97265625,44.43359375,32.2265625
1771279706.48475,37.109375,17.08984375,29.296875,33.203125,43.9453125
1771279706.4886563,41.9921875,-291.015625,32.71484375,48.828125,3.90625
1771279706.4925625,64.94140625,-306.15234375,30.2734375,47.36328125,9.27734375
1771279706.4964688,56.640625,45.41015625,34.1796875,45.8984375,1.46484375
1771279706.500375,43.45703125,164.55078125,35.64453125,49.8046875,11.71875
1771279706.5042813,45.8984375,-105.46875,32.71484375,50.78125,58.10546875
1771279706.5081875,55.6640625,89.84375,36.62109375,54.19921875,42.48046875
1771279706.5120938,61.5234375,432.12890625,41.50390625,60.05859375,16.6015625
1771279706.529125,34.66796875,254.39453125,41.50390625,45.8984375,52.734375
1771279706.5330312,13.18359375,-157.2265625,33.203125,20.99609375,61.5234375
1771279706.5369375,32.71484375,-56.15234375,33.203125,33.69140625,43.45703125
1771279706.5408437,42.96875,348.6328125,40.0390625,42.96875,33.69140625
1771279706.54475,39.0625,291.50390625,38.0859375,36.1328125,11.71875
1771279706.5486562,29.78515625,-348.6328125,29.78515625,26.85546875,24.4140625
1771279706.5525625,32.2265625,-430.6640625,32.71484375,33.69140625,19.04296875
1771279706.5564687,54.6875,287.109375,39.0625,60.05859375,11.71875
1771279706.560375,50.78125,347.65625,36.1328125,49.8046875,44.921875
1771279706.5642812,36.1328125,-215.33203125,36.1328125,32.71484375,70.80078125
1771279706.5681875,31.25,-289.55078125,36.1328125,40.0390625,17.08984375
1771279706.5720937,57.6171875,245.1171875,39.0625,55.17578125,18.06640625
1771279706.574125,63.4765625,437.01171875,41.50390625,59.5703125,108.3984375
1771279706.5780313,26.3671875,24.90234375,35.64453125,42.48046875,63.4765625
1771279706.5819376,18.5546875,-210.9375,31.25,28.3203125,-8.30078125
1771279706.5858438,43.9453125,66.89453125,35.64453125,44.43359375,-14.6484375
1771279706.58975,50.78125,248.046875,37.59765625,48.828125,-33.69140625
1771279706.5936563,36.62109375,-66.40625,35.15625,38.0859375,-26.85546875
1771279706.5975626,31.73828125,-278.3203125,29.296875,38.57421875,51.7578125
1771279706.6014688,44.43359375,9.765625,28.3203125,41.50390625,45.41015625
1771279706.605375,61.5234375,217.7734375,37.109375,52.24609375,-1.953125
1771279706.6092813,37.59765625,1.46484375,38.0859375,45.41015625,59.08203125
1771279706.6131876,17.578125,-207.51953125,33.69140625,30.2734375,35.15625
1771279706.6170938,37.59765625,-108.88671875,33.69140625,41.015625,16.11328125
1771279706.619125,71.77734375,182.6171875,40.52734375,56.15234375,54.19921875
1771279706.6230311,65.91796875,259.765625,37.59765625,50.29296875,47.36328125
1771279706.6269374,35.64453125,87.890625,24.90234375,36.62109375,29.296875
1771279706.6308436,49.31640625,-55.17578125,21.97265625,49.31640625,59.08203125
1771279706.63475,68.359375,165.52734375,38.0859375,68.84765625,82.51953125
1771279706.6386561,64.453125,234.375,42.96875,56.15234375,23.4375
1771279706.6425624,44.921875,-50.78125,41.9921875,40.0390625,17.578125
1771279706.6464686,29.296875,-165.52734375,38.0859375,31.73828125,48.828125
1771279706.650375,56.640625,-127.9296875,32.2265625,45.41015625,99.609375
1771279706.6542811,74.21875,129.8828125,40.52734375,58.59375,100.5859375
1771279706.6581874,51.7578125,314.94140625,38.0859375,41.9921875,40.52734375
1771279706.6620936,29.78515625,-62.5,27.83203125,25.87890625,27.34375
1771279706.665125,40.52734375,-89.35546875,27.83203125,33.69140625,45.8984375
1771279706.6690311,49.8046875,249.51171875,34.1796875,44.43359375,49.31640625
1771279706.6729374,31.25,318.84765625,35.15625,40.52734375,36.62109375
1771279706.6768436,14.6484375,-96.6796875,29.78515625,28.80859375,25.390625
1771279706.68075,20.99609375,-303.22265625,32.2265625,32.71484375,31.73828125
1771279706.6846561,45.41015625,74.21875,34.1796875,45.8984375,43.45703125
1771279706.6885624,48.33984375,266.6015625,32.2265625,41.015625,54.6875
1771279706.6924686,28.3203125,-113.76953125,31.25,28.3203125,5.859375
1771279706.696375,27.83203125,-508.30078125,29.78515625,24.90234375,-41.50390625
1771279706.7002811,51.26953125,16.6015625,34.66796875,37.109375,-16.11328125
1771279706.7041874,53.7109375,472.65625,25.390625,41.015625,-5.37109375
1771279706.7080936,29.78515625,87.40234375,17.08984375,32.71484375,-45.8984375
1771279706.709125,23.4375,-188.4765625,33.203125,39.55078125,-0.48828125
1771279706.7130313,47.36328125,76.66015625,44.43359375,47.36328125,20.99609375
1771279706.7169375,65.91796875,352.5390625,43.9453125,43.9453125,-38.57421875
1771279706.7208438,35.64453125,125.9765625,41.015625,32.71484375,-36.62109375
1771279706.72475,17.578125,-206.0546875,42.48046875,30.2734375,-5.859375
1771279706.7286563,37.109375,-203.125,36.1328125,39.55078125,-0.48828125
1771279706.7325625,36.62109375,229.4921875,35.64453125,41.9921875,43.9453125
1771279706.7364688,28.80859375,179.19921875,35.64453125,29.78515625,123.046875
1771279706.740375,21.97265625,-420.41015625,28.80859375,19.53125,47.8515625
1771279706.7442813,28.3203125,-141.6015625,33.69140625,27.83203125,34.66796875
1771279706.7481875,53.7109375,297.8515625,37.59765625,42.96875,52.734375
1771279706.7520938,53.22265625,329.58984375,37.109375,55.6640625,27.34375
1771279706.754125,27.34375,112.79296875,35.64453125,39.55078125,62.5
1771279706.7580314,32.71484375,-74.70703125,34.66796875,29.296875,50.29296875
1771279706.7619376,48.33984375,34.66796875,37.109375,43.45703125,-1.46484375
1771279706.7658439,48.828125,243.1640625,34.66796875,41.9921875,-6.8359375
1771279706.76975,35.64453125,138.18359375,27.83203125,32.71484375,5.859375
1771279706.7736564,20.01953125,-264.16015625,30.76171875,34.1796875,17.578125
1771279706.7775626,41.9921875,-216.30859375,29.78515625,60.05859375,78.61328125
1771279706.7814689,64.453125,-67.3828125,26.85546875,65.4296875,110.83984375
1771279706.785375,47.8515625,46.38671875,43.45703125,49.8046875,97.65625
1771279706.7892814,22.4609375,57.12890625,42.48046875,29.78515625,92.28515625
1771279706.7931876,34.66796875,-67.3828125,31.73828125,30.76171875,57.12890625
1771279706.7970939,55.6640625,199.70703125,38.0859375,44.921875,54.19921875
1771279706.799125,37.59765625,382.8125,40.0390625,37.59765625,89.35546875
1771279706.8030312,15.625,46.38671875,32.71484375,25.87890625,37.109375
1771279706.8069375,19.53125,-166.50390625,30.76171875,35.15625,71.2890625
1771279706.8108437,46.875,138.671875,33.69140625,51.7578125,77.1484375
1771279706.81475,50.78125,331.0546875,36.62109375,44.921875,-7.8125
1771279706.8186562,28.80859375,-69.82421875,36.62109375,33.203125,-36.62109375
1771279706.8225625,28.3203125,-559.08203125,35.64453125,30.2734375,-2.44140625
1771279706.8264687,41.9921875,-251.46484375,38.57421875,31.25,51.7578125
1771279706.830375,48.828125,305.6640625,41.50390625,41.50390625,9.765625
1771279706.8342812,39.0625,174.8046875,32.71484375,42.96875,-7.8125
1771279706.8381875,24.90234375,-172.36328125,26.85546875,31.73828125,78.61328125
1771279706.8420937,36.62109375,-74.70703125,38.0859375,40.52734375,21.97265625
1771279706.844125,57.12890625,390.625,43.45703125,55.6640625,0.9765625
1771279706.8480313,42.96875,338.8671875,36.1328125,46.38671875,87.890625
1771279706.8519375,25.390625,-85.44921875,33.69140625,39.55078125,110.83984375
1771279706.8558438,43.9453125,-88.37890625,25.87890625,46.38671875,66.89453125
1771279706.85975,70.3125,251.953125,28.80859375,56.640625,2.44140625
1771279706.8636563,57.12890625,165.0390625,37.109375,45.8984375,16.6015625
1771279706.8675625,26.85546875,-416.015625,33.203125,29.78515625,4.8828125
1771279706.8714688,17.08984375,-351.5625,42.48046875,36.62109375,-30.76171875
1771279706.875375,38.57421875,236.81640625,50.78125,46.38671875,34.1796875
1771279706.8792813,56.15234375,389.6484375,50.29296875,54.6875,60.546875
1771279706.8831875,31.25,1.953125,36.1328125,45.41015625,36.1328125
1771279706.8870938,11.23046875,-257.8125,26.3671875,38.57421875,38.0859375
1771279706.890125,37.109375,40.52734375,35.64453125,47.8515625,-10.25390625
1771279706.8940313,53.7109375,230.95703125,36.62109375,52.734375,-3.90625
1771279706.8979375,40.0390625,51.26953125,31.25,39.0625,17.08984375
1771279706.9018438,19.53125,-118.1640625,36.1328125,25.87890625,-2.9296875
1771279706.90575,35.15625,-9.765625,45.41015625,44.921875,28.80859375
1771279706.9096563,58.10546875,184.08203125,41.9921875,51.7578125,47.36328125
1771279706.9135625,35.64453125,140.13671875,35.64453125,32.2265625,45.41015625
1771279706.9174688,17.578125,-20.99609375,35.15625,27.34375,69.3359375
1771279706.921375,38.0859375,-50.29296875,35.15625,44.43359375,71.77734375
1771279706.9252813,57.12890625,-50.29296875,30.76171875,51.26953125,-1.46484375
1771279706.9291875,53.7109375,47.8515625,30.2734375,44.43359375,-56.15234375
1771279706.9330938,36.62109375,90.8203125,27.83203125,30.2734375,7.32421875
1771279706.949125,24.90234375,-114.74609375,32.2265625,30.76171875,78.125
1771279706.9530313,46.38671875,-6.34765625,44.43359375,48.828125,59.08203125
1771279706.9569376,49.8046875,353.02734375,43.45703125,48.828125,84.47265625
1771279706.9608438,24.4140625,238.76953125,42.96875,38.0859375,74.21875
1771279706.96475,21.97265625,-206.54296875,39.55078125,34.1796875,48.33984375
1771279706.9686563,52.734375,-337.890625,40.52734375,48.33984375,35.15625
1771279706.9725626,71.2890625,99.609375,45.8984375,55.17578125,8.7890625
1771279706.9764688,39.55078125,334.47265625,39.55078125,41.50390625,40.52734375
1771279706.980375,22.94921875,-161.62109375,30.76171875,40.0390625,52.24609375
1771279706.9842813,34.66796875,-328.125,32.2265625,40.52734375,18.5546875
1771279706.9881876,46.38671875,262.20703125,34.66796875,44.43359375,11.23046875
1771279706.9920938,46.38671875,404.78515625,29.78515625,43.45703125,35.64453125
1771279706.994125,20.99609375,-61.03515625,27.34375,29.78515625,39.55078125
1771279706.9980311,21.484375,-216.30859375,28.80859375,34.1796875,1.953125
1771279707.0019374,49.8046875,186.03515625,36.62109375,52.24609375,-12.20703125
1771279707.0058436,44.43359375,325.1953125,33.69140625,46.38671875,8.7890625
1771279707.00975,21.484375,-121.58203125,25.390625,20.5078125,14.16015625
1771279707.0136561,32.2265625,-390.13671875,27.83203125,23.4375,40.52734375
1771279707.0175624,49.8046875,-50.29296875,35.15625,46.38671875,47.8515625
1771279707.0214686,42.48046875,404.296875,42.48046875,48.33984375,58.10546875
1771279707.025375,21.484375,-37.59765625,26.85546875,24.90234375,26.85546875
1771279707.0292811,11.23046875,-423.33984375,18.5546875,18.06640625,43.9453125
1771279707.0331874,16.6015625,78.61328125,33.203125,23.4375,46.38671875
1771279707.0370936,34.1796875,377.9296875,40.52734375,31.25,20.5078125
1771279707.039125,40.0390625,229.98046875,31.73828125,32.71484375,55.6640625
1771279707.0430312,18.5546875,-40.0390625,28.3203125,33.69140625,83.49609375
1771279707.0469375,25.390625,-30.2734375,31.73828125,39.55078125,45.8984375
1771279707.0508437,62.5,191.89453125,39.0625,40.52734375,-3.41796875
1771279707.05475,52.734375,219.23828125,32.71484375,33.69140625,18.06640625
1771279707.0586562,18.06640625,-137.20703125,15.13671875,18.5546875,22.4609375
1771279707.0625625,21.484375,-314.453125,15.13671875,20.5078125,20.99609375
1771279707.0664687,45.8984375,-32.71484375,29.78515625,27.34375,20.5078125
1771279707.070375,41.015625,-29.78515625,32.2265625,21.484375,64.453125
1771279707.0742812,22.94921875,-141.6015625,27.83203125,14.6484375,36.1328125
1771279707.0781875,21.97265625,-69.82421875,34.1796875,21.484375,-2.44140625
1771279707.0820937,42.96875,121.09375,41.015625,41.50390625,70.80078125
1771279707.085125,53.7109375,390.625,40.52734375,43.9453125,77.63671875
1771279707.0890312,36.62109375,281.25,35.15625,28.3203125,48.828125
1771279707.0929375,24.90234375,-43.45703125,29.78515625,26.3671875,85.44921875
1771279707.0968437,33.69140625,-51.7578125,30.76171875,28.80859375,80.078125
1771279707.10075,43.45703125,274.4140625,26.85546875,29.78515625,54.19921875
1771279707.1046562,31.73828125,147.94921875,19.53125,28.80859375,38.0859375
1771279707.1085625,19.04296875,-195.80078125,31.73828125,19.53125,32.2265625
1771279707.1124687,38.57421875,-386.23046875,34.1796875,34.66796875,32.2265625
1771279707.116375,52.734375,-153.80859375,35.15625,58.59375,0.48828125
1771279707.1202812,45.8984375,357.91015625,42.48046875,49.31640625,0.0
1771279707.1241875,28.80859375,67.3828125,35.64453125,36.62109375,-3.90625
1771279707.1280937,33.69140625,-306.640625,29.78515625,38.0859375,-36.1328125
