timestamps,TP9,AF7,AF8,TP10,Right AUX
1771542266.505125,34.1796875,22.94921875,28.3203125,35.64453125,18.5546875
1771542266.5090313,10.25390625,26.85546875,30.76171875,36.1328125,43.9453125
1771542266.5129375,32.71484375,39.0625,35.64453125,39.0625,9.765625
1771542266.5168438,61.5234375,33.69140625,30.2734375,40.52734375,-28.3203125
1771542266.52075,48.828125,21.484375,26.3671875,34.1796875,34.1796875
1771542266.5246563,15.625,31.73828125,22.4609375,24.4140625,54.19921875
1771542266.5285625,28.80859375,44.921875,23.4375,20.5078125,55.6640625
1771542266.5324688,58.10546875,38.0859375,31.25,22.94921875,17.08984375
1771542266.536375,57.12890625,30.76171875,28.80859375,23.4375,-14.16015625
1771542266.5402813,30.76171875,30.2734375,25.390625,16.6015625,4.8828125
1771542266.5441875,18.5546875,29.296875,27.83203125,14.6484375,72.75390625
1771542266.5480938,51.7578125,37.59765625,25.87890625,21.97265625,101.07421875
1771542266.549125,63.4765625,41.50390625,26.3671875,24.4140625,34.1796875
1771542266.5530312,29.78515625,31.73828125,28.80859375,22.94921875,-2.9296875
1771542266.5569375,5.859375,34.1796875,25.390625,20.99609375,-2.44140625
1771542266.5608437,32.71484375,40.52734375,28.3203125,20.5078125,30.76171875
1771542266.56475,63.4765625,35.15625,18.5546875,23.92578125,48.828125
1771542266.5686562,41.50390625,33.203125,6.8359375,29.296875,22.94921875
1771542266.5725625,14.6484375,51.7578125,20.5078125,36.62109375,61.5234375
1771542266.5764687,18.5546875,49.31640625,24.4140625,29.296875,44.43359375
1771542266.580375,42.96875,29.78515625,25.390625,23.4375,43.45703125
1771542266.5842812,38.57421875,26.85546875,28.80859375,24.4140625,48.33984375
1771542266.5881875,6.34765625,34.1796875,25.390625,21.97265625,-8.30078125
1771542266.5920937,10.25390625,36.1328125,24.4140625,19.53125,22.94921875
1771542266.595125,35.15625,24.90234375,26.3671875,21.484375,41.015625
1771542266.5990312,39.55078125,34.1796875,29.296875,28.3203125,15.625
1771542266.6029375,16.11328125,34.66796875,30.76171875,28.80859375,34.1796875
1771542266.6068437,1.953125,24.4140625,30.76171875,32.71484375,20.01953125
1771542266.61075,24.4140625,29.296875,31.73828125,29.78515625,2.9296875
1771542266.6146562,48.33984375,32.2265625,35.15625,27.83203125,19.53125
1771542266.6185625,23.4375,33.69140625,34.66796875,27.83203125,52.734375
1771542266.6224687,-6.34765625,34.66796875,33.69140625,22.94921875,58.59375
1771542266.626375,17.08984375,25.87890625,32.71484375,28.3203125,14.16015625
1771542266.6302812,46.875,29.78515625,35.64453125,32.71484375,41.9921875
1771542266.6341875,41.50390625,39.55078125,31.73828125,31.25,94.23828125
1771542266.6380937,21.97265625,42.96875,25.390625,28.3203125,42.96875
1771542266.639125,34.66796875,41.015625,29.296875,36.1328125,-12.20703125
1771542266.6430314,58.59375,37.109375,34.1796875,43.45703125,28.80859375
1771542266.6469376,44.43359375,34.66796875,37.109375,39.55078125,63.4765625
1771542266.6508439,13.18359375,35.64453125,33.69140625,31.25,1.953125
1771542266.65475,14.16015625,35.15625,32.2265625,18.06640625,-30.2734375
1771542266.6586564,53.7109375,38.0859375,36.62109375,32.71484375,9.27734375
1771542266.6625626,74.70703125,43.45703125,34.1796875,41.015625,15.625
1771542266.6664689,39.0625,33.203125,32.71484375,33.69140625,8.7890625
1771542266.670375,12.20703125,33.69140625,28.80859375,32.2265625,10.25390625
1771542266.6742814,37.109375,33.69140625,24.4140625,25.87890625,34.66796875
1771542266.6781876,55.6640625,28.3203125,26.85546875,30.76171875,5.37109375
1771542266.6820939,28.80859375,36.62109375,31.73828125,33.203125,-31.25
1771542266.685125,7.8125,40.0390625,34.66796875,33.203125,68.84765625
1771542266.6890314,32.71484375,34.66796875,35.64453125,36.1328125,49.8046875
1771542266.6929376,62.98828125,32.2265625,36.1328125,34.66796875,-27.34375
1771542266.6968439,44.921875,33.69140625,30.76171875,31.73828125,-3.41796875
1771542266.70075,10.7421875,33.69140625,29.78515625,25.390625,9.27734375
1771542266.7046564,21.97265625,34.1796875,33.203125,29.296875,22.4609375
1771542266.7085626,49.8046875,34.66796875,29.296875,34.1796875,46.875
1771542266.7124689,52.734375,32.71484375,28.80859375,34.66796875,23.4375
1771542266.716375,29.296875,34.1796875,32.2265625,41.015625,34.66796875
1771542266.7202814,27.34375,39.55078125,33.203125,41.015625,38.0859375
1771542266.7241876,58.59375,39.0625,32.2265625,42.96875,27.34375
1771542266.7280939,77.63671875,37.59765625,30.2734375,49.31640625,80.56640625
1771542266.730125,46.38671875,39.0625,31.73828125,43.9453125,102.5390625
1771542266.7340312,18.06640625,36.1328125,33.203125,39.55078125,62.01171875
1771542266.7379375,48.828125,35.64453125,29.78515625,40.52734375,24.90234375
1771542266.7418437,72.265625,33.203125,26.3671875,38.57421875,22.94921875
1771542266.74575,60.05859375,32.71484375,24.4140625,36.1328125,-13.18359375
1771542266.7496562,34.66796875,38.0859375,27.83203125,39.55078125,2.9296875
1771542266.7535625,39.55078125,35.15625,31.25,41.9921875,50.78125
1771542266.7574687,62.5,32.2265625,27.34375,38.0859375,7.32421875
1771542266.761375,53.22265625,35.64453125,28.3203125,40.0390625,-23.4375
1771542266.7652812,26.85546875,39.0625,28.80859375,38.0859375,45.41015625
1771542266.7691875,31.25,38.0859375,28.80859375,35.15625,27.34375
1771542266.7730937,64.453125,36.62109375,33.69140625,34.1796875,-38.57421875
1771542266.775125,58.59375,33.69140625,33.69140625,40.0390625,12.20703125
1771542266.7790313,21.97265625,29.78515625,34.1796875,38.0859375,59.08203125
1771542266.7829375,14.6484375,34.66796875,31.25,31.73828125,88.8671875
1771542266.7868438,50.29296875,34.1796875,32.71484375,35.15625,63.96484375
1771542266.79075,65.4296875,33.69140625,35.64453125,47.36328125,19.53125
1771542266.7946563,35.15625,37.109375,29.78515625,46.38671875,0.9765625
1771542266.7985625,23.4375,44.921875,30.2734375,35.64453125,36.1328125
1771542266.8024688,44.43359375,45.8984375,32.71484375,40.52734375,103.515625
1771542266.806375,72.75390625,38.0859375,34.66796875,45.8984375,60.546875
1771542266.8102813,48.33984375,35.15625,34.1796875,43.9453125,5.859375
1771542266.8141875,3.41796875,30.2734375,31.73828125,40.0390625,29.296875
1771542266.8180938,20.5078125,29.78515625,36.1328125,33.69140625,69.3359375
1771542266.834125,64.453125,40.0390625,40.0390625,33.69140625,51.7578125
1771542266.8380313,62.98828125,37.59765625,33.203125,41.015625,61.03515625
1771542266.8419375,26.85546875,27.34375,33.203125,48.828125,40.52734375
1771542266.8458438,15.13671875,33.69140625,33.69140625,43.9453125,17.578125
1771542266.84975,33.69140625,40.52734375,29.78515625,43.45703125,5.859375
1771542266.8536563,47.36328125,35.64453125,29.296875,46.875,-39.0625
1771542266.8575625,22.4609375,32.2265625,30.76171875,36.1328125,17.08984375
1771542266.8614688,24.90234375,47.8515625,34.66796875,28.3203125,86.42578125
1771542266.865375,38.57421875,51.26953125,29.296875,29.296875,50.78125
1771542266.8692813,41.9921875,35.64453125,22.4609375,24.90234375,20.99609375
1771542266.8731875,32.2265625,37.109375,20.99609375,18.5546875,71.2890625
1771542266.8770938,8.7890625,37.59765625,22.4609375,20.5078125,25.390625
1771542266.880125,25.87890625,41.50390625,24.4140625,26.85546875,32.2265625
1771542266.8840313,66.40625,42.96875,24.90234375,30.2734375,113.28125
1771542266.8879375,61.03515625,39.55078125,25.87890625,35.64453125,85.9375
1771542266.8918438,21.97265625,48.33984375,30.76171875,38.0859375,24.90234375
1771542266.89575,31.25,45.8984375,36.1328125,35.15625,32.71484375
1771542266.8996563,61.5234375,41.50390625,28.3203125,32.2265625,53.7109375
1771542266.9035625,60.05859375,40.52734375,19.53125,32.2265625,87.890625
1771542266.9074688,27.34375,35.64453125,20.5078125,26.3671875,57.12890625
1771542266.911375,24.4140625,39.0625,23.4375,27.83203125,22.4609375
1771542266.9152813,55.17578125,43.9453125,28.3203125,37.109375,42.96875
1771542266.9191875,58.10546875,49.8046875,32.71484375,39.55078125,60.05859375
1771542266.9230938,20.01953125,42.48046875,29.78515625,30.2734375,95.21484375
1771542266.925125,7.8125,34.1796875,27.83203125,24.4140625,60.546875
1771542266.9290311,42.48046875,37.59765625,27.34375,35.64453125,13.18359375
1771542266.9329374,60.05859375,40.52734375,27.34375,38.57421875,22.4609375
1771542266.9368436,32.2265625,36.62109375,26.3671875,29.296875,65.4296875
1771542266.94075,15.625,31.25,29.296875,30.76171875,55.17578125
1771542266.9446561,36.1328125,41.9921875,35.64453125,39.55078125,-7.32421875
1771542266.9485624,50.29296875,48.828125,37.109375,37.109375,-25.87890625
1771542266.9524686,32.2265625,30.76171875,32.2265625,28.3203125,1.46484375
1771542266.956375,3.90625,25.390625,27.83203125,26.3671875,9.27734375
1771542266.9602811,19.04296875,30.76171875,29.296875,20.01953125,18.5546875
1771542266.9641874,49.31640625,30.2734375,32.2265625,25.390625,39.0625
1771542266.9680936,48.828125,26.85546875,28.3203125,32.2265625,56.15234375
1771542266.969125,18.5546875,34.1796875,22.94921875,28.3203125,-22.94921875
1771542266.9730313,11.71875,46.38671875,29.78515625,23.4375,-3.41796875
1771542266.9769375,37.59765625,37.109375,20.01953125,23.92578125,90.33203125
1771542266.9808438,51.7578125,24.90234375,11.71875,30.2734375,4.8828125
1771542266.98475,25.87890625,32.71484375,22.4609375,26.85546875,-8.30078125
1771542266.9886563,8.30078125,36.62109375,23.4375,21.484375,93.26171875
1771542266.9925625,39.55078125,36.1328125,26.3671875,20.01953125,100.09765625
1771542266.9964688,54.6875,33.69140625,26.3671875,24.4140625,40.52734375
1771542267.000375,44.921875,39.0625,30.2734375,29.78515625,-4.39453125
1771542267.0042813,23.4375,47.36328125,33.69140625,31.25,-39.0625
1771542267.0081875,33.69140625,42.48046875,29.78515625,28.80859375,-0.9765625
1771542267.0120938,54.6875,28.3203125,26.3671875,30.76171875,64.453125
1771542267.014125,39.55078125,30.2734375,26.85546875,38.0859375,46.38671875
1771542267.0180314,10.25390625,42.48046875,30.2734375,28.80859375,7.32421875
1771542267.0219376,8.7890625,29.296875,29.78515625,17.578125,-14.6484375
1771542267.0258439,42.96875,23.92578125,27.34375,19.04296875,21.97265625
1771542267.02975,49.31640625,33.203125,24.4140625,19.53125,45.41015625
1771542267.0336564,21.484375,36.62109375,28.3203125,25.87890625,-10.7421875
1771542267.0375626,15.625,29.296875,27.83203125,28.3203125,17.578125
1771542267.0414689,45.41015625,26.3671875,29.78515625,29.78515625,47.36328125
1771542267.045375,52.734375,31.73828125,35.15625,30.76171875,67.3828125
1771542267.0492814,25.87890625,39.55078125,36.1328125,31.25,105.46875
1771542267.0531876,6.8359375,30.76171875,28.80859375,26.85546875,39.0625
1771542267.0570939,25.87890625,26.85546875,26.85546875,25.390625,27.34375
1771542267.060125,51.7578125,37.59765625,31.73828125,39.55078125,39.0625
1771542267.0640314,43.9453125,32.71484375,29.78515625,37.109375,5.37109375
1771542267.0679376,18.06640625,19.04296875,26.85546875,25.87890625,4.8828125
1771542267.0718439,27.83203125,25.87890625,27.34375,26.85546875,19.53125
1771542267.07575,58.59375,37.109375,30.2734375,32.2265625,10.25390625
1771542267.0796564,46.38671875,36.1328125,33.203125,40.52734375,48.828125
1771542267.0835626,17.08984375,32.2265625,31.73828125,38.57421875,77.63671875
1771542267.0874689,34.1796875,33.203125,28.80859375,46.38671875,39.0625
1771542267.091375,72.265625,37.59765625,27.34375,64.94140625,24.4140625
1771542267.0952814,63.4765625,36.1328125,29.78515625,46.875,-12.20703125
1771542267.0991876,9.27734375,33.69140625,33.203125,13.671875,-38.57421875
1771542267.1030939,-13.671875,23.92578125,29.296875,-5.859375,1.953125
1771542267.104125,20.99609375,29.296875,28.80859375,-5.37109375,23.4375
1771542267.1080313,39.55078125,45.8984375,30.2734375,2.44140625,34.1796875
1771542267.1119375,9.27734375,42.48046875,29.78515625,1.46484375,35.15625
1771542267.1158438,-14.16015625,34.66796875,23.92578125,-5.37109375,20.99609375
1771542267.11975,4.39453125,33.69140625,25.87890625,-1.953125,65.91796875
1771542267.1236563,34.66796875,41.015625,30.76171875,17.08984375,50.78125
1771542267.1275625,30.2734375,37.109375,24.4140625,13.671875,91.796875
1771542267.1314688,-4.39453125,33.203125,22.94921875,1.46484375,107.91015625
1771542267.135375,0.9765625,38.57421875,25.87890625,8.7890625,23.4375
1771542267.1392813,37.59765625,41.9921875,26.3671875,10.7421875,7.32421875
1771542267.1431875,46.38671875,45.8984375,24.90234375,17.08984375,44.921875
1771542267.1470938,9.27734375,42.48046875,20.01953125,17.578125,47.36328125
1771542267.149125,-1.953125,36.1328125,20.01953125,10.7421875,23.92578125
1771542267.1530313,36.62109375,36.1328125,26.85546875,19.04296875,46.38671875
1771542267.1569376,46.875,28.80859375,25.87890625,17.578125,29.296875
1771542267.1608438,15.13671875,26.3671875,25.390625,18.5546875,-12.6953125
1771542267.16475,-2.9296875,34.66796875,29.296875,22.4609375,0.9765625
1771542267.1686563,29.296875,28.3203125,26.3671875,20.5078125,20.99609375
1771542267.1725626,53.22265625,22.94921875,22.4609375,21.484375,23.4375
1771542267.1764688,31.25,31.73828125,23.92578125,21.97265625,9.765625
1771542267.180375,14.16015625,36.1328125,30.76171875,20.01953125,37.109375
1771542267.1842813,29.296875,30.76171875,25.87890625,20.99609375,88.37890625
1771542267.1881876,51.7578125,29.78515625,25.390625,32.71484375,104.00390625
1771542267.1920938,56.15234375,37.109375,33.203125,34.66796875,70.80078125
1771542267.210125,27.83203125,32.71484375,27.83203125,27.83203125,10.25390625
1771542267.2140312,25.87890625,30.76171875,21.484375,27.34375,5.859375
1771542267.2179375,58.59375,28.80859375,22.4609375,31.25,30.76171875
1771542267.2218437,49.8046875,28.80859375,25.390625,33.69140625,23.4375
1771542267.22575,20.99609375,33.203125,24.90234375,29.296875,37.59765625
1771542267.2296562,24.4140625,35.64453125,27.83203125,29.296875,12.6953125
1771542267.2335625,47.8515625,40.52734375,31.25,36.62109375,-14.6484375
1771542267.2374687,58.59375,35.64453125,27.83203125,41.015625,13.18359375
1771542267.241375,31.25,29.296875,25.87890625,33.203125,53.7109375
1771542267.2452812,12.20703125,20.5078125,23.92578125,28.3203125,66.89453125
1771542267.2491875,44.921875,27.34375,26.3671875,30.76171875,69.3359375
1771542267.2530937,70.80078125,36.1328125,26.85546875,36.1328125,25.390625
1771542267.256125,50.29296875,29.78515625,28.80859375,34.1796875,-1.46484375
1771542267.2600312,22.94921875,33.203125,30.76171875,30.76171875,38.0859375
1771542267.2639375,29.78515625,40.52734375,30.2734375,34.1796875,-21.484375
1771542267.2678437,58.10546875,34.66796875,29.78515625,37.59765625,20.99609375
1771542267.27175,48.33984375,23.4375,21.484375,37.109375,27.34375
1771542267.2756562,14.16015625,23.4375,16.6015625,28.80859375,-31.25
1771542267.2795625,16.6015625,27.83203125,20.5078125,24.4140625,72.75390625
1771542267.2834687,58.10546875,39.0625,26.3671875,34.66796875,89.84375
1771542267.287375,64.453125,41.50390625,26.3671875,39.55078125,-3.90625
1771542267.2912812,25.87890625,30.76171875,24.90234375,30.2734375,-39.0625
1771542267.2951875,21.484375,44.921875,33.69140625,25.87890625,23.4375
1771542267.2990937,44.921875,36.62109375,26.3671875,25.87890625,61.03515625
1771542267.301125,55.17578125,25.390625,20.5078125,25.87890625,37.59765625
1771542267.3050313,30.2734375,26.85546875,27.83203125,28.3203125,33.69140625
1771542267.3089375,10.25390625,25.87890625,26.85546875,32.2265625,20.99609375
1771542267.3128438,38.57421875,31.73828125,23.4375,29.78515625,76.171875
1771542267.31675,61.03515625,34.1796875,25.390625,33.69140625,98.14453125
1771542267.3206563,51.7578125,35.15625,28.3203125,35.15625,81.0546875
1771542267.3245625,27.34375,39.0625,30.76171875,35.64453125,71.2890625
1771542267.3284688,32.71484375,40.0390625,26.85546875,40.52734375,45.8984375
1771542267.332375,64.453125,34.1796875,17.08984375,35.15625,25.390625
1771542267.3362813,53.22265625,33.69140625,19.53125,30.76171875,22.4609375
1771542267.3401875,24.4140625,40.52734375,29.296875,42.96875,9.27734375
1771542267.3440938,26.3671875,37.59765625,26.3671875,37.59765625,23.4375
1771542267.346125,43.9453125,27.83203125,22.4609375,21.484375,65.91796875
1771542267.3500311,42.96875,26.85546875,24.4140625,22.4609375,23.4375
1771542267.3539374,18.5546875,33.203125,33.203125,28.3203125,64.453125
1771542267.3578436,21.97265625,33.69140625,32.71484375,35.64453125,62.01171875
1771542267.36175,61.03515625,31.25,27.83203125,46.875,-28.3203125
1771542267.3656561,42.96875,38.0859375,27.34375,16.6015625,0.48828125
1771542267.3695624,-24.90234375,28.3203125,23.4375,-25.87890625,17.08984375
1771542267.3734686,-47.8515625,28.80859375,26.3671875,-24.4140625,-20.5078125
1771542267.377375,-35.64453125,28.3203125,28.80859375,-43.45703125,-28.3203125
1771542267.3812811,-15.625,37.59765625,21.97265625,-51.7578125,42.96875
1771542267.3851874,-44.43359375,66.40625,24.4140625,-57.6171875,62.01171875
1771542267.3890936,-94.7265625,62.5,34.66796875,-83.984375,22.94921875
1771542267.391125,-81.54296875,51.7578125,29.78515625,-85.44921875,7.8125
1771542267.3950312,-61.03515625,60.05859375,25.87890625,-90.33203125,23.92578125
1771542267.3989375,-61.5234375,66.40625,20.01953125,-86.42578125,64.94140625
1771542267.4028437,-97.65625,52.734375,21.484375,-88.37890625,42.96875
1771542267.40675,-102.5390625,49.8046875,22.94921875,-91.796875,62.01171875
1771542267.4106562,-51.26953125,58.59375,21.97265625,-75.68359375,74.21875
1771542267.4145625,-30.76171875,53.22265625,23.92578125,-55.6640625,14.6484375
1771542267.4184687,-50.29296875,46.38671875,16.11328125,-46.875,-10.25390625
1771542267.422375,-58.10546875,45.41015625,11.71875,-49.31640625,41.50390625
1771542267.4262812,-30.76171875,46.875,18.06640625,-41.015625,10.7421875
1771542267.4301875,-5.37109375,43.45703125,20.99609375,-25.390625,10.7421875
1771542267.4340937,-24.4140625,41.015625,22.94921875,-21.484375,35.64453125
1771542267.442125,-39.0625,41.015625,27.34375,-16.11328125,27.83203125
1771542267.4460313,-14.16015625,41.50390625,26.85546875,-6.34765625,11.23046875
1771542267.4499376,24.4140625,47.36328125,26.3671875,3.90625,-19.53125
1771542267.4538438,22.4609375,53.7109375,30.2734375,15.625,49.8046875
1771542267.45775,-12.6953125,41.015625,22.94921875,9.765625,31.73828125
1771542267.4616563,1.46484375,30.2734375,16.6015625,1.46484375,25.87890625
1771542267.4655626,41.50390625,29.78515625,22.4609375,4.8828125,31.73828125
1771542267.4694688,41.50390625,27.83203125,26.3671875,11.23046875,28.3203125
1771542267.473375,8.30078125,30.2734375,25.87890625,7.8125,39.0625
1771542267.4772813,6.8359375,35.15625,28.3203125,10.25390625,9.765625
1771542267.4811876,44.43359375,36.1328125,30.2734375,22.94921875,39.0625
1771542267.4850938,57.6171875,37.109375,30.76171875,29.78515625,62.5
1771542267.481125,31.73828125,39.55078125,27.83203125,31.25,-4.8828125
1771542267.4850314,23.4375,39.55078125,25.390625,34.66796875,4.39453125
1771542267.4889376,46.38671875,34.1796875,27.34375,33.203125,48.33984375
1771542267.4928439,56.640625,27.83203125,29.296875,30.76171875,59.5703125
1771542267.49675,42.48046875,40.0390625,30.2734375,34.1796875,58.59375
1771542267.5006564,20.5078125,33.203125,27.34375,28.80859375,39.55078125
1771542267.5045626,26.3671875,26.3671875,31.25,23.92578125,3.90625
1771542267.5084689,60.05859375,34.1796875,31.73828125,30.2734375,5.37109375
1771542267.512375,47.8515625,28.3203125,27.34375,27.83203125,36.1328125
1771542267.5162814,10.7421875,32.71484375,25.390625,22.4609375,37.109375
1771542267.5201876,11.23046875,29.296875,23.92578125,24.4140625,34.66796875
1771542267.5240939,39.0625,36.62109375,24.90234375,24.4140625,8.7890625
1771542267.528125,57.12890625,44.921875,27.83203125,29.296875,9.27734375
1771542267.5320313,25.87890625,32.2265625,29.296875,35.64453125,38.57421875
1771542267.5359375,9.765625,32.2265625,25.390625,34.1796875,32.71484375
1771542267.5398438,47.8515625,33.69140625,24.4140625,35.64453125,-10.25390625
1771542267.54375,65.4296875,36.1328125,24.4140625,36.62109375,-31.73828125
1771542267.5476563,37.109375,40.0390625,24.90234375,35.15625,54.19921875
1771542267.5515625,16.6015625,31.73828125,20.5078125,23.92578125,68.359375
1771542267.5554688,46.875,35.15625,20.5078125,25.87890625,33.203125
1771542267.559375,82.03125,25.87890625,24.4140625,52.734375,60.546875
1771542267.5632813,68.84765625,21.97265625,22.94921875,72.75390625,42.96875
1771542267.5671875,34.66796875,34.1796875,21.484375,49.31640625,63.4765625
1771542267.5710938,29.296875,40.52734375,19.04296875,15.13671875,34.66796875
1771542267.586125,66.40625,42.96875,18.06640625,31.73828125,52.734375
1771542267.5900311,72.75390625,40.52734375,15.625,44.921875,104.00390625
1771542267.5939374,38.57421875,37.59765625,11.23046875,37.109375,19.04296875
1771542267.5978436,37.59765625,35.15625,17.08984375,39.0625,-9.765625
1771542267.60175,63.4765625,38.57421875,19.53125,36.62109375,20.5078125
1771542267.6056561,68.84765625,42.48046875,11.23046875,41.50390625,12.20703125
1771542267.6095624,42.48046875,37.109375,7.8125,46.38671875,19.04296875
1771542267.6134686,22.4609375,38.57421875,9.765625,42.48046875,9.27734375
1771542267.617375,54.6875,42.48046875,12.20703125,38.57421875,-4.39453125
1771542267.6212811,82.03125,29.296875,14.16015625,40.52734375,-3.41796875
1771542267.6251874,42.48046875,28.80859375,14.6484375,41.50390625,27.83203125
1771542267.6290936,6.34765625,31.73828125,13.18359375,32.2265625,-1.46484375
1771542267.630125,38.57421875,30.2734375,20.01953125,38.0859375,-0.48828125
1771542267.6340313,74.70703125,33.69140625,23.4375,46.875,53.22265625
1771542267.6379375,61.03515625,40.52734375,19.04296875,47.8515625,91.796875
1771542267.6418438,36.62109375,42.48046875,17.08984375,49.31640625,84.47265625
1771542267.64575,55.6640625,28.3203125,19.53125,59.5703125,21.484375
1771542267.6496563,80.078125,29.296875,20.99609375,50.78125,22.4609375
1771542267.6535625,45.8984375,47.8515625,18.06640625,20.5078125,54.19921875
1771542267.6574688,11.71875,47.8515625,20.5078125,16.6015625,56.640625
1771542267.661375,34.1796875,42.96875,15.625,32.2265625,29.296875
1771542267.6652813,65.4296875,44.43359375,15.13671875,28.80859375,62.98828125
1771542267.6691875,64.453125,50.78125,21.97265625,29.296875,77.63671875
1771542267.6730938,30.2734375,45.41015625,17.578125,34.66796875,76.66015625
1771542267.674125,9.27734375,36.1328125,22.94921875,33.203125,61.5234375
1771542267.6780312,32.71484375,29.78515625,24.90234375,35.15625,15.625
1771542267.6819375,59.5703125,30.2734375,20.5078125,42.48046875,-2.44140625
1771542267.6858437,39.55078125,34.66796875,26.3671875,42.48046875,21.97265625
1771542267.68975,10.25390625,26.3671875,27.34375,33.203125,8.30078125
1771542267.6936562,35.64453125,19.53125,24.90234375,39.55078125,-32.2265625
1771542267.6975625,63.96484375,25.87890625,25.87890625,45.41015625,34.1796875
1771542267.7014687,41.9921875,30.2734375,27.34375,40.0390625,62.01171875
1771542267.705375,21.484375,35.15625,26.3671875,39.55078125,81.54296875
1771542267.7092812,24.90234375,31.25,28.3203125,32.2265625,63.96484375
1771542267.7131875,53.7109375,36.1328125,29.78515625,35.15625,-9.27734375
1771542267.7170937,61.03515625,42.96875,24.4140625,43.9453125,-25.87890625
1771542267.720125,26.85546875,38.57421875,23.4375,36.1328125,-9.765625
1771542267.7240312,28.3203125,34.66796875,27.83203125,35.15625,18.5546875
1771542267.7279375,66.40625,30.2734375,21.97265625,31.73828125,33.69140625
1771542267.7318437,73.73046875,33.203125,20.99609375,37.59765625,36.1328125
1771542267.73575,34.66796875,38.57421875,24.90234375,44.43359375,41.015625
1771542267.7396562,20.5078125,39.0625,23.92578125,38.0859375,43.9453125
1771542267.7435625,38.57421875,36.62109375,23.4375,36.62109375,49.8046875
1771542267.7474687,51.26953125,28.80859375,23.92578125,33.69140625,72.265625
1771542267.751375,22.94921875,19.53125,29.78515625,33.203125,43.9453125
1771542267.7552812,5.37109375,36.1328125,28.80859375,34.1796875,0.0
1771542267.7591875,34.1796875,50.78125,21.97265625,24.4140625,28.80859375
1771542267.7630937,60.546875,39.55078125,18.06640625,20.5078125,16.11328125
1771542267.764125,46.875,25.87890625,22.4609375,31.25,-48.33984375
1771542267.7680314,12.20703125,28.3203125,28.80859375,24.90234375,-4.8828125
1771542267.7719376,22.4609375,37.109375,28.3203125,25.87890625,25.87890625
1771542267.7758439,62.01171875,38.57421875,26.3671875,33.69140625,70.80078125
1771542267.77975,49.31640625,37.109375,25.390625,29.78515625,78.125
1771542267.7836564,7.32421875,37.109375,28.3203125,30.76171875,42.48046875
1771542267.7875626,2.44140625,34.66796875,29.296875,26.3671875,13.18359375
1771542267.7914689,29.296875,36.62109375,29.78515625,24.90234375,6.34765625
1771542267.795375,40.0390625,43.9453125,29.296875,27.83203125,29.296875
1771542267.7992814,9.27734375,33.203125,23.92578125,24.4140625,46.38671875
1771542267.8031876,0.48828125,25.390625,23.92578125,29.296875,20.5078125
1771542267.8070939,30.2734375,31.25,24.4140625,32.2265625,23.4375
1771542267.809125,41.50390625,43.9453125,24.90234375,20.99609375,7.32421875
1771542267.8130312,23.4375,53.22265625,29.296875,5.859375,-9.27734375
1771542267.8169374,8.30078125,52.24609375,25.87890625,12.6953125,45.8984375
1771542267.8208437,26.3671875,44.921875,21.484375,21.97265625,31.73828125
1771542267.82475,38.57421875,37.59765625,18.5546875,10.25390625,21.97265625
1771542267.8286562,22.4609375,37.59765625,22.94921875,11.23046875,80.56640625
1771542267.8325624,-11.23046875,42.96875,24.90234375,0.9765625,56.640625
1771542267.8364687,-12.20703125,38.57421875,25.390625,-5.859375,-22.94921875
1771542267.840375,26.3671875,47.8515625,37.59765625,5.859375,-1.46484375
1771542267.8442812,18.06640625,51.7578125,29.78515625,-5.859375,73.2421875
1771542267.8481874,-13.671875,41.9921875,28.3203125,-17.578125,63.96484375
1771542267.8520937,-28.3203125,50.29296875,32.2265625,-17.08984375,25.390625
1771542267.855125,-11.23046875,51.7578125,25.390625,-18.5546875,-3.90625
1771542267.8590312,-0.48828125,49.31640625,29.78515625,-29.78515625,-4.8828125
1771542267.8629375,-38.57421875,60.546875,26.3671875,-46.875,69.82421875
1771542267.8668437,-58.59375,75.68359375,29.78515625,-56.640625,39.55078125
1771542267.87075,-18.5546875,75.1953125,30.2734375,-45.41015625,36.1328125
1771542267.8746562,11.23046875,74.21875,40.52734375,-35.64453125,73.73046875
1771542267.8785625,-45.8984375,81.0546875,51.26953125,-68.359375,52.734375
1771542267.8824687,-106.4453125,79.58984375,51.7578125,-94.7265625,32.2265625
1771542267.886375,-99.12109375,81.54296875,63.96484375,-97.16796875,19.53125
1771542267.8902812,-92.7734375,88.8671875,66.89453125,-109.375,-44.921875
1771542267.8941875,-111.81640625,99.609375,69.3359375,-123.53515625,-13.18359375
1771542267.8980937,-153.3203125,108.88671875,80.078125,-141.6015625,54.19921875
1771542267.900125,-185.05859375,111.81640625,81.0546875,-165.0390625,6.8359375
1771542267.9040313,-173.828125,119.140625,93.26171875,-170.41015625,-10.25390625
1771542267.9079375,-174.8046875,117.1875,100.5859375,-171.875,0.48828125
1771542267.9118438,-208.49609375,114.2578125,95.703125,-182.12890625,29.296875
1771542267.91575,-222.65625,116.69921875,101.5625,-191.89453125,46.38671875
1771542267.9196563,-201.171875,119.62890625,101.07421875,-199.21875,36.1328125
1771542267.9235625,-179.6875,110.83984375,98.14453125,-193.359375,-3.41796875
1771542267.9274688,-173.33984375,110.3515625,109.86328125,-168.9453125,12.6953125
1771542267.931375,-192.3828125,100.09765625,111.328125,-157.71484375,45.41015625
1771542267.9352813,-177.24609375,72.265625,102.05078125,-136.23046875,22.4609375
1771542267.9391875,-117.67578125,68.359375,101.07421875,-95.21484375,6.8359375
1771542267.9430938,-95.703125,71.2890625,98.6328125,-75.1953125,9.765625
1771542267.959125,-105.46875,71.77734375,87.890625,-63.4765625,17.578125
1771542267.9630313,-86.42578125,57.12890625,82.03125,-46.38671875,38.0859375
1771542267.9669375,-23.92578125,39.55078125,71.2890625,-11.71875,37.59765625
1771542267.9708438,14.16015625,34.1796875,66.40625,29.78515625,37.109375
1771542267.97475,-9.27734375,26.85546875,63.4765625,41.015625,20.99609375
1771542267.9786563,5.859375,19.04296875,58.10546875,51.7578125,17.578125
1771542267.9825625,58.59375,13.18359375,63.4765625,78.125,61.5234375
1771542267.9864688,89.35546875,9.27734375,56.640625,110.3515625,63.96484375
1771542267.990375,91.796875,-0.9765625,49.8046875,132.32421875,35.15625
1771542267.9942813,86.42578125,-15.13671875,42.48046875,138.671875,18.06640625
1771542267.9981875,125.48828125,-5.37109375,32.2265625,158.69140625,59.08203125
1771542268.0020938,152.83203125,0.0,29.78515625,167.96875,125.48828125
1771542268.004125,133.30078125,-21.484375,24.90234375,166.9921875,129.39453125
1771542268.0080314,123.53515625,-19.53125,25.390625,175.29296875,85.9375
1771542268.0119376,147.94921875,-6.8359375,20.5078125,173.33984375,48.33984375
1771542268.0158439,187.01171875,-13.18359375,13.671875,184.5703125,29.296875
1771542268.01975,184.08203125,-19.04296875,15.13671875,196.77734375,21.97265625
1771542268.0236564,146.97265625,-16.11328125,12.20703125,184.08203125,66.40625
1771542268.0275626,146.97265625,-11.71875,16.11328125,172.8515625,108.88671875
1771542268.0314689,174.8046875,-7.32421875,22.4609375,176.26953125,57.6171875
1771542268.035375,183.10546875,-4.39453125,21.484375,183.59375,65.91796875
1771542268.0392814,148.4375,-7.8125,17.08984375,175.29296875,63.4765625
1771542268.0431876,131.8359375,0.9765625,20.01953125,161.62109375,5.859375
1771542268.0470939,155.2734375,-2.9296875,19.04296875,158.203125,1.953125
1771542268.049125,153.80859375,-23.4375,10.7421875,152.83203125,-55.6640625
1771542268.0530312,125.48828125,-17.578125,11.23046875,149.90234375,-59.5703125
1771542268.0569375,112.79296875,-7.8125,13.18359375,148.4375,11.23046875
1771542268.0608437,144.53125,-0.9765625,11.23046875,142.08984375,21.97265625
1771542268.06475,154.78515625,-3.90625,9.765625,138.18359375,29.78515625
1771542268.0686562,123.53515625,-8.7890625,14.6484375,142.578125,9.27734375
1771542268.0725625,96.6796875,-6.34765625,19.04296875,142.578125,-32.71484375
1771542268.0764687,108.3984375,-4.8828125,23.4375,142.08984375,-30.76171875
1771542268.080375,125.9765625,-3.90625,15.625,135.7421875,-5.859375
1771542268.0842812,112.3046875,-1.953125,12.20703125,127.44140625,-11.71875
1771542268.0881875,91.30859375,7.32421875,19.04296875,127.44140625,-15.625
1771542268.0920937,100.5859375,6.8359375,18.5546875,125.48828125,43.45703125
1771542268.095125,129.8828125,6.34765625,23.92578125,124.51171875,80.078125
1771542268.0990312,125.9765625,13.18359375,28.80859375,122.55859375,40.52734375
1771542268.1029375,94.23828125,14.16015625,22.4609375,114.74609375,41.015625
1771542268.1068437,73.2421875,-0.9765625,20.01953125,108.88671875,48.828125
1771542268.11075,102.5390625,-3.90625,20.01953125,112.3046875,51.7578125
1771542268.1146562,128.41796875,5.859375,18.06640625,110.83984375,113.76953125
1771542268.1185625,89.84375,10.25390625,22.94921875,101.5625,64.94140625
1771542268.1224687,72.265625,11.23046875,24.90234375,97.16796875,-13.671875
1771542268.126375,98.14453125,12.20703125,19.53125,92.28515625,23.92578125
1771542268.1302812,112.79296875,16.11328125,20.99609375,94.23828125,49.8046875
1771542268.1341875,100.09765625,17.08984375,24.90234375,95.21484375,59.5703125
1771542268.1380937,64.453125,19.53125,23.4375,88.8671875,52.24609375
1771542268.140125,64.94140625,26.3671875,24.4140625,86.9140625,3.41796875
1771542268.1440313,97.65625,21.97265625,24.4140625,91.30859375,2.9296875
1771542268.1479375,92.7734375,14.6484375,24.90234375,92.28515625,62.5
1771542268.1518438,63.4765625,10.7421875,20.99609375,85.44921875,33.69140625
1771542268.15575,65.91796875,5.859375,14.6484375,83.984375,-12.6953125
1771542268.1596563,96.19140625,12.20703125,19.53125,84.47265625,-28.3203125
1771542268.1635625,106.93359375,19.53125,20.5078125,83.0078125,-32.71484375
1771542268.1674688,72.265625,20.99609375,18.5546875,81.0546875,-1.953125
1771542268.171375,51.7578125,20.01953125,21.97265625,79.1015625,7.8125
1771542268.1752813,82.51953125,18.06640625,21.97265625,81.54296875,-8.7890625
1771542268.1791875,102.05078125,19.53125,23.92578125,91.30859375,12.6953125
1771542268.1830938,76.66015625,27.83203125,21.484375,90.8203125,49.31640625
1771542268.185125,58.59375,14.6484375,18.06640625,88.37890625,24.4140625
1771542268.1890314,92.28515625,-6.8359375,24.4140625,107.91015625,-1.46484375
1771542268.1929376,121.09375,4.8828125,20.01953125,108.88671875,0.9765625
1771542268.1968439,95.703125,39.55078125,17.08984375,83.49609375,-11.23046875
1771542268.20075,46.875,47.36328125,14.6484375,58.59375,16.6015625
1771542268.2046564,47.36328125,36.62109375,9.27734375,47.8515625,84.47265625
1771542268.2085626,84.47265625,36.1328125,3.90625,55.6640625,80.56640625
1771542268.2124689,72.75390625,35.64453125,-4.39453125,48.828125,39.55078125
1771542268.216375,33.69140625,46.875,-3.90625,41.50390625,64.94140625
1771542268.2202814,35.64453125,48.33984375,-7.32421875,37.109375,67.3828125
1771542268.2241876,67.87109375,51.26953125,-14.16015625,32.2265625,72.75390625
1771542268.2280939,66.89453125,51.7578125,-10.7421875,34.66796875,68.359375
1771542268.230125,24.4140625,55.17578125,-15.13671875,23.4375,29.296875
1771542268.2340312,20.01953125,53.22265625,-22.4609375,23.92578125,-20.99609375
1771542268.2379375,67.3828125,60.05859375,-10.25390625,37.59765625,25.87890625
1771542268.2418437,88.37890625,59.08203125,-5.37109375,34.1796875,72.265625
1771542268.24575,63.96484375,36.62109375,-7.8125,33.203125,55.17578125
1771542268.2496562,42.48046875,32.71484375,-2.44140625,44.43359375,53.7109375
1771542268.2535625,65.91796875,36.1328125,-4.39453125,55.6640625,10.7421875
1771542268.2574687,101.5625,38.0859375,-8.7890625,60.546875,8.7890625
1771542268.261375,84.9609375,41.50390625,-2.9296875,60.05859375,7.8125
1771542268.2652812,51.26953125,40.52734375,2.9296875,58.59375,-10.7421875
1771542268.2691875,56.15234375,33.69140625,1.953125,44.921875,-20.01953125
1771542268.2730937,83.49609375,38.0859375,-0.48828125,43.9453125,14.6484375
1771542268.275125,82.03125,41.015625,-0.9765625,53.7109375,98.14453125
1771542268.2790313,42.96875,30.76171875,3.90625,49.31640625,117.67578125
1771542268.2829375,34.1796875,28.80859375,9.27734375,52.734375,92.28515625
1771542268.2868438,68.84765625,41.9921875,11.23046875,55.17578125,57.6171875
1771542268.29075,87.40234375,46.875,8.30078125,54.6875,43.45703125
1771542268.2946563,45.8984375,29.296875,12.20703125,51.7578125,45.41015625
1771542268.2985625,17.578125,21.97265625,18.06640625,52.24609375,61.5234375
1771542268.3024688,47.8515625,29.296875,19.53125,60.546875,113.28125
1771542268.306375,79.1015625,34.1796875,21.484375,67.3828125,64.94140625
1771542268.3102813,64.94140625,36.62109375,18.06640625,62.01171875,3.41796875
1771542268.3141875,30.2734375,32.2265625,20.5078125,50.78125,3.90625
1771542268.3180938,34.1796875,28.80859375,20.01953125,47.8515625,26.85546875
1771542268.334125,64.94140625,29.78515625,16.11328125,52.24609375,38.57421875
1771542268.3380313,52.734375,32.2265625,19.04296875,44.921875,18.5546875
1771542268.3419375,20.01953125,41.9921875,20.99609375,41.015625,20.99609375
1771542268.3458438,16.6015625,34.1796875,15.13671875,31.73828125,33.203125
1771542268.34975,48.33984375,24.90234375,13.18359375,35.15625,34.66796875
1771542268.3536563,61.03515625,37.109375,20.01953125,52.24609375,38.57421875
1771542268.3575625,29.78515625,35.64453125,25.390625,47.8515625,46.38671875
1771542268.3614688,19.04296875,24.4140625,25.390625,44.43359375,62.01171875
1771542268.365375,45.8984375,28.3203125,24.90234375,52.734375,62.01171875
1771542268.3692813,61.5234375,32.71484375,27.34375,58.10546875,39.55078125
1771542268.3731875,35.15625,31.73828125,28.80859375,57.12890625,-7.32421875
1771542268.3770938,11.23046875,33.203125,20.99609375,50.78125,-35.64453125
1771542268.380125,36.1328125,32.71484375,15.625,46.38671875,-4.8828125
1771542268.3840313,71.2890625,32.71484375,20.99609375,56.15234375,54.6875
1771542268.3879375,53.22265625,39.55078125,20.5078125,58.59375,29.78515625
1771542268.3918438,28.80859375,36.1328125,14.6484375,45.41015625,51.26953125
1771542268.39575,42.48046875,27.83203125,20.01953125,42.96875,84.47265625
1771542268.3996563,59.08203125,27.83203125,22.94921875,44.921875,31.73828125
1771542268.4035625,55.6640625,33.203125,22.4609375,42.48046875,76.171875
1771542268.4074688,26.85546875,36.62109375,24.4140625,41.015625,30.2734375
1771542268.411375,30.76171875,36.62109375,24.4140625,37.59765625,-16.11328125
1771542268.4152813,79.1015625,42.48046875,16.11328125,48.33984375,47.36328125
1771542268.4191875,98.14453125,29.296875,18.06640625,76.171875,42.48046875
1771542268.4230938,38.57421875,21.484375,33.203125,60.05859375,12.6953125
1771542268.425125,4.39453125,22.94921875,38.0859375,37.109375,45.8984375
1771542268.4290311,35.15625,16.6015625,41.9921875,48.33984375,38.0859375
1771542268.4329374,39.55078125,19.04296875,49.8046875,41.015625,-19.53125
1771542268.4368436,-3.41796875,20.99609375,51.26953125,26.3671875,20.99609375
1771542268.44075,-29.296875,14.16015625,51.7578125,29.78515625,58.10546875
1771542268.4446561,-9.27734375,11.23046875,62.01171875,35.64453125,42.96875
1771542268.4485624,6.34765625,6.34765625,65.4296875,34.66796875,1.46484375
1771542268.4524686,-5.37109375,1.46484375,68.84765625,32.71484375,20.5078125
1771542268.456375,-23.4375,-4.8828125,70.80078125,34.66796875,49.8046875
1771542268.4602811,-6.8359375,9.765625,64.94140625,46.38671875,3.90625
1771542268.4641874,23.92578125,19.04296875,66.89453125,46.38671875,-8.30078125
1771542268.4680936,20.01953125,5.859375,58.59375,34.1796875,30.2734375
1771542268.470125,-4.8828125,5.37109375,49.8046875,36.62109375,49.31640625
1771542268.4740312,2.9296875,2.44140625,47.36328125,36.1328125,29.296875
1771542268.4779375,36.1328125,7.32421875,54.19921875,43.45703125,36.1328125
1771542268.4818437,44.921875,8.30078125,54.6875,52.734375,1.46484375
1771542268.48575,3.41796875,5.37109375,45.41015625,40.52734375,-4.39453125
1771542268.4896562,-10.25390625,11.71875,43.9453125,33.69140625,17.08984375
1771542268.4935625,27.83203125,19.53125,43.45703125,34.1796875,43.9453125
1771542268.4974687,38.0859375,15.13671875,41.9921875,37.109375,38.57421875
1771542268.501375,15.13671875,7.8125,44.921875,43.9453125,15.13671875
1771542268.5052812,1.953125,25.390625,38.57421875,43.45703125,49.8046875
1771542268.5091875,26.85546875,24.90234375,33.203125,46.875,35.64453125
1771542268.5130937,49.31640625,11.71875,35.15625,50.29296875,-13.671875
1771542268.515125,38.0859375,16.11328125,40.52734375,47.36328125,42.96875
1771542268.5190313,13.18359375,19.04296875,41.9921875,44.43359375,60.546875
1771542268.5229375,20.5078125,18.5546875,36.62109375,42.48046875,75.68359375
1771542268.5268438,52.734375,17.08984375,34.1796875,46.875,47.36328125
1771542268.53075,51.26953125,18.06640625,30.76171875,52.734375,16.6015625
1771542268.5346563,16.6015625,12.20703125,33.69140625,51.26953125,79.1015625
1771542268.5385625,16.6015625,14.16015625,35.64453125,48.33984375,28.3203125
1771542268.5424688,48.33984375,11.23046875,35.15625,51.7578125,14.16015625
1771542268.546375,62.5,12.20703125,36.1328125,54.19921875,80.56640625
1771542268.5502813,33.69140625,19.04296875,34.1796875,49.31640625,75.68359375
1771542268.5541875,5.859375,17.578125,34.66796875,48.828125,11.23046875
1771542268.5580938,33.203125,27.34375,32.71484375,52.24609375,46.38671875
1771542268.560125,58.59375,25.87890625,27.83203125,48.33984375,79.58984375
1771542268.5640314,43.9453125,19.53125,30.2734375,52.734375,42.96875
1771542268.5679376,17.08984375,20.99609375,32.71484375,55.17578125,43.9453125
1771542268.5718439,31.73828125,19.53125,33.69140625,48.33984375,-7.8125
1771542268.57575,58.59375,20.5078125,35.15625,43.9453125,4.8828125
1771542268.5796564,42.48046875,16.6015625,37.59765625,49.31640625,60.05859375
1771542268.5835626,15.625,19.53125,37.59765625,52.24609375,49.31640625
1771542268.5874689,25.87890625,27.34375,29.296875,44.43359375,67.87109375
1771542268.591375,55.6640625,31.73828125,23.92578125,38.57421875,81.0546875
1771542268.5952814,55.6640625,28.3203125,23.4375,37.59765625,26.85546875
1771542268.5991876,19.04296875,22.4609375,27.34375,42.48046875,-17.08984375
1771542268.6030939,17.578125,33.69140625,31.25,44.921875,62.01171875
1771542268.606125,43.9453125,11.71875,29.296875,48.828125,88.8671875
1771542268.6100314,77.63671875,-0.48828125,31.73828125,84.47265625,8.7890625
1771542268.6139376,64.453125,20.99609375,22.4609375,77.63671875,73.73046875
1771542268.6178439,0.0,28.80859375,12.20703125,11.71875,73.2421875
1771542268.62175,-2.9296875,37.109375,22.94921875,-17.08984375,-30.2734375
1771542268.6256564,19.04296875,29.78515625,31.73828125,-17.578125,40.0390625
1771542268.6295626,-30.76171875,39.55078125,28.3203125,-44.43359375,113.28125
1771542268.6334689,-96.19140625,62.5,21.484375,-89.35546875,68.359375
1771542268.637375,-96.19140625,53.22265625,17.578125,-109.86328125,6.8359375
1771542268.6412814,-63.96484375,45.41015625,13.671875,-104.00390625,12.20703125
1771542268.6451876,-73.2421875,66.40625,15.13671875,-110.3515625,-17.578125
1771542268.6490939,-109.375,81.0546875,9.765625,-127.44140625,-11.71875
1771542268.650125,-115.234375,78.125,-6.8359375,-136.23046875,7.8125
1771542268.6540313,-84.47265625,79.58984375,-12.20703125,-132.32421875,44.921875
1771542268.6579375,-78.125,83.0078125,-10.7421875,-132.32421875,71.77734375
1771542268.6618438,-97.16796875,85.44921875,-8.7890625,-126.46484375,86.9140625
1771542268.66575,-109.86328125,78.61328125,-12.20703125,-140.13671875,44.43359375
1771542268.6696563,-76.66015625,61.03515625,-17.08984375,-138.671875,25.390625
1771542268.6735625,-36.62109375,62.01171875,-16.6015625,-105.95703125,54.6875
1771542268.6774688,-73.73046875,68.84765625,-12.6953125,-112.3046875,44.43359375
1771542268.681375,-75.68359375,68.359375,-8.30078125,-100.5859375,-4.8828125
1771542268.6852813,-27.83203125,73.2421875,-5.37109375,-80.078125,-28.80859375
1771542268.6891875,-11.71875,59.5703125,-5.859375,-71.2890625,-0.48828125
1771542268.6930938,-23.4375,50.78125,-5.859375,-58.59375,40.52734375
1771542268.710125,-35.15625,47.36328125,-5.37109375,-51.7578125,57.6171875
1771542268.7140312,-7.32421875,43.45703125,4.39453125,-38.57421875,-10.7421875
1771542268.7179375,32.2265625,44.921875,5.37109375,-23.4375,-7.8125
1771542268.7218437,26.85546875,43.45703125,2.9296875,-13.18359375,24.4140625
1771542268.72575,-8.30078125,41.015625,10.7421875,-4.39453125,-2.44140625
1771542268.7296562,-3.41796875,41.50390625,12.20703125,-5.37109375,-12.6953125
1771542268.7335625,33.69140625,43.45703125,8.7890625,-6.8359375,15.13671875
1771542268.7374687,48.828125,39.0625,11.71875,6.34765625,24.4140625
1771542268.741375,19.04296875,39.55078125,12.20703125,11.23046875,39.55078125
1771542268.7452812,5.37109375,30.2734375,11.23046875,7.32421875,90.8203125
1771542268.7491875,42.96875,32.2265625,17.08984375,16.6015625,50.29296875
1771542268.7530937,66.89453125,42.96875,20.5078125,27.34375,-9.27734375
1771542268.755125,47.8515625,41.50390625,19.53125,24.4140625,36.1328125
1771542268.7590313,28.3203125,38.0859375,18.5546875,26.3671875,45.41015625
1771542268.7629375,53.22265625,31.25,19.53125,36.62109375,36.62109375
1771542268.7668438,78.61328125,24.90234375,15.625,41.015625,-4.8828125
1771542268.77075,72.265625,37.109375,19.53125,40.0390625,23.92578125
1771542268.7746563,38.0859375,43.45703125,20.01953125,32.2265625,64.94140625
1771542268.7785625,25.87890625,28.3203125,11.71875,18.5546875,6.34765625
1771542268.7824688,60.546875,31.73828125,28.3203125,27.34375,40.52734375
1771542268.786375,67.3828125,41.50390625,36.1328125,31.73828125,47.8515625
1771542268.7902813,33.203125,31.73828125,28.80859375,20.99609375,43.45703125
1771542268.7941875,18.5546875,29.78515625,28.3203125,21.97265625,48.828125
1771542268.7980938,45.8984375,32.71484375,28.3203125,32.2265625,19.53125
1771542268.799125,54.6875,29.296875,27.34375,36.1328125,20.01953125
1771542268.8030312,26.85546875,36.62109375,23.92578125,33.69140625,16.11328125
1771542268.8069375,16.6015625,38.0859375,26.85546875,35.64453125,-13.671875
1771542268.8108437,42.48046875,38.0859375,30.76171875,39.55078125,4.8828125
1771542268.81475,57.6171875,32.2265625,29.78515625,38.57421875,78.125
1771542268.8186562,27.83203125,23.4375,26.3671875,30.2734375,47.8515625
1771542268.8225625,12.6953125,28.80859375,27.34375,26.85546875,2.44140625
1771542268.8264687,37.109375,24.4140625,30.76171875,33.203125,32.2265625
1771542268.830375,74.21875,25.87890625,32.71484375,49.8046875,62.98828125
1771542268.8342812,50.78125,42.48046875,34.66796875,26.85546875,13.671875
1771542268.8381875,-4.8828125,47.8515625,26.85546875,5.37109375,39.0625
1771542268.8420937,2.9296875,26.3671875,21.97265625,13.18359375,56.640625
1771542268.844125,37.59765625,22.4609375,20.99609375,-1.46484375,3.90625
1771542268.8480313,45.41015625,30.76171875,19.53125,7.32421875,19.53125
1771542268.8519375,13.671875,39.55078125,22.94921875,15.625,62.98828125
1771542268.8558438,8.30078125,41.50390625,19.04296875,7.8125,46.875
1771542268.85975,42.48046875,31.25,10.25390625,17.08984375,17.08984375
1771542268.8636563,55.17578125,46.875,21.484375,27.83203125,23.4375
1771542268.8675625,23.92578125,60.05859375,29.78515625,29.296875,74.70703125
1771542268.8714688,-2.9296875,34.1796875,22.4609375,20.01953125,101.5625
1771542268.875375,18.5546875,20.99609375,20.5078125,17.578125,93.26171875
1771542268.8792813,49.8046875,32.2265625,26.3671875,26.3671875,68.84765625
1771542268.8831875,33.69140625,40.0390625,26.85546875,22.4609375,52.734375
1771542268.8870938,-0.48828125,37.59765625,19.53125,13.671875,56.640625
1771542268.889125,23.92578125,41.9921875,19.04296875,21.97265625,47.8515625
1771542268.8930314,57.6171875,42.48046875,24.90234375,26.85546875,63.4765625
1771542268.8969376,42.96875,30.2734375,21.484375,31.25,72.265625
1771542268.9008439,11.71875,23.92578125,18.06640625,30.76171875,30.2734375
1771542268.90475,27.34375,30.2734375,22.4609375,29.78515625,-11.23046875
1771542268.9086564,68.84765625,33.69140625,27.83203125,42.48046875,-35.15625
1771542268.9125626,63.4765625,33.69140625,34.1796875,47.8515625,-25.87890625
1771542268.9164689,26.85546875,43.45703125,31.73828125,44.921875,45.8984375
1771542268.920375,13.671875,41.015625,23.92578125,34.66796875,48.33984375
1771542268.9242814,38.0859375,25.87890625,26.85546875,32.2265625,23.92578125
1771542268.9281876,60.546875,27.34375,29.296875,40.52734375,30.2734375
1771542268.9320939,37.109375,27.34375,25.390625,38.57421875,24.90234375
1771542268.934125,13.671875,26.85546875,26.3671875,32.71484375,-22.4609375
1771542268.9380312,42.96875,29.78515625,24.90234375,36.1328125,-38.57421875
1771542268.9419374,77.63671875,31.73828125,23.92578125,42.48046875,-31.25
1771542268.9458437,62.98828125,37.59765625,29.296875,47.8515625,27.34375
1771542268.94975,35.15625,45.41015625,32.2265625,46.875,61.5234375
1771542268.9536562,36.62109375,37.109375,27.83203125,35.64453125,-0.48828125
1771542268.9575624,61.5234375,28.3203125,28.3203125,41.9921875,19.04296875
1771542268.9614687,61.03515625,33.203125,27.83203125,47.8515625,70.3125
1771542268.965375,24.4140625,38.0859375,23.4375,36.62109375,3.41796875
1771542268.9692812,20.5078125,38.57421875,24.4140625,33.203125,9.765625
1771542268.9731874,60.546875,48.828125,27.34375,36.62109375,26.85546875
1771542268.9770937,66.89453125,39.55078125,23.4375,35.15625,30.76171875
1771542268.979125,28.80859375,25.390625,22.94921875,32.2265625,61.5234375
1771542268.9830313,22.94921875,32.71484375,24.90234375,35.15625,42.96875
1771542268.9869375,52.24609375,35.15625,20.5078125,30.2734375,42.48046875
1771542268.9908438,69.3359375,38.0859375,22.94921875,36.62109375,51.26953125
1771542268.99475,38.57421875,44.921875,26.3671875,44.921875,41.50390625
1771542268.9986563,16.11328125,36.1328125,25.390625,33.69140625,20.5078125
1771542269.0025625,36.62109375,25.87890625,24.4140625,28.80859375,64.453125
1771542269.0064688,66.40625,40.52734375,28.80859375,31.25,60.546875
1771542269.010375,56.640625,41.9921875,30.76171875,31.73828125,14.16015625
1771542269.0142813,2.44140625,20.01953125,25.390625,27.34375,3.41796875
1771542269.0181875,16.6015625,19.53125,24.4140625,34.1796875,-19.04296875
1771542269.0220938,61.5234375,29.78515625,26.85546875,40.0390625,-29.296875
1771542269.025125,52.24609375,38.57421875,29.78515625,35.15625,-16.11328125
1771542269.0290313,19.53125,33.69140625,31.25,39.0625,20.99609375
1771542269.0329375,13.18359375,21.484375,30.2734375,31.73828125,5.37109375
1771542269.0368438,39.0625,21.97265625,29.78515625,24.4140625,-28.3203125
1771542269.04075,51.26953125,35.15625,29.296875,28.3203125,37.109375
1771542269.0446563,26.85546875,33.203125,22.94921875,29.296875,72.265625
1771542269.0485625,15.13671875,32.71484375,20.99609375,26.3671875,23.4375
1771542269.0524688,35.64453125,34.66796875,27.83203125,26.3671875,13.18359375
1771542269.056375,57.6171875,29.78515625,36.62109375,36.62109375,34.1796875
1771542269.0602813,38.57421875,40.52734375,36.62109375,41.015625,61.03515625
1771542269.0641875,12.20703125,32.2265625,33.203125,28.3203125,20.5078125
1771542269.0680938,35.64453125,23.92578125,30.76171875,24.90234375,-15.13671875
1771542269.085125,61.03515625,27.83203125,29.78515625,33.203125,19.53125
1771542269.0890312,45.41015625,32.2265625,33.203125,33.69140625,52.734375
1771542269.0929375,17.578125,37.109375,30.2734375,23.4375,83.49609375
1771542269.0968437,27.83203125,34.1796875,31.73828125,25.87890625,72.265625
1771542269.10075,59.5703125,27.83203125,32.2265625,28.3203125,61.5234375
1771542269.1046562,60.05859375,23.4375,28.3203125,35.15625,73.2421875
1771542269.1085625,20.01953125,18.5546875,29.78515625,30.2734375,89.35546875
1771542269.1124687,8.30078125,26.3671875,30.2734375,20.01953125,40.52734375
1771542269.116375,50.29296875,33.69140625,31.73828125,25.87890625,13.18359375
1771542269.1202812,60.546875,40.0390625,32.2265625,29.296875,80.078125
1771542269.1241875,22.4609375,44.921875,32.71484375,33.69140625,64.453125
1771542269.1280937,6.8359375,45.8984375,32.2265625,37.59765625,-1.953125
1771542269.130125,35.64453125,30.76171875,29.296875,37.109375,28.80859375
1771542269.1340313,59.08203125,20.5078125,28.80859375,35.15625,65.4296875
1771542269.1379375,41.50390625,32.71484375,24.90234375,35.64453125,94.23828125
1771542269.1418438,20.5078125,32.2265625,27.34375,37.59765625,86.42578125
1771542269.14575,35.15625,32.2265625,40.0390625,40.0390625,89.35546875
1771542269.1496563,61.5234375,39.0625,40.52734375,38.57421875,105.46875
1771542269.1535625,48.33984375,43.9453125,31.25,36.1328125,26.3671875
1771542269.1574688,12.6953125,37.109375,27.83203125,34.66796875,-29.296875
1771542269.161375,17.578125,21.484375,26.3671875,29.296875,-2.44140625
1771542269.1652813,48.33984375,18.06640625,28.3203125,24.4140625,19.53125
1771542269.1691875,56.640625,37.59765625,35.15625,30.2734375,-27.34375
1771542269.1730938,20.01953125,43.45703125,33.69140625,24.4140625,6.8359375
1771542269.174125,4.8828125,37.59765625,32.2265625,18.5546875,0.9765625
1771542269.1780312,28.80859375,41.015625,35.64453125,20.01953125,6.34765625
1771542269.1819375,45.41015625,35.64453125,38.0859375,19.53125,62.98828125
1771542269.1858437,18.06640625,30.76171875,36.1328125,21.97265625,30.2734375
1771542269.18975,-13.671875,27.34375,35.64453125,13.18359375,-10.25390625
1771542269.1936562,6.8359375,32.71484375,37.59765625,10.7421875,-2.44140625
1771542269.1975625,27.83203125,36.62109375,36.1328125,14.16015625,21.97265625
1771542269.2014687,10.25390625,36.62109375,36.62109375,14.6484375,7.8125
1771542269.205375,-20.5078125,44.43359375,34.1796875,9.27734375,15.625
1771542269.2092812,-13.18359375,41.015625,30.2734375,1.46484375,24.4140625
1771542269.2131875,20.01953125,34.66796875,34.1796875,4.39453125,8.30078125
1771542269.2170937,22.94921875,37.109375,34.66796875,14.16015625,32.2265625
1771542269.219125,-5.859375,37.109375,34.1796875,14.16015625,86.9140625
1771542269.2230313,-5.37109375,33.69140625,34.1796875,11.23046875,103.02734375
1771542269.2269375,29.78515625,41.9921875,32.2265625,14.16015625,11.23046875
1771542269.2308438,34.1796875,56.640625,30.2734375,17.08984375,-53.22265625
1771542269.23475,1.953125,44.921875,29.78515625,12.20703125,-9.27734375
1771542269.2386563,-3.90625,32.71484375,34.66796875,5.37109375,35.64453125
1771542269.2425625,37.109375,33.203125,18.5546875,14.16015625,4.8828125
1771542269.2464688,64.94140625,32.2265625,12.6953125,35.64453125,37.109375
1771542269.250375,19.53125,30.2734375,33.69140625,23.92578125,41.50390625
1771542269.2542813,-8.30078125,34.66796875,36.1328125,11.71875,59.08203125
1771542269.2581875,22.94921875,27.83203125,35.15625,26.85546875,51.26953125
1771542269.2620938,31.73828125,25.390625,42.96875,24.4140625,25.390625
1771542269.265125,26.85546875,39.55078125,43.45703125,40.52734375,3.41796875
1771542269.2690313,2.9296875,34.1796875,42.96875,44.921875,-10.7421875
1771542269.2729375,12.6953125,15.625,39.0625,39.0625,69.82421875
1771542269.2768438,52.24609375,19.53125,35.15625,50.78125,5.859375
1771542269.28075,56.15234375,27.34375,33.203125,54.19921875,16.6015625
1771542269.2846563,30.76171875,33.69140625,44.43359375,62.5,96.19140625
1771542269.2885625,33.203125,27.34375,49.31640625,69.82421875,55.6640625
1771542269.2924688,83.984375,16.6015625,43.45703125,77.63671875,29.296875
1771542269.296375,100.5859375,21.484375,42.48046875,87.890625,31.73828125
1771542269.3002813,66.89453125,20.99609375,42.48046875,98.14453125,67.3828125
1771542269.3041875,58.59375,14.16015625,42.96875,104.00390625,88.8671875
1771542269.3080938,98.6328125,14.6484375,42.96875,114.2578125,44.921875
1771542269.310125,119.140625,18.5546875,44.43359375,113.28125,-4.39453125
1771542269.3140314,87.890625,20.5078125,43.9453125,101.07421875,-3.41796875
1771542269.3179376,69.82421875,20.99609375,48.828125,114.74609375,42.48046875
1771542269.3218439,86.42578125,15.625,49.31640625,121.58203125,33.69140625
1771542269.32575,104.00390625,11.71875,47.36328125,108.3984375,20.5078125
1771542269.3296564,91.796875,5.859375,49.8046875,109.86328125,26.3671875
1771542269.3335626,72.265625,0.0,46.875,115.234375,-14.16015625
1771542269.3374689,87.890625,15.13671875,49.31640625,114.74609375,10.25390625
1771542269.341375,113.28125,22.4609375,44.921875,116.2109375,49.31640625
1771542269.3452814,115.72265625,13.18359375,42.48046875,117.67578125,101.07421875
1771542269.3491876,82.51953125,19.04296875,47.8515625,114.74609375,119.62890625
1771542269.3530939,80.56640625,19.04296875,46.875,114.74609375,122.0703125
1771542269.354125,111.81640625,15.13671875,45.41015625,118.1640625,104.98046875
1771542269.3580313,107.91015625,16.6015625,47.36328125,119.62890625,95.21484375
1771542269.3619375,66.89453125,14.6484375,42.48046875,110.3515625,51.26953125
1771542269.3658438,55.17578125,14.6484375,36.62109375,99.609375,3.90625
1771542269.36975,89.84375,20.5078125,42.96875,103.02734375,42.96875
1771542269.3736563,104.4921875,30.76171875,45.41015625,111.328125,32.71484375
1771542269.3775625,80.56640625,22.94921875,37.109375,99.609375,0.48828125
1771542269.3814688,59.5703125,27.34375,42.96875,89.84375,-7.32421875
1771542269.385375,75.1953125,35.64453125,45.41015625,96.6796875,15.625
1771542269.3892813,92.28515625,18.5546875,37.109375,95.21484375,22.94921875
1771542269.3931875,79.1015625,18.5546875,34.66796875,88.8671875,-4.39453125
1771542269.3970938,51.7578125,21.484375,31.73828125,78.61328125,24.90234375
1771542269.399125,58.10546875,26.3671875,33.69140625,73.2421875,30.76171875
1771542269.4030313,87.890625,31.25,37.59765625,84.47265625,22.4609375
1771542269.4069376,90.8203125,27.83203125,37.109375,87.40234375,14.6484375
1771542269.4108438,53.22265625,23.4375,40.0390625,72.265625,-22.4609375
1771542269.41475,41.50390625,21.484375,36.62109375,60.546875,31.25
1771542269.4186563,65.91796875,18.06640625,31.73828125,62.01171875,17.578125
1771542269.4225626,79.1015625,25.87890625,38.0859375,69.3359375,-16.6015625
1771542269.4264688,58.10546875,26.3671875,39.0625,68.84765625,40.0390625
1771542269.430375,41.50390625,23.4375,35.64453125,62.01171875,40.0390625
1771542269.4342813,66.40625,33.69140625,32.71484375,58.10546875,38.57421875
1771542269.4381876,88.37890625,37.109375,31.73828125,63.96484375,105.95703125
1771542269.4420938,59.5703125,26.85546875,32.2265625,64.94140625,75.68359375
1771542269.459125,23.4375,20.99609375,38.57421875,57.6171875,-24.90234375
1771542269.4630313,53.7109375,15.13671875,42.96875,69.82421875,-8.7890625
1771542269.4669375,97.16796875,23.4375,37.59765625,81.54296875,20.01953125
1771542269.4708438,70.80078125,47.8515625,30.76171875,59.5703125,-12.6953125
1771542269.47475,24.4140625,48.828125,21.484375,36.62109375,-49.8046875
1771542269.4786563,17.578125,30.76171875,20.01953125,22.94921875,-22.4609375
1771542269.4825625,44.921875,40.52734375,17.578125,12.20703125,8.30078125
1771542269.4864688,42.48046875,51.26953125,7.32421875,7.32421875,47.8515625
1771542269.490375,-0.9765625,46.875,4.8828125,-3.90625,49.8046875
1771542269.4942813,-6.34765625,49.31640625,8.7890625,-11.71875,21.97265625
1771542269.4981875,14.16015625,47.8515625,14.16015625,-4.8828125,45.8984375
1771542269.5020938,18.5546875,41.50390625,17.578125,2.9296875,45.8984375
1771542269.504125,-0.48828125,33.69140625,19.04296875,11.23046875,21.97265625
1771542269.5080314,-11.23046875,30.2734375,19.04296875,13.18359375,-9.27734375
1771542269.5119376,18.5546875,36.62109375,19.53125,15.625,40.52734375
1771542269.5158439,58.10546875,38.0859375,20.99609375,17.08984375,83.0078125
1771542269.51975,58.10546875,45.8984375,22.94921875,25.87890625,54.6875
1771542269.5236564,20.5078125,40.0390625,17.08984375,29.296875,43.45703125
1771542269.5275626,20.99609375,27.83203125,14.16015625,26.85546875,12.6953125
1771542269.5314689,53.22265625,33.69140625,21.484375,36.62109375,20.01953125
1771542269.535375,53.7109375,35.64453125,17.578125,42.48046875,32.71484375
1771542269.5392814,25.390625,39.0625,20.5078125,35.15625,27.83203125
1771542269.5431876,27.34375,36.1328125,27.34375,35.15625,22.94921875
1771542269.5470939,74.21875,36.1328125,19.53125,44.43359375,-22.94921875
1771542269.549125,105.95703125,41.015625,15.625,63.4765625,-5.37109375
1771542269.5530312,58.10546875,38.0859375,30.2734375,69.82421875,90.33203125
1771542269.5569375,12.20703125,37.59765625,33.69140625,47.8515625,119.140625
1771542269.5608437,33.69140625,34.1796875,33.203125,29.78515625,93.75
1771542269.56475,48.33984375,28.3203125,38.0859375,35.64453125,46.38671875
1771542269.5686562,14.6484375,28.80859375,41.015625,37.59765625,53.7109375
1771542269.5725625,-18.06640625,25.87890625,41.9921875,31.25,75.68359375
1771542269.5764687,4.8828125,18.5546875,38.0859375,33.69140625,47.36328125
1771542269.580375,40.0390625,16.11328125,37.109375,39.0625,34.1796875
1771542269.5842812,26.85546875,21.97265625,38.57421875,37.59765625,38.57421875
1771542269.5881875,-4.8828125,17.08984375,31.73828125,28.80859375,37.109375
1771542269.5920937,12.20703125,22.4609375,36.1328125,39.55078125,-8.7890625
1771542269.594125,49.8046875,29.296875,39.0625,48.33984375,28.3203125
1771542269.5980313,38.57421875,23.4375,35.64453125,44.921875,53.22265625
1771542269.6019375,4.8828125,30.2734375,40.52734375,42.48046875,16.6015625
1771542269.6058438,7.8125,25.390625,36.62109375,37.59765625,90.33203125
1771542269.60975,32.2265625,17.578125,33.203125,39.0625,74.21875
1771542269.6136563,44.921875,16.6015625,27.83203125,43.9453125,15.13671875
1771542269.6175625,26.85546875,13.671875,29.296875,48.33984375,-9.765625
1771542269.6214688,9.765625,11.23046875,40.0390625,52.734375,-48.33984375
1771542269.625375,30.76171875,8.7890625,35.15625,50.29296875,56.640625
1771542269.6292813,58.59375,22.4609375,30.76171875,52.734375,54.19921875
1771542269.6331875,62.01171875,47.8515625,38.0859375,67.3828125,-26.85546875
1771542269.6370938,38.0859375,31.73828125,35.64453125,62.98828125,27.34375
1771542269.640125,46.875,18.5546875,35.64453125,57.12890625,87.40234375
1771542269.6440313,75.68359375,27.34375,33.203125,58.10546875,47.8515625
1771542269.6479375,53.7109375,24.90234375,26.85546875,53.22265625,21.97265625
1771542269.6518438,23.92578125,21.484375,27.83203125,47.8515625,62.01171875
1771542269.65575,31.25,22.4609375,35.15625,46.875,43.45703125
1771542269.6596563,78.125,28.3203125,39.0625,54.6875,32.2265625
1771542269.6635625,70.3125,29.296875,34.1796875,53.7109375,36.1328125
1771542269.6674688,5.37109375,27.34375,30.76171875,43.9453125,20.01953125
1771542269.671375,5.859375,38.57421875,30.76171875,36.1328125,-6.8359375
1771542269.6752813,54.6875,38.57421875,28.80859375,34.66796875,8.7890625
1771542269.6791875,58.10546875,29.296875,27.34375,42.48046875,1.46484375
1771542269.6830938,27.34375,32.71484375,27.34375,38.57421875,-20.01953125
1771542269.685125,12.6953125,35.64453125,26.3671875,32.71484375,-12.20703125
1771542269.6890314,29.296875,42.48046875,28.80859375,39.55078125,2.9296875
1771542269.6929376,58.10546875,34.66796875,27.83203125,43.45703125,15.625
1771542269.6968439,32.2265625,29.296875,24.90234375,40.0390625,42.48046875
1771542269.70075,3.41796875,31.73828125,26.3671875,28.80859375,23.92578125
1771542269.7046564,36.1328125,29.78515625,27.34375,34.1796875,12.20703125
1771542269.7085626,57.12890625,24.90234375,31.25,38.57421875,34.66796875
1771542269.7124689,33.69140625,23.92578125,28.3203125,35.15625,69.82421875
1771542269.716375,6.34765625,33.69140625,25.390625,39.55078125,98.14453125
1771542269.7202814,19.04296875,30.2734375,26.85546875,38.57421875,28.80859375
1771542269.7241876,56.640625,23.92578125,27.83203125,37.59765625,18.06640625
1771542269.7280939,73.73046875,29.296875,36.62109375,49.31640625,50.78125
1771542269.730125,60.05859375,26.3671875,46.875,69.82421875,36.62109375
1771542269.7340312,44.43359375,31.25,38.57421875,62.01171875,16.11328125
1771542269.7379375,52.24609375,44.921875,23.4375,27.83203125,60.05859375
1771542269.7418437,54.19921875,35.15625,22.4609375,22.4609375,48.33984375
1771542269.74575,35.15625,41.015625,22.4609375,33.69140625,22.94921875
1771542269.7496562,18.06640625,48.33984375,14.6484375,30.76171875,-20.01953125
1771542269.7535625,45.8984375,44.43359375,11.71875,27.34375,34.66796875
1771542269.7574687,66.89453125,51.26953125,15.625,23.4375,87.40234375
1771542269.761375,43.45703125,45.41015625,16.11328125,18.5546875,42.96875
1771542269.7652812,14.16015625,38.57421875,12.20703125,19.04296875,34.66796875
1771542269.7691875,25.87890625,43.9453125,13.18359375,18.06640625,86.42578125
1771542269.7730937,68.84765625,50.78125,19.04296875,21.97265625,101.07421875
1771542269.775125,63.4765625,46.38671875,16.11328125,24.4140625,49.31640625
1771542269.7790313,29.78515625,44.43359375,14.6484375,24.90234375,13.18359375
1771542269.7829375,38.57421875,51.26953125,20.5078125,25.87890625,51.7578125
1771542269.7868438,61.03515625,47.36328125,19.53125,25.390625,67.3828125
1771542269.79075,61.5234375,46.875,24.4140625,34.1796875,58.59375
1771542269.7946563,19.04296875,43.45703125,23.92578125,29.78515625,114.74609375
1771542269.7985625,6.8359375,29.296875,16.11328125,24.90234375,39.55078125
1771542269.8024688,48.828125,35.64453125,16.11328125,33.69140625,32.71484375
1771542269.806375,66.89453125,41.50390625,17.08984375,34.1796875,61.5234375
1771542269.8102813,37.109375,37.59765625,20.5078125,28.3203125,41.015625
1771542269.8141875,15.13671875,38.57421875,19.53125,23.4375,-10.25390625
1771542269.8180938,48.828125,31.73828125,17.578125,21.97265625,-52.24609375
1771542269.834125,72.265625,25.390625,19.53125,30.2734375,-19.04296875
1771542269.8380313,45.8984375,33.69140625,19.04296875,29.296875,-18.5546875
1771542269.8419375,11.23046875,35.64453125,20.99609375,13.18359375,6.34765625
1771542269.8458438,27.83203125,30.2734375,27.34375,21.97265625,6.8359375
1771542269.84975,62.01171875,33.203125,32.2265625,32.2265625,-5.37109375
1771542269.8536563,54.6875,33.203125,30.76171875,29.78515625,11.71875
1771542269.8575625,16.6015625,24.90234375,27.83203125,29.78515625,70.80078125
1771542269.8614688,14.6484375,25.390625,22.94921875,23.4375,41.015625
1771542269.865375,52.24609375,26.85546875,22.4609375,23.92578125,28.80859375
1771542269.8692813,71.2890625,24.90234375,21.97265625,28.80859375,59.08203125
1771542269.8731875,43.45703125,40.52734375,23.4375,21.97265625,-8.7890625
1771542269.8770938,27.34375,37.109375,22.94921875,22.4609375,35.15625
1771542269.879125,61.03515625,30.2734375,21.484375,32.2265625,72.265625
1771542269.8830314,85.9375,38.57421875,22.94921875,33.69140625,18.5546875
1771542269.8869376,51.7578125,32.2265625,21.97265625,31.73828125,22.94921875
1771542269.8908439,8.7890625,26.85546875,21.484375,28.3203125,60.546875
1771542269.89475,28.3203125,25.390625,20.99609375,29.296875,12.6953125
1771542269.8986564,52.24609375,27.83203125,20.5078125,26.85546875,25.87890625
1771542269.9025626,29.296875,34.1796875,23.4375,21.484375,37.59765625
1771542269.9064689,-9.765625,27.83203125,25.87890625,23.92578125,-4.39453125
1771542269.910375,-0.9765625,26.3671875,26.3671875,26.3671875,38.0859375
1771542269.9142814,41.50390625,28.80859375,25.390625,26.3671875,10.7421875
1771542269.9181876,40.52734375,27.83203125,27.34375,21.484375,8.7890625
1771542269.9220939,-1.953125,21.484375,29.78515625,22.4609375,56.15234375
1771542269.925125,-7.32421875,28.80859375,32.71484375,33.203125,61.5234375
1771542269.9290311,28.80859375,36.62109375,34.1796875,39.55078125,96.19140625
1771542269.9329374,40.52734375,24.4140625,28.80859375,38.0859375,83.49609375
1771542269.9368436,8.7890625,20.5078125,29.78515625,36.62109375,52.734375
1771542269.94075,-5.859375,31.73828125,29.296875,35.15625,69.82421875
1771542269.9446561,27.34375,41.9921875,23.92578125,38.57421875,58.59375
1771542269.9485624,52.734375,33.203125,22.94921875,38.0859375,65.91796875
1771542269.9524686,34.1796875,28.3203125,22.4609375,36.62109375,25.87890625
1771542269.956375,6.8359375,28.80859375,19.53125,34.66796875,-46.38671875
1771542269.9602811,20.5078125,32.2265625,19.53125,30.76171875,-29.296875
1771542269.9641874,47.8515625,32.2265625,23.92578125,32.71484375,33.203125
1771542269.9680936,33.69140625,29.78515625,21.97265625,34.66796875,83.984375
1771542269.969125,6.34765625,34.1796875,22.94921875,32.2265625,78.61328125
1771542269.9730313,14.6484375,44.921875,35.15625,31.25,24.90234375
1771542269.9769375,40.0390625,38.0859375,32.2265625,31.25,12.20703125
1771542269.9808438,36.62109375,15.625,26.3671875,28.3203125,56.15234375
1771542269.98475,30.76171875,2.44140625,26.3671875,48.828125,13.671875
1771542269.9886563,40.52734375,9.765625,23.4375,60.546875,-30.2734375
1771542269.9925625,22.4609375,40.0390625,23.4375,14.6484375,-15.625
1771542269.9964688,-14.6484375,21.97265625,25.87890625,-25.390625,-41.015625
1771542270.000375,-66.89453125,16.6015625,30.2734375,-52.24609375,-25.390625
1771542270.0042813,-103.02734375,46.38671875,27.83203125,-78.125,25.87890625
1771542270.0081875,-102.05078125,47.8515625,25.87890625,-91.796875,37.109375
1771542270.0120938,-90.8203125,68.84765625,24.4140625,-101.5625,55.6640625
1771542270.029125,-124.51171875,76.171875,22.4609375,-121.09375,6.34765625
1771542270.0330312,-164.55078125,61.5234375,18.06640625,-140.13671875,5.37109375
1771542270.0369375,-143.5546875,58.59375,17.578125,-144.04296875,39.55078125
1771542270.0408437,-102.5390625,63.96484375,15.13671875,-134.27734375,23.92578125
1771542270.04475,-116.2109375,65.91796875,15.625,-139.6484375,-2.44140625
1771542270.0486562,-158.203125,53.22265625,16.11328125,-147.4609375,6.34765625
1771542270.0525625,-137.20703125,53.22265625,15.13671875,-122.55859375,33.203125
1771542270.0564687,-99.12109375,54.19921875,14.16015625,-122.55859375,47.8515625
1771542270.060375,-81.0546875,60.546875,8.7890625,-112.79296875,67.87109375
1771542270.0642812,-88.37890625,66.40625,17.08984375,-85.44921875,38.57421875
1771542270.0681875,-84.9609375,47.8515625,18.06640625,-76.66015625,27.34375
1771542270.0720937,-45.8984375,44.43359375,12.20703125,-71.77734375,33.203125
1771542270.060125,-15.13671875,45.8984375,18.5546875,-61.03515625,25.87890625
1771542270.0640314,-33.203125,46.875,16.11328125,-49.8046875,38.0859375
1771542270.0679376,-45.8984375,42.96875,14.16015625,-38.57421875,45.41015625
1771542270.0718439,-12.6953125,39.0625,16.6015625,-26.85546875,37.109375
1771542270.07575,13.671875,41.015625,13.18359375,-22.4609375,4.39453125
1771542270.0796564,3.41796875,46.875,14.6484375,-18.5546875,13.18359375
1771542270.0835626,-17.578125,43.45703125,21.484375,-14.16015625,28.80859375
1771542270.0874689,-4.8828125,39.0625,25.390625,-8.7890625,31.73828125
1771542270.091375,24.90234375,41.50390625,24.4140625,-6.8359375,69.3359375
1771542270.0952814,32.71484375,40.0390625,25.87890625,-2.44140625,48.33984375
1771542270.0991876,1.953125,37.109375,22.4609375,3.41796875,50.29296875
1771542270.1030939,3.90625,45.41015625,21.97265625,6.8359375,63.4765625
1771542270.105125,40.52734375,55.6640625,24.90234375,15.13671875,46.875
1771542270.1090312,41.9921875,49.8046875,24.90234375,18.5546875,73.73046875
1771542270.1129375,7.32421875,43.9453125,20.99609375,12.20703125,68.84765625
1771542270.1168437,-12.6953125,32.71484375,19.04296875,7.32421875,63.96484375
1771542270.12075,21.97265625,31.25,26.85546875,21.97265625,23.4375
1771542270.1246562,37.109375,35.15625,29.78515625,31.25,42.96875
1771542270.1285625,10.25390625,34.1796875,29.78515625,26.3671875,97.16796875
1771542270.1324687,0.9765625,32.2265625,30.2734375,24.90234375,46.38671875
1771542270.136375,27.34375,39.0625,26.85546875,19.53125,28.80859375
1771542270.1402812,62.98828125,42.96875,27.34375,19.04296875,43.45703125
1771542270.1441875,43.9453125,36.1328125,28.80859375,25.390625,-10.25390625
1771542270.1480937,1.953125,43.9453125,31.73828125,33.69140625,31.73828125
1771542270.150125,10.25390625,41.50390625,31.73828125,37.59765625,55.17578125
1771542270.1540313,45.41015625,25.390625,24.4140625,30.76171875,-17.578125
1771542270.1579375,46.875,29.296875,25.390625,30.76171875,-21.484375
1771542270.1618438,14.16015625,38.57421875,30.2734375,28.80859375,8.30078125
1771542270.16575,15.13671875,44.43359375,28.3203125,30.2734375,53.22265625
1771542270.1696563,48.33984375,35.15625,19.53125,34.1796875,67.87109375
1771542270.1735625,53.7109375,33.203125,19.53125,36.1328125,48.828125
1771542270.1774688,20.99609375,41.50390625,24.4140625,34.1796875,35.15625
1771542270.181375,9.27734375,41.015625,23.92578125,33.203125,37.59765625
1771542270.1852813,45.41015625,36.1328125,27.83203125,35.64453125,23.92578125
1771542270.1891875,66.89453125,35.64453125,27.83203125,38.57421875,32.2265625
1771542270.1930938,41.015625,41.015625,25.390625,42.48046875,98.6328125
1771542270.210125,15.625,38.0859375,20.99609375,33.203125,47.8515625
1771542270.2140312,37.59765625,34.1796875,22.4609375,26.85546875,-13.671875
1771542270.2179375,70.3125,48.33984375,30.2734375,40.52734375,27.34375
1771542270.2218437,53.7109375,46.38671875,28.3203125,45.41015625,81.0546875
1771542270.22575,12.6953125,25.390625,24.4140625,33.69140625,64.94140625
1771542270.2296562,22.94921875,29.296875,25.390625,32.2265625,8.30078125
1771542270.2335625,57.12890625,36.1328125,28.80859375,40.0390625,27.83203125
1771542270.2374687,59.08203125,37.59765625,27.83203125,37.59765625,41.50390625
1771542270.241375,25.87890625,37.59765625,21.484375,29.78515625,25.87890625
1771542270.2452812,16.11328125,36.1328125,24.4140625,28.3203125,23.92578125
1771542270.2491875,46.875,36.1328125,31.73828125,35.15625,40.0390625
1771542270.2530937,54.6875,37.59765625,30.76171875,41.015625,74.70703125
1771542270.254125,20.99609375,28.3203125,28.3203125,35.15625,63.4765625
1771542270.2580314,2.44140625,20.5078125,28.80859375,28.3203125,-7.8125
1771542270.2619376,34.1796875,32.2265625,30.76171875,27.83203125,30.76171875
1771542270.2658439,65.91796875,35.15625,32.2265625,41.50390625,71.2890625
1771542270.26975,50.78125,33.203125,31.73828125,38.57421875,8.7890625
1771542270.2736564,11.71875,35.15625,24.4140625,10.7421875,-9.27734375
1771542270.2775626,35.15625,46.875,26.3671875,19.04296875,-21.484375
1771542270.2814689,69.82421875,52.24609375,32.2265625,34.66796875,5.37109375
1771542270.285375,44.921875,31.25,29.296875,35.15625,37.109375
1771542270.2892814,5.37109375,22.4609375,26.3671875,31.73828125,-32.2265625
1771542270.2931876,13.671875,31.73828125,28.3203125,27.34375,-53.7109375
1771542270.2970939,57.12890625,38.57421875,30.2734375,34.1796875,33.203125
1771542270.299125,58.10546875,37.109375,28.80859375,34.1796875,28.3203125
1771542270.3030312,16.6015625,40.0390625,27.34375,31.73828125,-21.97265625
1771542270.3069375,17.08984375,44.43359375,28.3203125,35.64453125,1.46484375
1771542270.3108437,56.640625,39.0625,24.4140625,35.64453125,14.6484375
1771542270.31475,69.3359375,33.69140625,20.5078125,28.80859375,20.99609375
1771542270.3186562,32.2265625,37.109375,23.4375,23.4375,54.19921875
1771542270.3225625,8.7890625,37.59765625,26.3671875,23.92578125,61.03515625
1771542270.3264687,32.71484375,40.0390625,29.78515625,25.390625,9.765625
1771542270.330375,52.734375,40.52734375,29.78515625,33.203125,0.9765625
1771542270.3342812,32.2265625,30.76171875,26.3671875,29.78515625,54.19921875
1771542270.3381875,6.8359375,36.1328125,24.4140625,14.6484375,22.94921875
1771542270.3420937,25.390625,42.48046875,24.90234375,19.53125,31.73828125
1771542270.345125,53.22265625,29.296875,26.3671875,27.83203125,45.41015625
1771542270.3490312,52.24609375,32.71484375,22.4609375,25.390625,17.08984375
1771542270.3529375,23.92578125,42.48046875,16.6015625,20.01953125,14.6484375
1771542270.3568437,11.23046875,41.015625,19.04296875,20.99609375,0.9765625
1771542270.36075,34.1796875,34.66796875,21.484375,27.34375,-33.69140625
1771542270.3646562,39.0625,23.92578125,26.85546875,39.0625,2.9296875
1771542270.3685625,10.25390625,31.73828125,36.1328125,42.48046875,60.05859375
1771542270.3724687,6.34765625,33.69140625,29.78515625,36.1328125,50.78125
1771542270.376375,46.875,30.76171875,21.484375,28.80859375,41.015625
1771542270.3802812,55.17578125,36.1328125,22.4609375,30.76171875,35.64453125
1771542270.3841875,22.94921875,32.2265625,22.94921875,29.78515625,44.921875
1771542270.3880937,11.23046875,44.43359375,26.3671875,25.390625,38.0859375
1771542270.390125,34.66796875,49.8046875,27.83203125,30.2734375,50.78125
1771542270.3940313,56.640625,34.66796875,20.01953125,32.71484375,42.48046875
1771542270.3979375,35.64453125,34.1796875,26.3671875,36.1328125,32.2265625
1771542270.4018438,2.9296875,32.71484375,33.69140625,34.66796875,65.4296875
1771542270.40575,17.08984375,27.83203125,30.76171875,33.69140625,-1.46484375
1771542270.4096563,55.6640625,28.3203125,31.73828125,34.66796875,11.23046875
1771542270.4135625,56.15234375,37.59765625,26.85546875,31.73828125,62.01171875
1771542270.4174688,15.625,38.0859375,21.97265625,29.296875,17.578125
1771542270.421375,-0.48828125,35.64453125,23.92578125,32.71484375,-20.99609375
1771542270.4252813,20.5078125,39.0625,28.3203125,35.15625,11.71875
1771542270.4291875,38.57421875,38.57421875,25.87890625,29.296875,82.51953125
1771542270.4330938,17.578125,33.203125,22.94921875,22.4609375,95.703125
1771542270.435125,5.37109375,29.78515625,24.4140625,24.90234375,52.734375
1771542270.4390314,34.66796875,32.71484375,29.78515625,33.203125,11.23046875
1771542270.4429376,67.3828125,42.96875,35.15625,42.48046875,40.0390625
1771542270.4468439,48.33984375,39.0625,30.76171875,41.015625,66.89453125
1771542270.45075,19.53125,35.64453125,33.203125,41.50390625,53.7109375
1771542270.4546564,33.69140625,36.62109375,27.34375,41.50390625,90.8203125
1771542270.4585626,57.12890625,34.66796875,19.04296875,36.1328125,46.875
1771542270.4624689,49.8046875,38.0859375,26.3671875,31.73828125,80.078125
1771542270.466375,10.7421875,35.64453125,31.25,26.85546875,108.88671875
1771542270.4702814,9.765625,28.3203125,32.2265625,31.25,49.31640625
1771542270.4741876,50.78125,29.296875,30.2734375,42.96875,-11.23046875
1771542270.4780939,54.6875,33.203125,30.76171875,47.8515625,-27.83203125
1771542270.480125,21.97265625,33.69140625,26.85546875,38.0859375,20.01953125
1771542270.4840312,20.5078125,38.57421875,27.83203125,31.73828125,26.3671875
1771542270.4879375,52.24609375,38.57421875,27.34375,24.4140625,11.23046875
1771542270.4918437,51.7578125,38.57421875,18.5546875,20.5078125,35.64453125
1771542270.49575,14.16015625,36.62109375,21.97265625,29.296875,33.203125
1771542270.4996562,-9.27734375,30.2734375,28.80859375,27.34375,53.7109375
1771542270.5035625,22.94921875,33.69140625,27.83203125,27.34375,51.26953125
1771542270.5074687,53.22265625,41.015625,26.3671875,30.2734375,25.390625
1771542270.511375,28.3203125,38.57421875,28.3203125,25.87890625,-13.671875
1771542270.5152812,-9.27734375,25.87890625,28.3203125,21.97265625,-32.71484375
1771542270.5191875,1.953125,34.66796875,32.2265625,25.87890625,24.90234375
1771542270.5230937,34.66796875,41.015625,35.64453125,32.2265625,94.7265625
1771542270.525125,35.15625,21.484375,25.390625,29.78515625,65.4296875
1771542270.5290313,13.671875,26.3671875,13.671875,31.73828125,40.52734375
1771542270.5329375,7.8125,39.55078125,17.578125,31.25,85.9375
1771542270.5368438,22.94921875,31.25,26.3671875,24.4140625,25.390625
1771542270.54075,30.2734375,28.80859375,40.0390625,29.296875,-14.16015625
1771542270.5446563,8.7890625,29.78515625,33.203125,31.25,3.90625
1771542270.5485625,9.27734375,17.578125,24.4140625,35.15625,23.4375
1771542270.5524688,33.69140625,17.08984375,39.55078125,42.48046875,37.109375
1771542270.556375,51.7578125,20.5078125,35.15625,53.22265625,2.44140625
1771542270.5602813,27.83203125,19.53125,33.69140625,49.31640625,23.4375
1771542270.5641875,2.44140625,20.01953125,40.0390625,40.0390625,67.3828125
1771542270.5680938,42.96875,27.34375,39.0625,51.26953125,69.3359375
1771542270.585125,84.47265625,28.80859375,41.9921875,64.453125,51.7578125
1771542270.5890312,63.96484375,10.7421875,52.24609375,87.40234375,3.90625
1771542270.5929375,16.6015625,8.7890625,56.15234375,90.33203125,15.13671875
1771542270.5968437,38.0859375,23.4375,46.875,87.890625,33.69140625
1771542270.60075,80.078125,17.08984375,43.9453125,95.21484375,17.578125
1771542270.6046562,71.77734375,6.34765625,49.31640625,88.37890625,27.83203125
1771542270.6085625,50.78125,14.16015625,56.640625,101.07421875,56.15234375
1771542270.6124687,45.8984375,18.5546875,57.12890625,99.609375,92.28515625
1771542270.616375,80.078125,12.20703125,51.26953125,87.890625,38.0859375
1771542270.6202812,101.07421875,10.25390625,51.26953125,100.09765625,17.08984375
1771542270.6241875,72.75390625,17.08984375,46.875,100.09765625,46.875
1771542270.6280937,60.546875,23.4375,45.8984375,94.7265625,17.08984375
1771542270.630125,89.84375,16.6015625,50.29296875,94.23828125,-16.6015625
1771542270.6340313,104.4921875,17.578125,45.8984375,104.00390625,-10.7421875
1771542270.6379375,85.9375,36.62109375,44.921875,116.2109375,41.9921875
1771542270.6418438,62.5,31.25,44.43359375,102.05078125,49.8046875
1771542270.64575,70.3125,17.08984375,34.1796875,89.35546875,63.4765625
1771542270.6496563,101.5625,18.5546875,33.203125,95.703125,78.125
1771542270.6535625,91.30859375,18.06640625,36.62109375,89.35546875,14.6484375
1771542270.6574688,54.6875,21.484375,36.1328125,81.0546875,-3.41796875
1771542270.661375,72.265625,26.3671875,36.62109375,82.03125,66.40625
1771542270.6652813,107.421875,23.92578125,32.71484375,78.61328125,73.2421875
1771542270.6691875,91.796875,21.97265625,33.69140625,81.0546875,9.765625
1771542270.6730938,70.3125,29.78515625,39.0625,84.47265625,-15.625
1771542270.675125,62.5,33.69140625,33.69140625,81.0546875,16.11328125
1771542270.6790311,84.9609375,38.57421875,36.1328125,81.0546875,45.41015625
1771542270.6829374,107.421875,42.96875,40.0390625,84.47265625,40.52734375
1771542270.6868436,77.63671875,29.78515625,29.78515625,74.21875,21.484375
1771542270.69075,62.01171875,25.390625,26.85546875,67.3828125,-7.32421875
1771542270.6946561,81.54296875,30.76171875,32.71484375,71.2890625,29.296875
1771542270.6985624,94.23828125,31.73828125,34.66796875,81.0546875,61.5234375
1771542270.7024686,60.546875,24.90234375,36.1328125,78.61328125,68.359375
1771542270.706375,29.78515625,22.4609375,34.1796875,61.5234375,43.9453125
1771542270.7102811,50.78125,27.34375,33.203125,61.03515625,11.23046875
1771542270.7141874,87.890625,35.64453125,35.64453125,68.359375,26.3671875
1771542270.7180936,78.61328125,34.66796875,33.203125,65.4296875,-2.44140625
1771542270.719125,41.9921875,27.83203125,37.109375,62.01171875,-25.87890625
1771542270.7230313,41.50390625,27.83203125,36.62109375,60.546875,30.2734375
1771542270.7269375,72.265625,21.484375,31.25,61.03515625,83.49609375
1771542270.7308438,79.58984375,31.25,31.73828125,68.84765625,27.83203125
1771542270.73475,37.59765625,27.83203125,33.69140625,67.3828125,15.13671875
1771542270.7386563,35.64453125,14.16015625,29.78515625,60.05859375,45.41015625
1771542270.7425625,76.66015625,27.34375,27.83203125,61.03515625,46.875
1771542270.7464688,86.42578125,36.1328125,27.83203125,65.91796875,31.25
1771542270.750375,64.453125,41.015625,26.3671875,64.94140625,11.23046875
1771542270.7542813,54.19921875,37.109375,30.76171875,64.94140625,30.2734375
1771542270.7581875,79.1015625,35.64453125,26.3671875,67.87109375,28.3203125
1771542270.7620938,104.98046875,37.59765625,16.6015625,67.87109375,-26.3671875
1771542270.766125,71.2890625,31.25,20.5078125,58.59375,15.625
1771542270.7700312,15.625,29.296875,23.92578125,35.15625,34.66796875
1771542270.7739375,48.33984375,24.4140625,25.390625,42.96875,0.9765625
1771542270.7778437,98.6328125,25.87890625,26.3671875,66.40625,31.73828125
1771542270.78175,83.0078125,35.64453125,26.3671875,60.546875,79.1015625
1771542270.7856562,49.8046875,30.76171875,27.34375,58.59375,91.30859375
1771542270.7895625,51.7578125,21.484375,27.34375,61.5234375,47.8515625
1771542270.7934687,78.61328125,19.53125,26.85546875,59.08203125,15.13671875
1771542270.797375,85.9375,29.78515625,26.3671875,61.5234375,46.875
1771542270.8012812,62.01171875,46.38671875,31.73828125,61.03515625,29.78515625
1771542270.8051875,41.50390625,32.2265625,24.90234375,54.6875,-2.44140625
1771542270.8090937,58.10546875,16.11328125,16.6015625,48.828125,-6.8359375
1771542270.809125,70.3125,27.34375,23.92578125,53.7109375,32.2265625
1771542270.8130312,53.22265625,39.55078125,26.85546875,52.734375,19.53125
1771542270.8169374,29.78515625,33.203125,22.4609375,39.0625,-2.9296875
1771542270.8208437,45.8984375,23.4375,20.99609375,39.0625,42.96875
1771542270.82475,72.265625,24.90234375,25.87890625,43.45703125,60.05859375
1771542270.8286562,55.17578125,26.85546875,26.3671875,45.41015625,85.44921875
1771542270.8325624,33.203125,29.296875,25.390625,46.38671875,52.24609375
1771542270.8364687,49.8046875,33.203125,27.34375,43.9453125,88.37890625
1771542270.840375,75.1953125,33.203125,25.87890625,47.36328125,116.2109375
1771542270.8442812,56.15234375,28.80859375,27.83203125,48.828125,13.671875
1771542270.8481874,22.4609375,34.1796875,29.296875,41.9921875,38.0859375
1771542270.8520937,26.85546875,30.2734375,28.80859375,44.43359375,78.125
1771542270.855125,56.15234375,29.296875,33.203125,55.6640625,41.9921875
1771542270.8590312,60.546875,39.0625,33.69140625,50.29296875,4.39453125
1771542270.8629375,33.203125,19.04296875,31.25,52.24609375,8.30078125
1771542270.8668437,43.9453125,9.765625,34.66796875,74.70703125,40.0390625
1771542270.87075,70.3125,45.8984375,23.4375,52.734375,66.89453125
1771542270.8746562,62.5,56.640625,14.6484375,15.13671875,67.87109375
1771542270.8785625,24.4140625,35.64453125,21.484375,8.30078125,28.3203125
1771542270.8824687,-13.671875,42.48046875,19.04296875,-11.71875,46.875
1771542270.886375,-12.20703125,47.8515625,14.6484375,-27.34375,68.84765625
1771542270.8902812,10.25390625,43.9453125,12.6953125,-18.06640625,32.71484375
1771542270.8941875,-1.953125,51.26953125,9.27734375,-21.97265625,15.625
1771542270.8980937,-25.390625,56.15234375,8.7890625,-25.87890625,-11.71875
1771542270.899125,-0.9765625,51.7578125,17.08984375,-11.23046875,-10.7421875
1771542270.9030313,43.45703125,50.78125,18.06640625,2.9296875,-6.8359375
1771542270.9069376,35.64453125,50.78125,12.20703125,7.32421875,20.99609375
1771542270.9108438,-0.9765625,46.875,12.6953125,11.23046875,72.75390625
1771542270.91475,11.71875,53.7109375,13.671875,17.08984375,11.23046875
1771542270.9186563,43.45703125,43.45703125,19.53125,20.99609375,-72.75390625
1771542270.9225626,36.62109375,26.85546875,17.578125,22.94921875,-8.30078125
1771542270.9264688,2.44140625,32.71484375,15.625,24.90234375,44.921875
1771542270.930375,-8.30078125,35.64453125,16.11328125,22.94921875,30.76171875
1771542270.9342813,30.2734375,36.62109375,13.18359375,15.625,-4.39453125
1771542270.9381876,54.6875,35.64453125,17.578125,21.97265625,-17.08984375
1771542270.9420938,37.59765625,40.0390625,27.34375,33.69140625,33.203125
1771542270.959125,18.06640625,48.33984375,28.3203125,36.1328125,34.1796875
1771542270.9630313,33.203125,43.45703125,22.94921875,29.78515625,1.46484375
1771542270.9669375,58.10546875,36.62109375,19.04296875,32.2265625,-26.3671875
1771542270.9708438,31.25,37.59765625,18.5546875,37.109375,-2.44140625
1771542270.97475,10.25390625,35.64453125,17.578125,29.78515625,59.08203125
1771542270.9786563,30.2734375,35.15625,17.08984375,23.92578125,142.578125
1771542270.9825625,57.12890625,36.62109375,22.4609375,26.3671875,97.16796875
1771542270.9864688,58.59375,30.2734375,22.4609375,25.87890625,37.59765625
1771542270.990375,23.92578125,36.62109375,23.92578125,36.62109375,67.3828125
1771542270.9942813,17.578125,41.9921875,23.92578125,41.015625,21.97265625
1771542270.9981875,51.7578125,32.71484375,20.01953125,27.34375,15.625
1771542271.0020938,52.734375,34.1796875,19.53125,22.4609375,77.63671875
1771542271.004125,13.671875,28.3203125,20.5078125,32.71484375,49.8046875
1771542271.0080314,12.6953125,23.92578125,24.4140625,32.71484375,6.34765625
1771542271.0119376,36.1328125,31.73828125,20.5078125,22.94921875,32.2265625
1771542271.0158439,46.38671875,34.1796875,18.06640625,28.3203125,-2.44140625
1771542271.01975,20.5078125,29.78515625,23.92578125,35.15625,-28.3203125
1771542271.0236564,-11.71875,26.85546875,23.4375,35.15625,9.27734375
1771542271.0275626,18.5546875,34.1796875,25.87890625,35.64453125,-15.13671875
1771542271.0314689,56.640625,41.50390625,29.296875,41.015625,15.13671875
1771542271.035375,50.78125,35.15625,26.85546875,46.38671875,45.41015625
1771542271.0392814,18.06640625,27.34375,29.78515625,36.62109375,55.6640625
1771542271.0431876,14.16015625,33.69140625,28.80859375,26.3671875,73.73046875
1771542271.0470939,40.52734375,28.3203125,23.92578125,27.83203125,63.4765625
1771542271.049125,48.33984375,41.50390625,28.3203125,40.0390625,88.8671875
1771542271.0530312,19.53125,45.8984375,34.1796875,41.50390625,64.453125
1771542271.0569375,14.6484375,24.90234375,32.71484375,32.71484375,2.44140625
1771542271.0608437,51.26953125,33.69140625,32.2265625,34.66796875,34.66796875
1771542271.06475,55.17578125,34.66796875,32.71484375,43.45703125,43.45703125
1771542271.0686562,17.578125,35.15625,29.296875,41.50390625,-13.18359375
1771542271.0725625,5.37109375,38.0859375,25.390625,26.85546875,-5.37109375
1771542271.0764687,31.25,36.62109375,23.92578125,32.71484375,39.0625
1771542271.080375,48.828125,31.25,26.3671875,38.57421875,56.640625
1771542271.0842812,28.3203125,27.34375,29.78515625,29.296875,26.85546875
1771542271.0881875,-8.30078125,30.2734375,31.25,28.80859375,23.4375
1771542271.0920937,3.41796875,29.78515625,28.80859375,32.2265625,-1.953125
1771542271.095125,39.55078125,26.85546875,23.92578125,29.296875,-25.87890625
1771542271.0990312,34.66796875,27.83203125,22.94921875,20.01953125,55.17578125
1771542271.1029375,15.625,33.69140625,27.83203125,20.01953125,84.9609375
1771542271.1068437,29.78515625,38.0859375,27.34375,28.80859375,39.0625
1771542271.11075,57.6171875,35.64453125,23.92578125,29.78515625,63.96484375
1771542271.1146562,61.03515625,29.78515625,23.4375,29.296875,38.0859375
1771542271.1185625,13.671875,24.4140625,25.87890625,32.2265625,26.85546875
1771542271.1224687,-5.37109375,27.34375,30.76171875,31.73828125,84.47265625
1771542271.126375,36.1328125,36.1328125,33.203125,32.71484375,73.2421875
1771542271.1302812,53.22265625,32.71484375,25.390625,26.3671875,69.82421875
1771542271.1341875,31.73828125,36.62109375,30.76171875,26.3671875,83.49609375
1771542271.1380937,7.8125,41.50390625,25.87890625,29.78515625,68.84765625
1771542271.139125,21.97265625,33.69140625,10.7421875,23.92578125,69.3359375
1771542271.1430314,62.01171875,9.765625,20.01953125,42.48046875,69.82421875
1771542271.1469376,62.5,20.01953125,27.34375,70.3125,59.08203125
1771542271.1508439,4.39453125,59.08203125,21.484375,25.390625,22.4609375
1771542271.15475,-29.78515625,29.296875,25.390625,-28.80859375,8.7890625
1771542271.1586564,-24.4140625,-0.9765625,38.0859375,-44.921875,51.26953125
1771542271.1625626,-39.0625,31.25,36.1328125,-61.5234375,44.43359375
1771542271.1664689,-91.30859375,43.9453125,32.71484375,-80.56640625,79.1015625
1771542271.170375,-118.1640625,57.12890625,30.2734375,-98.6328125,58.59375
1771542271.1742814,-96.6796875,71.2890625,26.85546875,-114.2578125,20.99609375
1771542271.1781876,-98.14453125,68.359375,25.87890625,-124.0234375,95.703125
1771542271.1820939,-123.53515625,62.01171875,27.83203125,-131.8359375,97.65625
1771542271.184125,-135.7421875,66.40625,30.76171875,-131.34765625,68.84765625
1771542271.1880312,-108.3984375,65.4296875,29.296875,-126.46484375,37.109375
1771542271.1919374,-97.16796875,48.33984375,22.4609375,-130.859375,25.87890625
1771542271.1958437,-107.421875,46.875,22.94921875,-121.58203125,80.56640625
1771542271.19975,-113.76953125,48.828125,26.85546875,-105.95703125,109.86328125
1771542271.2036562,-101.5625,47.36328125,24.4140625,-99.12109375,83.49609375
1771542271.2075624,-57.12890625,42.96875,21.97265625,-77.1484375,65.4296875
1771542271.2114687,-39.0625,38.57421875,22.94921875,-60.546875,48.33984375
1771542271.215375,-72.75390625,36.1328125,22.94921875,-62.5,-4.8828125
1771542271.2192812,-54.19921875,33.203125,23.92578125,-49.31640625,10.7421875
1771542271.2231874,4.39453125,28.80859375,23.92578125,-31.25,41.015625
1771542271.2270937,5.37109375,30.76171875,23.92578125,-21.97265625,71.77734375
1771542271.229125,-20.5078125,34.66796875,24.90234375,-20.01953125,45.41015625
1771542271.2330313,-16.6015625,30.76171875,23.4375,-10.25390625,-23.4375
1771542271.2369375,26.85546875,37.59765625,24.4140625,1.46484375,-0.9765625
1771542271.2408438,36.62109375,38.57421875,23.92578125,15.13671875,17.08984375
1771542271.24475,9.765625,35.15625,28.80859375,22.4609375,18.06640625
1771542271.2486563,11.71875,37.109375,26.3671875,15.625,7.32421875
1771542271.2525625,44.921875,27.34375,17.578125,12.6953125,20.01953125
1771542271.2564688,63.4765625,27.83203125,16.6015625,9.765625,18.06640625
1771542271.260375,40.52734375,35.15625,18.06640625,8.30078125,15.625
1771542271.2642813,9.27734375,37.109375,18.06640625,8.7890625,63.4765625
1771542271.2681875,20.01953125,35.64453125,15.13671875,9.765625,17.578125
1771542271.2720938,48.33984375,32.2265625,21.484375,14.6484375,31.25
1771542271.289125,44.921875,43.45703125,29.78515625,23.4375,98.6328125
1771542271.2930312,26.85546875,47.8515625,27.34375,27.83203125,83.0078125
1771542271.2969375,33.203125,37.59765625,20.01953125,31.73828125,65.91796875
1771542271.3008437,55.6640625,35.64453125,21.97265625,35.15625,25.87890625
1771542271.30475,58.10546875,35.64453125,25.390625,31.73828125,-42.48046875
1771542271.3086562,12.6953125,27.34375,25.390625,38.57421875,-54.19921875
1771542271.3125625,-2.44140625,23.4375,25.87890625,36.62109375,-20.01953125
1771542271.3164687,40.52734375,32.71484375,31.25,30.2734375,28.3203125
1771542271.320375,62.5,41.9921875,29.78515625,36.1328125,38.0859375
1771542271.3242812,33.203125,38.57421875,26.85546875,41.50390625,17.578125
1771542271.3281875,12.20703125,38.57421875,28.3203125,31.25,84.47265625
1771542271.3320937,38.57421875,39.55078125,21.97265625,28.80859375,87.40234375
1771542271.320125,72.75390625,41.9921875,24.90234375,43.9453125,58.59375
1771542271.3240314,54.6875,47.8515625,31.25,39.0625,65.91796875
1771542271.3279376,20.5078125,31.73828125,23.4375,28.80859375,76.66015625
1771542271.3318439,33.69140625,20.5078125,21.97265625,42.48046875,87.40234375
1771542271.33575,61.03515625,22.94921875,26.3671875,46.38671875,75.68359375
1771542271.3396564,27.83203125,28.3203125,29.78515625,22.94921875,22.94921875
1771542271.3435626,-25.87890625,32.2265625,35.64453125,13.18359375,29.78515625
1771542271.3474689,-13.671875,26.85546875,35.64453125,13.671875,91.30859375
1771542271.351375,29.78515625,25.390625,29.296875,2.9296875,27.34375
1771542271.3552814,39.0625,28.3203125,19.04296875,1.953125,-3.90625
1771542271.3591876,0.9765625,29.78515625,23.4375,5.859375,45.8984375
1771542271.3630939,-4.8828125,36.62109375,27.83203125,10.25390625,35.64453125
1771542271.379125,39.55078125,38.57421875,23.92578125,23.92578125,-3.41796875
1771542271.3830314,42.96875,30.76171875,26.3671875,28.80859375,8.30078125
1771542271.3869376,16.11328125,37.109375,29.78515625,27.34375,29.78515625
1771542271.3908439,11.23046875,46.38671875,24.4140625,27.34375,52.734375
1771542271.39475,22.94921875,29.78515625,16.6015625,17.578125,43.9453125
1771542271.3986564,40.52734375,22.94921875,19.53125,21.484375,26.3671875
1771542271.4025626,27.83203125,30.76171875,22.4609375,32.71484375,21.97265625
1771542271.4064689,5.859375,32.2265625,24.90234375,20.5078125,26.85546875
1771542271.410375,24.4140625,30.76171875,30.2734375,16.11328125,89.84375
1771542271.4142814,54.19921875,33.203125,32.71484375,26.85546875,22.4609375
1771542271.4181876,41.015625,50.29296875,33.203125,37.109375,-17.08984375
1771542271.4220939,1.46484375,44.921875,28.80859375,36.62109375,54.6875
1771542271.425125,10.7421875,24.4140625,23.92578125,35.15625,76.66015625
1771542271.4290311,49.31640625,25.87890625,21.97265625,44.921875,83.49609375
1771542271.4329374,48.828125,26.3671875,23.4375,45.41015625,58.10546875
1771542271.4368436,10.25390625,29.296875,25.87890625,39.55078125,38.57421875
1771542271.44075,-1.46484375,30.2734375,25.390625,33.69140625,3.41796875
1771542271.4446561,40.0390625,29.78515625,24.4140625,33.203125,8.7890625
1771542271.4485624,53.7109375,30.76171875,28.3203125,40.0390625,40.0390625
1771542271.4524686,18.06640625,33.69140625,30.76171875,39.0625,34.1796875
1771542271.456375,0.0,37.59765625,21.484375,25.390625,44.921875
1771542271.4602811,22.94921875,24.90234375,20.01953125,15.13671875,37.59765625
1771542271.4641874,47.36328125,19.53125,27.83203125,28.80859375,-28.80859375
1771542271.4680936,35.64453125,27.83203125,32.71484375,39.0625,14.16015625
1771542271.469125,8.7890625,30.2734375,34.66796875,35.64453125,94.23828125
1771542271.4730313,15.13671875,35.64453125,34.66796875,32.2265625,33.203125
1771542271.4769375,54.19921875,41.50390625,34.66796875,36.62109375,-26.3671875
1771542271.4808438,44.921875,34.1796875,33.69140625,39.55078125,16.11328125
1771542271.48475,-6.8359375,33.69140625,31.25,26.3671875,17.08984375
1771542271.4886563,-11.71875,30.76171875,24.90234375,18.5546875,17.578125
1771542271.4925625,25.390625,24.90234375,27.83203125,27.34375,72.265625
1771542271.4964688,43.45703125,34.66796875,28.3203125,32.2265625,76.66015625
1771542271.500375,11.23046875,28.80859375,19.04296875,15.13671875,49.8046875
1771542271.5042813,-4.39453125,36.62109375,24.90234375,8.7890625,38.57421875
1771542271.5081875,29.296875,49.8046875,31.25,22.4609375,72.265625
1771542271.5120938,39.0625,37.109375,31.25,29.78515625,47.8515625
1771542271.514125,6.8359375,27.83203125,30.76171875,28.80859375,25.390625
1771542271.5180314,7.32421875,28.3203125,21.484375,27.34375,55.6640625
1771542271.5219376,42.48046875,31.25,12.20703125,33.69140625,24.4140625
1771542271.5258439,51.26953125,33.69140625,21.484375,29.78515625,-0.48828125
1771542271.52975,24.4140625,30.76171875,35.64453125,16.6015625,12.6953125
1771542271.5336564,-3.41796875,30.76171875,30.76171875,13.671875,4.39453125
1771542271.5375626,17.578125,39.0625,26.3671875,37.109375,0.0
1771542271.5414689,48.828125,30.76171875,26.3671875,45.41015625,23.4375
1771542271.545375,44.43359375,22.94921875,26.3671875,33.203125,5.37109375
1771542271.5492814,20.99609375,25.390625,37.109375,41.9921875,8.7890625
1771542271.5531876,21.484375,36.1328125,37.59765625,47.36328125,-4.39453125
1771542271.5570939,62.5,36.62109375,27.83203125,54.19921875,-33.69140625
1771542271.559125,79.1015625,26.85546875,35.15625,64.453125,-17.08984375
1771542271.5630312,57.12890625,39.55078125,36.62109375,59.08203125,6.8359375
1771542271.5669374,48.828125,28.80859375,32.2265625,70.80078125,59.08203125
1771542271.5708437,59.5703125,15.625,41.9921875,84.47265625,66.40625
1771542271.57475,86.9140625,19.04296875,43.9453125,94.7265625,4.8828125
1771542271.5786562,79.1015625,19.53125,38.0859375,104.00390625,24.90234375
1771542271.5825624,52.24609375,25.390625,36.1328125,89.84375,42.48046875
1771542271.5864687,74.70703125,21.97265625,39.55078125,87.40234375,34.66796875
1771542271.590375,107.421875,31.25,41.50390625,106.4453125,10.7421875
1771542271.5942812,90.8203125,47.8515625,38.57421875,105.46875,-28.80859375
1771542271.5981874,55.6640625,28.80859375,35.15625,87.40234375,52.734375
1771542271.6020937,56.15234375,20.01953125,37.109375,81.54296875,83.49609375
1771542271.605125,85.44921875,21.97265625,38.0859375,85.44921875,20.5078125
1771542271.6090312,104.4921875,21.97265625,41.9921875,89.84375,51.7578125
1771542271.6129375,61.5234375,23.92578125,38.57421875,85.44921875,37.109375
1771542271.6168437,43.9453125,28.3203125,38.57421875,87.40234375,-24.90234375
1771542271.62075,77.63671875,37.59765625,39.0625,85.44921875,34.1796875
1771542271.6246562,85.44921875,34.1796875,28.80859375,75.1953125,20.99609375
1771542271.6285625,55.6640625,27.34375,28.80859375,69.3359375,-10.7421875
1771542271.6324687,32.2265625,26.85546875,33.69140625,67.87109375,-22.94921875
1771542271.636375,62.01171875,33.203125,34.1796875,76.171875,-28.80859375
1771542271.6402812,85.9375,33.203125,34.66796875,86.42578125,50.29296875
1771542271.6441875,69.3359375,39.0625,34.1796875,83.0078125,88.37890625
1771542271.6480937,47.36328125,43.9453125,31.25,73.73046875,43.45703125
1771542271.649125,43.9453125,34.1796875,27.34375,75.68359375,25.390625
1771542271.6530313,76.66015625,42.48046875,29.296875,86.42578125,65.4296875
1771542271.6569376,74.70703125,46.38671875,33.69140625,81.54296875,100.5859375
1771542271.6608438,35.64453125,27.83203125,29.296875,66.40625,92.28515625
1771542271.66475,35.15625,29.296875,28.80859375,67.87109375,39.0625
1771542271.6686563,70.80078125,29.296875,29.296875,76.66015625,31.25
1771542271.6725626,89.35546875,27.34375,26.85546875,76.171875,-4.8828125
1771542271.6764688,55.17578125,33.69140625,24.90234375,67.3828125,-0.48828125
1771542271.680375,44.43359375,39.55078125,29.296875,67.3828125,27.83203125
1771542271.6842813,75.68359375,42.96875,32.2265625,66.40625,28.3203125
1771542271.6881876,75.68359375,34.1796875,29.296875,64.94140625,71.2890625
1771542271.6920938,40.52734375,22.4609375,26.85546875,63.96484375,62.98828125
1771542271.710125,26.3671875,23.4375,26.3671875,52.734375,-1.953125
1771542271.7140312,55.17578125,28.3203125,26.3671875,44.921875,-35.15625
1771542271.7179375,77.63671875,23.92578125,25.390625,46.38671875,44.43359375
1771542271.7218437,65.91796875,39.55078125,26.3671875,49.31640625,63.96484375
1771542271.72575,31.73828125,46.875,32.2265625,52.734375,14.6484375
1771542271.7296562,28.3203125,27.83203125,32.71484375,55.6640625,59.5703125
1771542271.7335625,60.05859375,25.390625,27.83203125,51.7578125,42.96875
1771542271.7374687,56.640625,30.2734375,29.78515625,52.734375,29.78515625
1771542271.741375,14.16015625,28.3203125,34.1796875,53.22265625,0.48828125
1771542271.7452812,-0.9765625,25.87890625,29.78515625,47.36328125,32.71484375
1771542271.7491875,35.64453125,25.390625,27.34375,45.41015625,46.875
1771542271.7530937,52.734375,35.64453125,33.203125,50.29296875,15.625
1771542271.754125,14.6484375,42.96875,38.57421875,54.6875,78.61328125
1771542271.7580314,-5.859375,29.78515625,32.71484375,49.8046875,57.12890625
1771542271.7619376,24.90234375,28.3203125,24.90234375,49.8046875,30.2734375
1771542271.7658439,40.0390625,32.71484375,21.484375,46.38671875,60.546875
1771542271.76975,10.25390625,28.3203125,22.4609375,38.57421875,31.73828125
1771542271.7736564,0.0,38.0859375,24.4140625,43.45703125,-26.85546875
1771542271.7775626,21.484375,32.2265625,24.4140625,46.38671875,-2.9296875
1771542271.7814689,43.9453125,23.4375,23.4375,42.96875,43.45703125
1771542271.785375,39.0625,30.2734375,24.4140625,38.57421875,31.73828125
1771542271.7892814,-2.44140625,24.4140625,28.80859375,29.78515625,-14.6484375
1771542271.7931876,-11.71875,19.04296875,34.1796875,38.57421875,-31.73828125
1771542271.7970939,30.2734375,17.578125,30.2734375,63.4765625,49.8046875
1771542271.799125,33.203125,16.6015625,29.78515625,66.40625,69.82421875
1771542271.8030312,-22.94921875,35.64453125,23.4375,35.15625,54.19921875
1771542271.8069375,-22.94921875,45.8984375,17.08984375,20.5078125,46.38671875
1771542271.8108437,23.92578125,38.0859375,18.06640625,23.4375,41.50390625
1771542271.81475,45.41015625,44.43359375,12.6953125,22.94921875,32.2265625
1771542271.8186562,36.62109375,61.03515625,11.23046875,24.4140625,42.48046875
1771542271.8225625,16.6015625,60.546875,7.32421875,23.4375,29.296875
1771542271.8264687,36.1328125,46.875,0.0,27.83203125,-20.01953125
1771542271.830375,53.7109375,50.78125,-0.48828125,20.01953125,-0.48828125
1771542271.8342812,22.4609375,49.31640625,1.953125,16.6015625,54.19921875
1771542271.8381875,15.625,43.45703125,8.7890625,30.76171875,39.0625
1771542271.8420937,37.109375,39.55078125,9.27734375,25.390625,-39.0625
1771542271.844125,60.546875,43.9453125,9.765625,37.109375,21.97265625
1771542271.8480313,58.10546875,52.734375,17.578125,48.828125,65.4296875
1771542271.8519375,26.3671875,45.41015625,16.6015625,41.9921875,63.96484375
1771542271.8558438,47.8515625,35.64453125,12.20703125,52.734375,51.7578125
1771542271.85975,92.28515625,37.109375,12.20703125,56.640625,32.2265625
1771542271.8636563,83.984375,43.45703125,10.25390625,55.6640625,27.83203125
1771542271.8675625,37.109375,40.52734375,9.27734375,48.33984375,35.64453125
1771542271.8714688,36.62109375,46.875,15.625,42.48046875,27.34375
1771542271.875375,69.3359375,47.8515625,11.23046875,46.38671875,23.4375
1771542271.8792813,67.87109375,41.015625,11.23046875,48.33984375,43.9453125
1771542271.8831875,38.0859375,38.57421875,16.11328125,49.8046875,33.203125
1771542271.8870938,26.3671875,34.1796875,23.92578125,50.29296875,70.80078125
1771542271.889125,43.9453125,31.73828125,24.90234375,51.7578125,45.8984375
1771542271.8930314,64.94140625,30.76171875,11.71875,48.828125,6.34765625
1771542271.8969376,58.59375,37.59765625,14.6484375,46.38671875,57.12890625
1771542271.9008439,30.76171875,37.59765625,20.99609375,46.875,56.640625
1771542271.90475,43.9453125,37.59765625,18.5546875,46.875,41.015625
1771542271.9086564,70.80078125,33.69140625,16.6015625,41.9921875,40.52734375
1771542271.9125626,58.59375,32.71484375,17.08984375,40.0390625,26.85546875
1771542271.9164689,27.34375,30.2734375,20.99609375,32.71484375,36.62109375
1771542271.920375,24.90234375,25.87890625,20.99609375,23.4375,46.38671875
1771542271.9242814,54.6875,28.3203125,20.01953125,30.2734375,30.2734375
1771542271.9281876,66.89453125,31.25,28.3203125,44.921875,52.24609375
1771542271.9320939,36.62109375,35.15625,31.25,41.015625,51.7578125
1771542271.934125,29.78515625,45.41015625,31.73828125,42.48046875,31.73828125
1771542271.9380312,58.10546875,39.55078125,29.296875,43.9453125,35.15625
1771542271.9419374,64.94140625,27.83203125,23.92578125,39.0625,-1.46484375
1771542271.9458437,33.203125,36.1328125,21.484375,40.0390625,-12.6953125
1771542271.94975,6.8359375,33.69140625,23.92578125,32.2265625,70.80078125
1771542271.9536562,28.80859375,31.25,23.92578125,33.69140625,72.75390625
1771542271.9575624,62.98828125,35.15625,24.4140625,39.0625,40.52734375
1771542271.9614687,45.8984375,31.25,24.90234375,35.15625,42.96875
1771542271.965375,9.27734375,36.62109375,21.97265625,29.78515625,50.78125
1771542271.9692812,38.57421875,44.921875,15.625,41.9921875,43.45703125
1771542271.9731874,88.8671875,47.8515625,20.5078125,70.3125,48.828125
1771542271.9770937,64.94140625,37.109375,36.1328125,62.5,77.1484375
1771542271.994125,10.7421875,26.3671875,38.0859375,43.45703125,78.61328125
1771542271.9980311,4.8828125,30.2734375,41.50390625,27.34375,56.640625
1771542272.0019374,37.109375,28.80859375,52.24609375,21.484375,44.43359375
1771542272.0058436,36.62109375,26.3671875,61.03515625,34.1796875,15.13671875
1771542272.00975,-9.765625,25.87890625,43.45703125,23.4375,17.08984375
1771542272.0136561,-25.87890625,21.97265625,41.50390625,8.30078125,1.46484375
1771542272.0175624,-11.23046875,7.8125,62.5,7.32421875,9.765625
1771542272.0214686,10.7421875,9.765625,66.89453125,22.94921875,69.3359375
1771542272.025375,3.41796875,29.296875,70.80078125,38.0859375,38.57421875
1771542272.0292811,-17.578125,18.5546875,62.5,32.2265625,-14.6484375
1771542272.0331874,11.71875,4.8828125,49.8046875,22.4609375,0.9765625
1771542272.0370936,35.64453125,18.5546875,54.19921875,28.3203125,17.08984375
1771542272.024125,25.390625,20.5078125,50.29296875,31.73828125,5.37109375
1771542272.0280313,5.859375,19.04296875,44.921875,30.76171875,62.01171875
1771542272.0319376,11.23046875,14.16015625,48.33984375,34.1796875,87.890625
1771542272.0358438,32.2265625,8.7890625,44.43359375,38.57421875,31.73828125
1771542272.03975,31.73828125,15.13671875,44.43359375,37.109375,34.1796875
1771542272.0436563,9.27734375,18.06640625,43.9453125,36.62109375,46.38671875
1771542272.0475626,2.44140625,20.99609375,35.64453125,37.109375,21.97265625
1771542272.0514688,30.76171875,24.90234375,38.57421875,39.55078125,43.45703125
1771542272.055375,56.640625,28.3203125,45.41015625,40.52734375,50.78125
1771542272.0592813,36.62109375,34.66796875,45.8984375,39.0625,16.11328125
1771542272.0631876,5.37109375,20.99609375,45.41015625,30.76171875,23.92578125
1771542272.0670938,27.34375,17.578125,37.109375,19.53125,55.17578125
1771542272.085125,49.8046875,23.4375,34.1796875,28.3203125,41.015625
1771542272.0890312,35.15625,29.296875,41.015625,35.15625,14.6484375
1771542272.0929375,17.578125,40.52734375,43.45703125,35.64453125,35.15625
1771542272.0968437,26.3671875,34.66796875,42.48046875,40.0390625,43.9453125
1771542272.10075,45.41015625,28.3203125,40.0390625,32.71484375,22.94921875
1771542272.1046562,22.4609375,24.4140625,42.96875,24.90234375,11.71875
1771542272.1085625,-21.484375,27.83203125,50.29296875,21.484375,3.41796875
1771542272.1124687,-11.71875,35.15625,42.48046875,8.30078125,-13.18359375
1771542272.116375,28.3203125,31.73828125,38.0859375,11.71875,-8.7890625
1771542272.1202812,15.13671875,30.2734375,38.57421875,11.23046875,34.66796875
1771542272.1241875,-36.1328125,36.1328125,45.41015625,-0.9765625,34.66796875
1771542272.1280937,-41.9921875,48.33984375,52.734375,-3.41796875,10.25390625
1771542272.129125,-5.37109375,54.19921875,48.828125,-9.27734375,26.3671875
1771542272.1330314,3.41796875,46.38671875,57.6171875,-5.859375,25.87890625
1771542272.1369376,-50.29296875,41.9921875,57.12890625,-15.625,-14.6484375
1771542272.1408439,-75.1953125,45.41015625,53.7109375,-18.5546875,28.3203125
1771542272.14475,-29.296875,41.015625,70.80078125,-3.41796875,36.62109375
1771542272.1486564,4.39453125,44.921875,71.77734375,-6.8359375,11.23046875
1771542272.1525626,-32.2265625,82.51953125,59.08203125,-35.64453125,56.640625
1771542272.1564689,-87.40234375,90.33203125,60.05859375,-61.5234375,12.6953125
1771542272.160375,-64.94140625,75.1953125,57.6171875,-61.03515625,-5.859375
1771542272.1642814,-36.62109375,83.49609375,52.734375,-62.01171875,30.76171875
1771542272.1681876,-64.94140625,93.26171875,58.59375,-71.77734375,24.4140625
1771542272.1720939,-104.00390625,104.98046875,55.6640625,-85.9375,43.45703125
1771542272.174125,-95.703125,101.5625,44.43359375,-86.42578125,49.31640625
1771542272.1780312,-51.7578125,102.05078125,40.0390625,-79.1015625,49.8046875
1771542272.1819375,-33.69140625,107.91015625,38.57421875,-80.56640625,40.0390625
1771542272.1858437,-68.84765625,106.93359375,33.203125,-77.63671875,41.50390625
1771542272.18975,-79.58984375,99.12109375,28.3203125,-77.1484375,48.33984375
1771542272.1936562,-28.80859375,89.84375,28.3203125,-62.5,13.18359375
1771542272.1975625,-8.30078125,92.28515625,25.390625,-52.734375,1.953125
1771542272.2014687,-27.83203125,84.47265625,13.18359375,-37.59765625,11.23046875
1771542272.205375,-34.66796875,75.1953125,11.71875,-29.296875,37.109375
1771542272.2092812,15.13671875,83.0078125,4.8828125,-23.4375,84.9609375
1771542272.2131875,51.7578125,77.63671875,-6.8359375,6.8359375,66.89453125
1771542272.2170937,32.71484375,59.08203125,-0.9765625,15.625,23.4375
1771542272.219125,0.9765625,49.8046875,3.90625,14.6484375,48.828125
1771542272.2230313,23.4375,44.921875,2.9296875,21.97265625,17.08984375
1771542272.2269375,71.77734375,44.921875,4.39453125,27.34375,14.16015625
1771542272.2308438,63.96484375,41.015625,3.90625,38.0859375,38.0859375
1771542272.23475,29.296875,41.9921875,-0.9765625,43.45703125,20.5078125
1771542272.2386563,41.9921875,35.15625,-1.953125,46.875,15.13671875
1771542272.2425625,83.984375,33.203125,0.0,54.6875,53.7109375
1771542272.2464688,93.75,34.1796875,-1.46484375,53.7109375,53.22265625
1771542272.250375,58.10546875,21.97265625,-4.8828125,46.38671875,0.0
1771542272.2542813,44.921875,21.97265625,0.0,52.24609375,35.15625
1771542272.2581875,78.125,25.87890625,6.34765625,60.546875,-9.765625
1771542272.2620938,93.75,21.484375,8.30078125,67.3828125,-16.11328125
1771542272.264125,65.91796875,21.97265625,8.30078125,73.73046875,43.9453125
1771542272.2680314,45.41015625,22.94921875,10.25390625,68.84765625,10.25390625
1771542272.2719376,77.1484375,27.34375,10.25390625,74.21875,7.32421875
1771542272.2758439,96.6796875,27.83203125,6.34765625,73.73046875,14.16015625
1771542272.27975,74.21875,16.11328125,2.44140625,63.4765625,49.31640625
1771542272.2836564,51.7578125,22.94921875,8.30078125,67.3828125,55.17578125
1771542272.2875626,67.3828125,24.90234375,11.71875,73.73046875,2.44140625
1771542272.2914689,100.09765625,7.8125,5.37109375,65.91796875,-5.37109375
1771542272.295375,96.6796875,17.08984375,6.34765625,60.05859375,0.48828125
1771542272.2992814,66.40625,30.2734375,8.30078125,62.98828125,44.921875
1771542272.3031876,60.05859375,26.85546875,3.41796875,64.94140625,86.9140625
1771542272.3070939,90.33203125,15.625,5.859375,67.87109375,63.4765625
1771542272.310125,100.09765625,13.671875,12.20703125,71.77734375,-18.5546875
1771542272.3140314,58.59375,17.578125,10.7421875,72.265625,-29.296875
1771542272.3179376,44.921875,14.16015625,12.6953125,68.84765625,-16.6015625
1771542272.3218439,82.51953125,16.11328125,14.6484375,71.77734375,23.4375
1771542272.32575,94.23828125,19.53125,13.671875,70.80078125,38.0859375
1771542272.3296564,75.68359375,25.390625,19.04296875,67.3828125,86.42578125
1771542272.3335626,56.15234375,26.3671875,20.5078125,67.3828125,131.8359375
1771542272.3374689,71.77734375,12.6953125,16.11328125,62.01171875,97.65625
1771542272.341375,98.6328125,17.578125,16.6015625,63.96484375,31.73828125
1771542272.3452814,83.0078125,20.5078125,17.08984375,71.77734375,-15.13671875
1771542272.3491876,70.3125,19.04296875,17.08984375,72.265625,-20.99609375
1771542272.3530939,76.171875,18.5546875,17.08984375,67.3828125,26.85546875
1771542272.354125,93.26171875,22.94921875,23.92578125,70.80078125,58.10546875
1771542272.3580313,83.49609375,29.78515625,28.80859375,73.2421875,-40.52734375
1771542272.3619375,44.43359375,26.3671875,29.78515625,70.80078125,-21.97265625
1771542272.3658438,36.1328125,20.5078125,27.83203125,68.84765625,45.8984375
1771542272.36975,69.82421875,18.5546875,25.390625,60.546875,37.59765625
1771542272.3736563,92.28515625,25.390625,17.08984375,51.26953125,17.578125
1771542272.3775625,65.91796875,22.94921875,12.6953125,52.734375,14.16015625
1771542272.3814688,42.96875,16.6015625,23.4375,55.17578125,44.43359375
1771542272.385375,58.59375,19.04296875,22.94921875,51.26953125,51.26953125
1771542272.3892813,83.984375,37.109375,21.484375,54.6875,54.19921875
1771542272.3931875,67.87109375,41.9921875,21.484375,58.59375,60.05859375
1771542272.3970938,29.78515625,16.6015625,15.13671875,47.36328125,54.6875
1771542272.400125,33.203125,19.04296875,19.04296875,48.828125,8.30078125
1771542272.4040313,61.03515625,19.53125,20.99609375,53.22265625,14.6484375
1771542272.4079375,54.6875,14.16015625,17.578125,42.48046875,81.54296875
1771542272.4118438,20.5078125,23.4375,16.6015625,38.0859375,33.203125
1771542272.41575,25.87890625,24.4140625,20.01953125,42.48046875,12.20703125
1771542272.4196563,63.4765625,17.578125,21.97265625,42.96875,63.4765625
1771542272.4235625,68.359375,23.4375,20.5078125,29.78515625,59.08203125
1771542272.4274688,18.5546875,30.2734375,21.97265625,31.25,32.71484375
1771542272.431375,4.8828125,25.390625,26.3671875,49.8046875,60.05859375
1771542272.4352813,52.24609375,19.53125,22.94921875,43.45703125,18.06640625
1771542272.4391875,79.1015625,25.390625,18.5546875,29.296875,12.6953125
1771542272.4430938,46.38671875,28.80859375,22.4609375,30.2734375,22.94921875
1771542272.445125,9.765625,20.5078125,27.34375,32.71484375,27.34375
1771542272.4490314,41.015625,21.484375,26.3671875,36.62109375,30.76171875
1771542272.4529376,71.77734375,32.2265625,28.3203125,42.96875,21.484375
1771542272.4568439,46.875,34.1796875,39.0625,53.22265625,41.015625
1771542272.46075,16.6015625,24.4140625,34.66796875,48.33984375,57.12890625
1771542272.4646564,28.80859375,18.06640625,29.296875,42.96875,27.83203125
1771542272.4685626,60.05859375,21.484375,27.83203125,46.38671875,46.875
1771542272.4724689,50.78125,28.3203125,18.5546875,36.62109375,83.984375
1771542272.476375,30.76171875,40.52734375,18.5546875,47.36328125,86.9140625
1771542272.4802814,52.24609375,33.69140625,26.3671875,69.82421875,84.47265625
1771542272.4841876,69.3359375,18.06640625,32.71484375,50.78125,68.359375
1771542272.4880939,63.96484375,22.4609375,39.0625,41.9921875,46.875
1771542272.505125,16.6015625,27.34375,45.8984375,29.78515625,84.47265625
1771542272.5090313,-11.71875,28.3203125,42.96875,21.484375,94.7265625
1771542272.5129375,24.90234375,18.5546875,45.8984375,31.73828125,95.703125
1771542272.5168438,35.64453125,14.6484375,52.24609375,22.4609375,104.00390625
1771542272.52075,4.39453125,8.7890625,55.17578125,32.2265625,38.57421875
1771542272.5246563,-19.04296875,5.37109375,55.17578125,39.55078125,56.15234375
1771542272.5285625,15.625,8.7890625,49.8046875,30.76171875,72.265625
1771542272.5324688,49.31640625,14.16015625,46.875,36.1328125,89.84375
1771542272.536375,26.3671875,19.53125,43.9453125,39.55078125,56.640625
1771542272.5402813,-10.25390625,20.01953125,51.26953125,34.1796875,3.90625
1771542272.5441875,-2.9296875,16.6015625,51.26953125,35.15625,2.44140625
1771542272.5480938,48.33984375,18.06640625,47.36328125,41.50390625,33.69140625
1771542272.549125,54.6875,25.390625,47.8515625,49.31640625,84.47265625
1771542272.5530312,15.13671875,11.23046875,41.9921875,38.0859375,43.9453125
1771542272.5569375,8.30078125,4.39453125,42.48046875,36.1328125,55.17578125
1771542272.5608437,39.0625,9.765625,42.48046875,51.7578125,59.08203125
1771542272.56475,48.828125,13.18359375,37.59765625,48.33984375,24.90234375
1771542272.5686562,18.06640625,20.01953125,36.62109375,40.0390625,4.8828125
1771542272.5725625,12.6953125,25.87890625,44.43359375,39.0625,11.71875
1771542272.5764687,39.55078125,22.94921875,38.57421875,37.109375,25.87890625
1771542272.580375,58.59375,16.11328125,33.203125,42.48046875,35.15625
1771542272.5842812,38.57421875,21.97265625,41.9921875,44.43359375,62.5
1771542272.5881875,20.01953125,24.4140625,41.015625,41.015625,24.90234375
1771542272.5920937,43.9453125,20.01953125,39.0625,46.38671875,15.625
1771542272.594125,84.9609375,21.97265625,39.0625,48.33984375,52.734375
1771542272.5980313,66.40625,23.4375,34.1796875,48.33984375,18.06640625
1771542272.6019375,14.6484375,28.80859375,34.66796875,49.31640625,-7.8125
1771542272.6058438,25.87890625,32.2265625,34.1796875,42.48046875,-12.20703125
1771542272.60975,62.98828125,31.73828125,33.203125,43.9453125,12.20703125
1771542272.6136563,61.5234375,26.3671875,34.1796875,49.31640625,60.05859375
1771542272.6175625,26.85546875,21.484375,30.76171875,40.52734375,23.92578125
1771542272.6214688,30.76171875,30.76171875,30.2734375,44.43359375,4.8828125
1771542272.625375,53.7109375,25.87890625,35.15625,54.19921875,8.30078125
1771542272.6292813,53.22265625,24.4140625,35.64453125,47.36328125,36.1328125
1771542272.6331875,31.73828125,31.25,37.59765625,45.8984375,46.875
1771542272.6370938,20.01953125,37.59765625,39.0625,51.26953125,61.5234375
1771542272.640125,47.8515625,37.59765625,37.109375,51.26953125,51.26953125
1771542272.6440313,65.4296875,31.25,38.57421875,47.8515625,41.015625
1771542272.6479375,37.109375,30.76171875,39.0625,49.8046875,30.2734375
1771542272.6518438,16.11328125,28.3203125,34.66796875,38.0859375,60.05859375
1771542272.65575,38.57421875,28.80859375,30.76171875,32.2265625,62.98828125
1771542272.6596563,57.12890625,29.78515625,29.78515625,42.96875,45.41015625
1771542272.6635625,41.50390625,31.25,28.80859375,43.45703125,24.90234375
1771542272.6674688,19.53125,29.78515625,25.87890625,37.109375,1.953125
1771542272.671375,22.4609375,33.203125,25.87890625,38.0859375,0.48828125
1771542272.6752813,47.36328125,38.0859375,30.76171875,34.1796875,3.41796875
1771542272.6791875,63.4765625,35.15625,34.1796875,36.1328125,-1.46484375
1771542272.6830938,32.2265625,29.296875,35.15625,34.66796875,0.9765625
1771542272.684125,18.06640625,27.83203125,34.1796875,25.390625,35.15625
1771542272.6880312,60.05859375,31.73828125,27.34375,28.3203125,81.0546875
1771542272.6919374,65.4296875,35.15625,21.97265625,36.1328125,33.69140625
1771542272.6958437,22.94921875,33.203125,28.3203125,38.57421875,-26.3671875
1771542272.69975,10.25390625,40.52734375,33.203125,40.52734375,39.0625
1771542272.7036562,33.69140625,37.59765625,36.1328125,44.921875,90.8203125
1771542272.7075624,56.15234375,25.87890625,28.80859375,37.59765625,99.12109375
1771542272.7114687,27.83203125,24.4140625,20.99609375,27.83203125,54.19921875
1771542272.715375,-13.671875,27.34375,29.78515625,24.4140625,30.2734375
1771542272.7192812,11.23046875,30.2734375,34.66796875,23.92578125,46.875
1771542272.7231874,54.19921875,32.2265625,36.62109375,28.3203125,50.78125
1771542272.7270937,58.59375,24.4140625,37.109375,42.48046875,53.7109375
1771542272.730125,38.57421875,24.4140625,33.203125,45.41015625,58.10546875
1771542272.7340312,19.04296875,43.9453125,24.4140625,26.85546875,19.04296875
1771542272.7379375,23.4375,51.26953125,16.6015625,4.39453125,-0.9765625
1771542272.7418437,34.1796875,37.59765625,15.13671875,5.859375,21.484375
1771542272.74575,7.32421875,33.203125,16.6015625,19.53125,27.34375
1771542272.7496562,-6.34765625,33.203125,15.625,19.04296875,25.390625
1771542272.7535625,37.59765625,30.76171875,14.6484375,20.99609375,-33.69140625
1771542272.7574687,59.5703125,34.66796875,15.625,29.296875,-13.671875
1771542272.761375,20.01953125,35.15625,18.5546875,29.296875,13.671875
1771542272.7652812,3.90625,36.62109375,22.94921875,25.87890625,23.92578125
1771542272.7691875,43.45703125,37.109375,24.4140625,33.69140625,52.24609375
1771542272.7730937,67.3828125,31.25,18.06640625,39.55078125,63.4765625
1771542272.775125,49.31640625,41.50390625,20.99609375,43.9453125,15.625
1771542272.7790313,20.99609375,54.19921875,25.390625,34.66796875,26.85546875
1771542272.7829375,26.85546875,30.76171875,16.11328125,25.87890625,65.4296875
1771542272.7868438,56.640625,22.4609375,16.11328125,33.203125,60.546875
1771542272.79075,48.33984375,31.25,20.5078125,33.203125,35.64453125
1771542272.7946563,10.7421875,24.4140625,20.99609375,31.25,12.20703125
1771542272.7985625,15.625,23.92578125,22.94921875,26.3671875,34.1796875
1771542272.8024688,49.31640625,31.25,23.92578125,26.85546875,43.45703125
1771542272.806375,53.22265625,41.50390625,23.92578125,33.69140625,43.45703125
1771542272.8102813,12.6953125,35.15625,23.92578125,32.71484375,9.765625
1771542272.8141875,-6.34765625,25.390625,20.01953125,27.83203125,12.20703125
1771542272.8180938,39.55078125,34.66796875,16.6015625,25.87890625,56.15234375
1771542272.834125,63.4765625,34.66796875,20.5078125,27.83203125,71.77734375
1771542272.8380313,23.4375,31.25,31.25,31.25,72.75390625
