timestamps,TP9,AF7,AF8,TP10,Right AUX
1771539453.211125,24.90234375,53.22265625,3.90625,45.8984375,0.9765625
1771539453.2150311,31.25,63.4765625,0.9765625,45.41015625,22.4609375
1771539453.2189374,33.69140625,66.89453125,0.9765625,56.15234375,31.25
1771539453.2228436,30.76171875,48.33984375,-0.9765625,60.05859375,83.984375
1771539453.22675,41.50390625,45.8984375,-3.41796875,54.6875,96.19140625
1771539453.2306561,39.55078125,38.57421875,-0.48828125,40.0390625,45.8984375
1771539453.2345624,43.45703125,41.015625,3.90625,51.26953125,29.78515625
1771539453.2384686,51.26953125,16.11328125,5.37109375,56.640625,-6.8359375
1771539453.242375,43.45703125,30.76171875,3.90625,49.31640625,4.8828125
1771539453.2462811,33.203125,77.63671875,7.8125,43.45703125,49.31640625
1771539453.2501874,27.34375,52.24609375,7.8125,41.015625,16.6015625
1771539453.2540936,27.34375,47.8515625,9.765625,45.8984375,-29.296875
1771539453.252125,29.78515625,67.3828125,9.27734375,48.33984375,38.0859375
1771539453.2560313,21.97265625,54.19921875,7.8125,45.8984375,58.10546875
1771539453.2599375,13.671875,37.59765625,10.25390625,38.57421875,15.625
1771539453.2638438,21.97265625,38.0859375,9.27734375,39.0625,21.97265625
1771539453.26775,20.01953125,40.52734375,11.23046875,45.41015625,2.44140625
1771539453.2716563,7.8125,38.57421875,11.23046875,33.69140625,-13.18359375
1771539453.2755625,13.671875,38.0859375,8.30078125,22.4609375,2.9296875
1771539453.2794688,14.16015625,20.01953125,11.23046875,29.78515625,12.20703125
1771539453.283375,12.6953125,53.7109375,15.625,35.15625,36.1328125
1771539453.2872813,10.25390625,71.2890625,10.7421875,44.921875,49.8046875
1771539453.2911875,-4.8828125,20.99609375,7.32421875,26.3671875,44.921875
1771539453.2950938,-6.34765625,14.16015625,13.18359375,22.4609375,22.4609375
1771539453.297125,-2.9296875,28.3203125,12.6953125,34.66796875,7.8125
1771539453.3010314,10.7421875,23.4375,12.20703125,29.78515625,7.32421875
1771539453.3049376,2.44140625,21.484375,14.16015625,26.85546875,9.27734375
1771539453.3088439,-10.25390625,38.0859375,9.765625,21.97265625,39.55078125
1771539453.31275,-1.46484375,31.73828125,7.32421875,21.97265625,17.08984375
1771539453.3166564,-5.859375,19.53125,7.32421875,19.04296875,21.97265625
1771539453.3205626,-9.27734375,2.9296875,7.8125,3.90625,19.53125
1771539453.3244689,-10.7421875,21.97265625,8.30078125,-4.39453125,39.55078125
1771539453.328375,-15.13671875,60.05859375,9.27734375,7.32421875,58.59375
1771539453.3322814,-5.37109375,21.484375,9.27734375,12.6953125,-34.1796875
1771539453.3361876,0.48828125,8.30078125,8.30078125,19.53125,-28.3203125
1771539453.3400939,-10.25390625,26.85546875,6.8359375,14.16015625,9.765625
1771539453.342125,-7.8125,27.34375,8.30078125,11.23046875,-19.53125
1771539453.3460312,-3.90625,4.8828125,8.30078125,15.625,7.8125
1771539453.3499374,-12.20703125,-9.27734375,5.859375,12.20703125,31.73828125
1771539453.3538437,-13.671875,5.859375,4.8828125,-2.9296875,28.80859375
1771539453.35775,-0.48828125,14.6484375,5.37109375,-3.90625,4.8828125
1771539453.3616562,8.7890625,-1.46484375,8.7890625,23.4375,46.38671875
1771539453.3655624,-3.41796875,-14.6484375,9.27734375,17.578125,66.40625
1771539453.3694687,-16.11328125,21.484375,5.859375,-11.71875,41.9921875
1771539453.373375,-20.99609375,27.83203125,5.37109375,1.953125,47.36328125
1771539453.3772812,-20.01953125,-4.8828125,4.39453125,13.671875,13.671875
1771539453.3811874,-8.7890625,9.27734375,-0.48828125,-4.8828125,41.9921875
1771539453.3850937,-20.5078125,36.1328125,1.46484375,-6.34765625,76.171875
1771539453.402125,-17.578125,15.625,2.44140625,-6.8359375,62.01171875
1771539453.4060311,-8.7890625,-2.44140625,1.953125,-2.9296875,74.70703125
1771539453.4099374,-24.4140625,-11.71875,5.859375,-2.9296875,38.57421875
1771539453.4138436,-36.1328125,-5.37109375,7.32421875,2.44140625,-11.71875
1771539453.41775,-31.73828125,-4.39453125,2.44140625,7.32421875,-2.9296875
1771539453.4216561,-20.5078125,-14.6484375,0.9765625,2.9296875,21.484375
1771539453.4255624,-19.53125,-3.41796875,2.9296875,3.90625,13.671875
1771539453.4294686,-15.625,9.765625,-1.953125,-4.39453125,-34.66796875
1771539453.433375,-21.97265625,-10.25390625,0.48828125,-2.9296875,15.625
1771539453.4372811,-25.390625,-16.11328125,9.765625,12.6953125,94.23828125
1771539453.4411874,-13.671875,-17.08984375,3.41796875,10.7421875,52.734375
1771539453.4450936,-20.99609375,-17.08984375,0.9765625,26.3671875,49.31640625
1771539453.447125,-34.1796875,-17.08984375,8.30078125,11.71875,6.8359375
1771539453.4510312,-25.390625,-46.875,5.859375,-17.578125,-28.80859375
1771539453.4549375,-14.6484375,-14.16015625,2.9296875,-5.859375,53.7109375
1771539453.4588437,-13.671875,0.0,4.8828125,-2.9296875,64.453125
1771539453.46275,-21.484375,-38.0859375,3.41796875,-1.46484375,96.19140625
1771539453.4666562,-25.390625,-42.96875,2.44140625,-2.44140625,125.9765625
1771539453.4705625,-22.4609375,-24.4140625,3.90625,-0.9765625,33.203125
1771539453.4744687,-14.6484375,2.9296875,-1.953125,0.9765625,15.625
1771539453.478375,-15.13671875,-20.01953125,0.9765625,1.46484375,43.45703125
1771539453.4822812,-28.3203125,-28.80859375,2.9296875,-8.7890625,65.91796875
1771539453.4861875,-14.16015625,18.06640625,1.46484375,-9.765625,41.015625
1771539453.4900937,-9.27734375,14.6484375,1.953125,5.37109375,5.859375
1771539453.492125,-12.6953125,-4.39453125,1.46484375,9.765625,67.3828125
1771539453.4960313,-2.9296875,-11.71875,6.8359375,7.8125,58.10546875
1771539453.4999375,8.30078125,5.859375,3.90625,10.7421875,12.20703125
1771539453.5038438,-7.8125,9.27734375,4.8828125,21.484375,30.2734375
1771539453.50775,-18.06640625,-15.625,7.8125,25.390625,22.94921875
1771539453.5116563,-7.8125,-9.765625,5.37109375,6.34765625,3.41796875
1771539453.5155625,-15.13671875,17.578125,4.8828125,-1.46484375,12.20703125
1771539453.5194688,-21.97265625,28.80859375,1.46484375,10.25390625,14.6484375
1771539453.523375,-9.765625,0.0,3.41796875,13.671875,-37.59765625
1771539453.5272813,-7.32421875,11.23046875,6.8359375,10.25390625,-2.9296875
1771539453.5311875,-22.94921875,42.96875,4.8828125,11.23046875,24.90234375
1771539453.5350938,-12.6953125,20.5078125,2.9296875,17.08984375,18.5546875
1771539453.537125,1.46484375,15.13671875,0.48828125,17.08984375,41.015625
1771539453.5410314,-4.39453125,19.04296875,3.90625,24.4140625,60.05859375
1771539453.5449376,-8.30078125,25.87890625,4.8828125,13.18359375,82.51953125
1771539453.5488439,8.7890625,21.484375,0.48828125,18.5546875,75.1953125
1771539453.55275,10.25390625,21.97265625,-0.48828125,16.11328125,67.3828125
1771539453.5566564,-6.8359375,28.3203125,0.48828125,-7.8125,54.6875
1771539453.5605626,-8.30078125,39.0625,-1.46484375,-4.39453125,-2.9296875
1771539453.5644689,-3.90625,27.34375,-4.39453125,14.16015625,-11.71875
1771539453.568375,-0.9765625,2.9296875,-1.953125,15.13671875,32.71484375
1771539453.5722814,4.39453125,47.36328125,1.953125,18.5546875,47.8515625
1771539453.5761876,10.7421875,37.109375,4.39453125,16.6015625,52.734375
1771539453.5800939,2.9296875,8.7890625,2.44140625,8.7890625,24.4140625
1771539453.582125,-0.48828125,17.578125,0.48828125,15.13671875,25.390625
1771539453.5860312,-2.44140625,10.7421875,0.9765625,12.20703125,-22.94921875
1771539453.5899374,-11.23046875,17.578125,-1.953125,11.23046875,-28.80859375
1771539453.5938437,-1.46484375,32.2265625,-1.46484375,16.6015625,61.03515625
1771539453.59775,-1.46484375,31.25,-1.953125,17.08984375,41.9921875
1771539453.6016562,-2.9296875,14.6484375,-2.44140625,15.625,29.78515625
1771539453.6055624,-6.34765625,20.99609375,0.48828125,22.94921875,15.625
1771539453.6094687,0.0,-7.8125,-1.953125,24.90234375,-6.34765625
1771539453.613375,11.71875,3.41796875,-3.41796875,19.53125,11.71875
1771539453.6172812,6.34765625,66.40625,-0.9765625,19.04296875,31.25
1771539453.6211874,7.32421875,52.734375,-1.953125,28.3203125,37.59765625
1771539453.6250937,-1.953125,44.921875,2.9296875,22.94921875,36.1328125
1771539453.627125,-7.8125,61.5234375,5.859375,10.7421875,14.16015625
1771539453.6310313,-5.859375,69.82421875,3.90625,16.11328125,31.73828125
1771539453.6349375,5.859375,53.22265625,1.46484375,29.296875,52.24609375
1771539453.6388438,-0.48828125,52.734375,1.953125,32.2265625,29.78515625
1771539453.64275,-11.71875,67.3828125,0.0,20.99609375,28.3203125
1771539453.6466563,5.37109375,59.5703125,-2.9296875,30.76171875,41.9921875
1771539453.6505625,8.30078125,41.9921875,0.9765625,29.296875,59.08203125
1771539453.6544688,-4.39453125,19.53125,2.44140625,8.7890625,39.0625
1771539453.658375,-8.7890625,55.6640625,-1.953125,10.7421875,8.30078125
1771539453.6622813,4.8828125,77.1484375,1.46484375,20.5078125,32.71484375
1771539453.6661875,0.0,26.3671875,3.90625,11.23046875,29.296875
1771539453.6700938,0.48828125,23.4375,-0.9765625,19.04296875,-10.25390625
1771539453.672125,0.0,62.01171875,0.0,20.99609375,16.6015625
1771539453.6760314,0.9765625,52.24609375,2.44140625,16.11328125,34.66796875
1771539453.6799376,-1.46484375,41.9921875,2.44140625,30.76171875,31.73828125
1771539453.6838439,-9.27734375,44.43359375,5.37109375,39.0625,24.4140625
1771539453.68775,-8.7890625,41.015625,7.32421875,25.390625,5.859375
1771539453.6916564,0.9765625,35.15625,4.8828125,17.08984375,58.59375
1771539453.6955626,25.390625,22.4609375,5.37109375,27.34375,38.0859375
1771539453.6994689,4.8828125,42.96875,2.9296875,24.90234375,10.7421875
1771539453.703375,-10.25390625,64.94140625,0.0,23.4375,12.20703125
1771539453.7072814,-2.44140625,45.8984375,2.44140625,18.5546875,6.8359375
1771539453.7111876,7.32421875,42.48046875,2.9296875,10.7421875,48.33984375
1771539453.7150939,13.671875,50.78125,2.44140625,20.99609375,74.70703125
1771539453.717125,2.44140625,55.17578125,4.39453125,34.1796875,55.17578125
1771539453.7210312,-8.7890625,41.50390625,0.0,21.484375,57.6171875
1771539453.7249374,-11.23046875,30.76171875,-2.9296875,8.7890625,44.921875
1771539453.7288437,-13.671875,41.9921875,-0.48828125,13.671875,69.3359375
1771539453.73275,-15.13671875,30.76171875,-1.46484375,25.390625,47.8515625
1771539453.7366562,-12.6953125,3.90625,-0.48828125,10.25390625,37.59765625
1771539453.7405624,-10.7421875,-3.90625,0.9765625,1.953125,61.03515625
1771539453.7444687,4.39453125,26.3671875,1.953125,12.6953125,24.90234375
1771539453.748375,0.9765625,47.36328125,-1.953125,11.23046875,48.828125
1771539453.7522812,-1.953125,16.11328125,-4.8828125,6.8359375,51.7578125
1771539453.7561874,-12.20703125,22.4609375,-4.8828125,7.8125,19.04296875
1771539453.7600937,-25.390625,35.15625,-2.44140625,19.04296875,47.8515625
1771539453.763125,-5.859375,8.30078125,-0.48828125,23.4375,25.87890625
1771539453.7670312,-3.41796875,-30.76171875,-2.9296875,1.46484375,51.7578125
1771539453.7709374,-20.5078125,-39.55078125,-1.953125,-6.8359375,41.50390625
1771539453.7748437,-28.80859375,-7.8125,-4.39453125,3.90625,30.76171875
1771539453.77875,-10.25390625,-4.39453125,-6.8359375,7.32421875,57.6171875
1771539453.7826562,6.34765625,-37.109375,-6.8359375,5.37109375,37.109375
1771539453.7865624,-5.37109375,-13.18359375,-8.30078125,6.8359375,0.0
1771539453.7904687,-15.13671875,34.66796875,-6.8359375,15.625,-9.765625
1771539453.794375,-15.13671875,23.4375,-7.8125,13.18359375,22.94921875
1771539453.7982812,-8.7890625,18.06640625,-11.71875,9.765625,22.4609375
1771539453.8021874,-7.32421875,42.96875,-11.23046875,5.859375,25.87890625
1771539453.8060937,0.48828125,54.6875,-11.71875,3.90625,41.015625
1771539453.822125,2.44140625,30.2734375,-12.20703125,0.0,10.7421875
1771539453.8260312,-6.8359375,30.76171875,-9.27734375,4.39453125,32.2265625
1771539453.8299375,-13.671875,51.7578125,-14.6484375,4.8828125,58.59375
1771539453.8338437,-14.6484375,65.4296875,-17.08984375,-5.859375,64.94140625
1771539453.83775,-6.8359375,63.96484375,-10.25390625,-1.953125,59.5703125
1771539453.8416562,9.27734375,30.76171875,-9.765625,5.859375,33.69140625
1771539453.8455625,-3.90625,69.3359375,-11.23046875,2.9296875,39.0625
1771539453.8494687,-19.53125,95.703125,-10.7421875,8.30078125,86.9140625
1771539453.853375,-6.8359375,50.78125,-9.765625,23.92578125,85.44921875
1771539453.8572812,-3.90625,50.29296875,-10.7421875,21.97265625,24.4140625
1771539453.8611875,-1.953125,77.1484375,-11.23046875,10.7421875,-0.9765625
1771539453.8650937,0.9765625,64.94140625,-10.7421875,3.90625,17.578125
1771539453.867125,6.8359375,61.03515625,-11.23046875,8.7890625,43.9453125
1771539453.8710313,0.0,64.453125,-9.27734375,8.30078125,45.41015625
1771539453.8749375,-1.953125,61.5234375,-11.71875,5.37109375,64.94140625
1771539453.8788438,2.44140625,53.22265625,-11.71875,9.765625,48.33984375
1771539453.88275,14.16015625,49.31640625,-2.44140625,26.3671875,42.48046875
1771539453.8866563,25.390625,50.29296875,-4.39453125,43.45703125,15.625
1771539453.8905625,14.6484375,52.24609375,-18.5546875,20.99609375,-20.99609375
1771539453.8944688,-0.9765625,57.12890625,-14.16015625,10.7421875,-26.3671875
1771539453.898375,-1.46484375,24.4140625,-10.7421875,14.16015625,19.53125
1771539453.9022813,5.37109375,27.34375,-12.20703125,8.7890625,47.8515625
1771539453.9061875,2.9296875,69.82421875,-6.34765625,20.01953125,73.73046875
1771539453.9100938,6.8359375,35.15625,-5.37109375,20.01953125,42.96875
1771539453.912125,-0.48828125,25.87890625,-5.37109375,11.71875,57.12890625
1771539453.9160314,4.8828125,40.0390625,-8.7890625,22.94921875,98.14453125
1771539453.9199376,4.39453125,24.4140625,-9.27734375,29.78515625,45.8984375
1771539453.9238439,-2.44140625,2.44140625,-4.8828125,23.4375,3.90625
1771539453.92775,-1.953125,-2.44140625,-4.39453125,18.5546875,7.32421875
1771539453.9316564,5.37109375,10.25390625,-9.27734375,14.16015625,45.41015625
1771539453.9355626,20.5078125,14.16015625,-11.71875,23.92578125,48.828125
1771539453.9394689,5.37109375,1.953125,-9.765625,41.9921875,63.96484375
1771539453.943375,8.7890625,-26.3671875,-10.7421875,28.80859375,67.3828125
1771539453.9472814,10.25390625,20.01953125,-9.765625,4.8828125,62.98828125
1771539453.9511876,-9.765625,44.43359375,-8.30078125,11.23046875,11.23046875
1771539453.9550939,-1.953125,14.16015625,-9.765625,34.1796875,6.8359375
1771539453.958125,6.8359375,10.7421875,-10.25390625,32.2265625,15.625
1771539453.9620314,10.25390625,19.53125,-12.6953125,13.18359375,-37.109375
1771539453.9659376,-1.953125,27.83203125,-11.23046875,15.13671875,23.92578125
1771539453.9698439,-8.7890625,24.90234375,-8.30078125,25.390625,113.28125
1771539453.97375,-2.44140625,18.5546875,-9.765625,24.4140625,51.26953125
1771539453.9776564,-4.8828125,5.859375,-8.7890625,19.04296875,-7.8125
1771539453.9815626,-1.46484375,15.13671875,-9.27734375,27.83203125,-0.48828125
1771539453.9854689,7.32421875,-2.44140625,-8.30078125,40.0390625,-20.01953125
1771539453.989375,12.20703125,18.5546875,-9.27734375,32.71484375,-15.625
1771539453.9932814,2.9296875,47.36328125,-9.765625,16.11328125,15.13671875
1771539453.9971876,6.8359375,10.7421875,-7.32421875,25.87890625,25.87890625
1771539454.0010939,13.18359375,17.08984375,-8.30078125,30.2734375,13.671875
1771539454.002125,11.23046875,33.69140625,-7.32421875,17.08984375,-5.37109375
1771539454.0060313,6.8359375,38.0859375,-7.8125,15.13671875,56.640625
1771539454.0099375,-19.04296875,15.625,-13.18359375,13.671875,93.26171875
1771539454.0138438,-8.30078125,-0.9765625,-10.7421875,20.99609375,59.5703125
1771539454.01775,11.71875,9.765625,-8.30078125,20.01953125,44.921875
1771539454.0216563,7.32421875,3.41796875,-11.23046875,12.6953125,95.703125
1771539454.0255625,-4.39453125,-8.7890625,-7.8125,16.11328125,74.70703125
1771539454.0294688,-1.46484375,-0.48828125,-8.30078125,17.08984375,22.4609375
1771539454.033375,0.9765625,48.828125,-15.13671875,12.20703125,33.203125
1771539454.0372813,-18.5546875,42.48046875,-14.16015625,9.27734375,-7.8125
1771539454.0411875,-24.90234375,13.671875,-11.71875,2.9296875,-0.9765625
1771539454.0450938,-9.27734375,21.97265625,-13.18359375,1.46484375,2.9296875
1771539454.048125,-7.32421875,28.3203125,-17.08984375,-0.48828125,-23.4375
1771539454.0520313,-10.7421875,31.25,-14.16015625,-2.44140625,15.13671875
1771539454.0559375,-8.30078125,2.9296875,-11.23046875,3.41796875,-5.859375
1771539454.0598438,-13.671875,11.23046875,-8.7890625,9.765625,4.39453125
1771539454.06375,-11.23046875,30.76171875,-10.7421875,3.41796875,91.30859375
1771539454.0676563,-11.71875,1.953125,-11.23046875,5.859375,80.56640625
1771539454.0715625,-16.6015625,-20.5078125,-8.7890625,0.48828125,14.16015625
1771539454.0754688,-10.7421875,2.9296875,-13.671875,-9.27734375,49.8046875
1771539454.079375,-15.625,38.57421875,-10.7421875,8.30078125,59.08203125
1771539454.0832813,-11.71875,9.765625,-5.859375,4.8828125,28.80859375
1771539454.0871875,-11.71875,4.39453125,-6.8359375,-15.13671875,39.0625
1771539454.0910938,-18.06640625,7.32421875,-7.8125,-12.20703125,-3.41796875
1771539454.092125,-10.7421875,13.18359375,-8.7890625,-2.9296875,-28.3203125
1771539454.0960312,-11.71875,0.9765625,-10.25390625,-2.9296875,31.73828125
1771539454.0999374,-8.30078125,-25.390625,-5.859375,4.39453125,20.01953125
1771539454.1038437,-18.5546875,-10.25390625,-3.41796875,1.46484375,-0.48828125
1771539454.10775,-19.53125,-7.8125,-8.30078125,-5.859375,29.296875
1771539454.1116562,-6.8359375,-29.296875,-11.23046875,-5.37109375,58.59375
1771539454.1155624,-0.9765625,-46.38671875,-2.9296875,-3.41796875,64.94140625
1771539454.1194687,-21.484375,-8.7890625,-1.953125,-11.71875,22.94921875
1771539454.123375,-36.62109375,29.296875,-7.8125,-24.4140625,7.32421875
1771539454.1272812,-24.4140625,-4.39453125,0.0,-8.7890625,22.94921875
1771539454.1311874,-22.94921875,-10.25390625,-2.9296875,0.48828125,7.32421875
1771539454.1350937,-29.78515625,-5.859375,-8.30078125,-10.25390625,17.578125
1771539454.152125,-29.78515625,-2.44140625,-3.41796875,-15.625,72.75390625
1771539454.1560311,-19.53125,-11.23046875,-6.34765625,-4.8828125,69.82421875
1771539454.1599374,-14.6484375,-21.97265625,-7.8125,10.25390625,36.1328125
1771539454.1638436,-32.2265625,-11.71875,-5.37109375,1.953125,44.43359375
1771539454.16775,-38.0859375,-10.7421875,-6.8359375,-10.25390625,50.78125
1771539454.1716561,-24.90234375,-38.0859375,-5.859375,-10.25390625,20.5078125
1771539454.1755624,-17.08984375,-19.04296875,-3.90625,-2.9296875,6.34765625
1771539454.1794686,-18.5546875,17.578125,-5.37109375,-1.953125,2.44140625
1771539454.183375,-23.92578125,9.765625,-4.8828125,-1.953125,11.71875
1771539454.1872811,-10.25390625,-24.4140625,-7.8125,-2.44140625,48.828125
1771539454.1911874,-2.9296875,-12.6953125,-9.765625,0.48828125,54.6875
1771539454.1950936,-23.92578125,19.04296875,-8.7890625,-0.48828125,55.17578125
1771539454.197125,-28.80859375,-6.8359375,-12.20703125,-2.9296875,70.3125
1771539454.2010312,-13.671875,-16.6015625,-13.18359375,-5.859375,11.71875
1771539454.2049375,-4.8828125,8.30078125,-13.671875,-17.08984375,0.48828125
1771539454.2088437,-26.3671875,11.23046875,-13.18359375,-13.671875,-11.23046875
1771539454.21275,-26.3671875,-1.953125,-16.6015625,-13.671875,-34.66796875
1771539454.2166562,-35.64453125,7.8125,-19.53125,-11.71875,2.9296875
1771539454.2205625,-35.64453125,23.92578125,-17.08984375,-9.27734375,62.5
1771539454.2244687,-11.23046875,18.06640625,-14.16015625,-12.20703125,50.78125
1771539454.228375,-31.25,8.30078125,-13.18359375,-15.13671875,13.671875
1771539454.2322812,-41.9921875,-15.625,-15.625,-34.66796875,55.17578125
1771539454.2361875,-31.25,25.390625,-14.6484375,-34.1796875,36.1328125
1771539454.2400937,-25.390625,54.19921875,-17.578125,-13.671875,34.66796875
1771539454.249125,-27.83203125,15.625,-17.578125,-8.7890625,74.21875
1771539454.2530313,-31.25,18.06640625,-10.7421875,-17.08984375,41.9921875
1771539454.2569375,-32.2265625,44.43359375,-13.18359375,-12.6953125,52.734375
1771539454.2608438,-39.0625,30.76171875,-14.16015625,-7.8125,53.7109375
1771539454.26475,-39.55078125,12.20703125,-15.13671875,-22.94921875,67.87109375
1771539454.2686563,-34.1796875,14.16015625,-16.6015625,-28.3203125,65.4296875
1771539454.2725625,-30.2734375,24.90234375,-11.71875,-13.671875,72.265625
1771539454.2764688,-32.2265625,19.04296875,-13.18359375,-8.7890625,57.12890625
1771539454.280375,-26.85546875,-28.3203125,-12.20703125,-9.27734375,20.99609375
1771539454.2842813,-23.4375,-23.92578125,-12.6953125,-12.6953125,68.84765625
1771539454.2881875,-26.85546875,13.18359375,-12.6953125,-21.484375,62.98828125
1771539454.2920938,-26.85546875,4.8828125,-8.7890625,-4.8828125,17.578125
1771539454.287125,-32.2265625,-7.8125,-12.6953125,-8.7890625,47.36328125
1771539454.2910314,-18.06640625,6.34765625,-16.11328125,-8.30078125,51.26953125
1771539454.2949376,6.8359375,6.8359375,-12.20703125,21.97265625,49.8046875
1771539454.2988439,-25.390625,-5.859375,-5.37109375,3.90625,40.0390625
1771539454.30275,-40.52734375,-13.18359375,-9.27734375,-19.04296875,-9.765625
1771539454.3066564,-13.671875,-5.859375,-7.8125,6.8359375,30.76171875
1771539454.3105626,-16.6015625,6.34765625,-3.90625,16.11328125,71.77734375
1771539454.3144689,-15.13671875,-21.97265625,-4.8828125,15.625,16.11328125
1771539454.318375,-15.625,-37.59765625,-1.953125,5.859375,14.16015625
1771539454.3222814,-10.25390625,20.01953125,-3.41796875,5.859375,80.56640625
1771539454.3261876,-1.46484375,14.16015625,-4.39453125,12.6953125,89.35546875
1771539454.3300939,16.6015625,-23.4375,1.953125,19.04296875,68.359375
1771539454.333125,17.578125,-21.97265625,3.90625,29.78515625,33.203125
1771539454.3370314,0.0,-1.46484375,2.44140625,39.0625,20.5078125
1771539454.3409376,-4.39453125,1.953125,1.953125,31.73828125,32.71484375
1771539454.3448439,-3.41796875,-15.13671875,-0.48828125,27.34375,27.34375
1771539454.34875,7.8125,1.953125,-3.90625,28.80859375,31.73828125
1771539454.3526564,16.11328125,7.32421875,-7.32421875,34.66796875,-1.953125
1771539454.3565626,17.08984375,5.37109375,-6.34765625,47.36328125,-43.9453125
1771539454.3604689,9.27734375,14.16015625,-5.859375,29.78515625,-9.765625
1771539454.364375,20.5078125,39.0625,-10.7421875,19.53125,27.34375
1771539454.3682814,36.1328125,42.48046875,-10.7421875,28.3203125,3.90625
1771539454.3721876,33.69140625,16.11328125,-10.25390625,34.1796875,1.953125
1771539454.3760939,16.11328125,3.41796875,-11.71875,19.53125,60.05859375
1771539454.378125,11.23046875,16.11328125,-13.671875,16.6015625,11.23046875
1771539454.3820312,22.4609375,25.87890625,-8.7890625,40.0390625,19.04296875
1771539454.3859375,35.64453125,3.41796875,-7.32421875,28.80859375,38.57421875
1771539454.3898437,32.2265625,6.8359375,-9.765625,21.484375,20.5078125
1771539454.39375,19.53125,30.2734375,-7.32421875,37.59765625,37.59765625
1771539454.3976562,25.87890625,25.390625,-7.8125,41.015625,42.48046875
1771539454.4015625,32.71484375,8.30078125,-6.34765625,38.57421875,70.80078125
1771539454.4054687,26.3671875,-9.27734375,-4.8828125,41.9921875,58.10546875
1771539454.409375,26.85546875,27.34375,-5.859375,41.9921875,13.671875
1771539454.4132812,34.1796875,38.57421875,-5.859375,47.8515625,-15.625
1771539454.4171875,36.62109375,17.578125,-4.39453125,53.22265625,31.73828125
1771539454.4210937,33.203125,15.625,-5.859375,48.828125,61.03515625
1771539454.422125,15.625,15.13671875,-5.37109375,36.1328125,7.32421875
1771539454.4260314,5.859375,13.671875,-3.90625,36.62109375,-6.8359375
1771539454.4299376,26.85546875,7.8125,-5.37109375,49.31640625,3.41796875
1771539454.4338439,29.296875,6.8359375,-3.90625,49.31640625,21.97265625
1771539454.43775,16.11328125,14.6484375,-7.32421875,21.484375,62.01171875
1771539454.4416564,13.671875,4.39453125,-8.7890625,22.4609375,63.4765625
1771539454.4455626,22.4609375,-35.64453125,-5.37109375,32.2265625,13.18359375
1771539454.4494689,25.390625,-28.80859375,-3.90625,28.80859375,16.6015625
1771539454.453375,18.06640625,29.296875,-2.9296875,35.15625,50.78125
1771539454.4572814,6.8359375,15.13671875,-6.34765625,28.80859375,52.734375
1771539454.4611876,9.765625,-2.9296875,-9.765625,34.1796875,36.1328125
1771539454.4650939,16.11328125,6.8359375,-6.34765625,29.296875,51.7578125
1771539454.467125,6.34765625,0.48828125,-6.8359375,13.18359375,2.9296875
1771539454.4710312,19.04296875,-3.41796875,-10.25390625,15.625,-33.203125
1771539454.4749374,27.83203125,15.13671875,-10.7421875,22.4609375,37.109375
1771539454.4788437,25.87890625,34.1796875,-9.765625,46.875,68.84765625
1771539454.48275,41.015625,36.62109375,-6.8359375,56.15234375,79.1015625
1771539454.4866562,30.2734375,4.39453125,-5.859375,8.30078125,1.46484375
1771539454.4905624,4.39453125,1.953125,-6.34765625,6.8359375,-23.92578125
1771539454.4944687,8.30078125,41.9921875,-8.30078125,19.53125,16.6015625
1771539454.498375,2.9296875,47.8515625,-5.37109375,12.20703125,-33.203125
1771539454.5022812,-4.8828125,17.578125,0.0,5.859375,8.30078125
1771539454.5061874,-4.39453125,23.92578125,-1.953125,9.27734375,51.26953125
1771539454.5100937,-4.39453125,51.7578125,-5.859375,18.5546875,76.171875
1771539454.528125,-3.90625,17.08984375,-8.7890625,4.39453125,56.15234375
1771539454.5320313,-4.8828125,-8.30078125,-5.37109375,1.953125,-28.3203125
1771539454.5359375,3.90625,14.6484375,3.90625,20.99609375,28.3203125
1771539454.5398438,4.39453125,25.87890625,3.41796875,10.7421875,79.58984375
1771539454.54375,-5.37109375,12.6953125,1.953125,0.48828125,49.31640625
1771539454.5476563,0.9765625,-8.30078125,3.90625,14.16015625,32.2265625
1771539454.5515625,7.8125,14.16015625,5.859375,10.7421875,-6.8359375
1771539454.5554688,-13.18359375,48.828125,2.44140625,2.9296875,5.859375
1771539454.559375,-10.25390625,37.109375,-0.9765625,1.953125,52.24609375
1771539454.5632813,-4.39453125,2.44140625,4.8828125,1.46484375,2.44140625
1771539454.5671875,-5.859375,20.99609375,2.9296875,-1.953125,12.6953125
1771539454.5710938,-9.765625,46.875,-3.90625,-4.39453125,84.47265625
1771539454.572125,-20.01953125,15.625,-2.44140625,6.8359375,30.2734375
1771539454.5760312,-20.5078125,7.32421875,-5.37109375,8.7890625,-0.48828125
1771539454.5799375,-24.90234375,31.25,-7.32421875,-12.6953125,48.828125
1771539454.5838437,-27.34375,24.4140625,-2.44140625,-29.78515625,38.0859375
1771539454.58775,-23.92578125,5.859375,-0.9765625,-23.92578125,47.8515625
1771539454.5916562,-32.71484375,-14.16015625,-1.46484375,-20.5078125,55.17578125
1771539454.5955625,-32.2265625,-2.44140625,3.90625,-23.92578125,5.37109375
1771539454.5994687,-35.15625,25.87890625,7.8125,-35.15625,-5.37109375
1771539454.603375,-47.36328125,12.6953125,14.16015625,-32.2265625,22.94921875
1771539454.6072812,-53.7109375,-9.27734375,15.13671875,-36.62109375,40.52734375
1771539454.6111875,-68.84765625,37.59765625,11.71875,-44.921875,55.6640625
1771539454.6150937,-77.1484375,39.55078125,18.5546875,-30.76171875,58.10546875
1771539454.617125,-95.703125,-12.6953125,21.484375,-69.3359375,30.76171875
1771539454.6210313,-103.02734375,14.6484375,28.3203125,-113.76953125,10.25390625
1771539454.6249375,-109.86328125,48.33984375,32.71484375,-112.79296875,36.62109375
1771539454.6288438,-149.4140625,20.99609375,34.1796875,-129.8828125,56.640625
1771539454.63275,-154.78515625,14.6484375,41.50390625,-144.04296875,54.19921875
1771539454.6366563,-145.99609375,9.27734375,49.8046875,-137.6953125,-5.859375
1771539454.6405625,-162.109375,21.484375,41.9921875,-151.85546875,10.25390625
1771539454.6444688,-196.77734375,37.109375,26.3671875,-188.96484375,54.19921875
1771539454.648375,-233.88671875,5.37109375,32.2265625,-217.28515625,18.06640625
1771539454.6522813,-240.72265625,30.76171875,35.15625,-231.4453125,0.9765625
1771539454.6561875,-242.1875,92.28515625,41.50390625,-234.375,44.921875
1771539454.6600938,-274.90234375,70.80078125,44.43359375,-249.0234375,75.1953125
1771539454.663125,-294.43359375,59.08203125,31.73828125,-287.109375,72.265625
1771539454.6670313,-291.9921875,73.2421875,26.85546875,-304.19921875,34.1796875
1771539454.6709375,-302.24609375,74.70703125,28.80859375,-296.38671875,28.80859375
1771539454.6748438,-307.12890625,69.82421875,32.2265625,-302.24609375,59.5703125
1771539454.67875,-326.66015625,61.03515625,29.78515625,-323.73046875,-21.97265625
1771539454.6826563,-335.9375,82.03125,33.69140625,-311.5234375,37.59765625
1771539454.6865625,-315.4296875,89.84375,34.66796875,-309.08203125,83.49609375
1771539454.6904688,-336.42578125,69.82421875,26.3671875,-343.75,36.62109375
1771539454.694375,-331.0546875,56.640625,32.2265625,-339.35546875,48.33984375
1771539454.6982813,-311.5234375,101.5625,39.55078125,-337.40234375,43.9453125
1771539454.7021875,-322.75390625,104.98046875,34.66796875,-321.2890625,52.734375
1771539454.7060938,-326.66015625,70.3125,29.296875,-312.01171875,16.11328125
1771539454.707125,-315.4296875,76.66015625,20.99609375,-317.87109375,-39.0625
1771539454.7110312,-292.48046875,92.28515625,24.4140625,-294.921875,8.7890625
1771539454.7149374,-281.25,77.63671875,32.2265625,-273.92578125,28.3203125
1771539454.7188437,-271.97265625,66.89453125,28.80859375,-262.20703125,41.50390625
1771539454.72275,-250.0,58.10546875,34.1796875,-248.046875,33.69140625
1771539454.7266562,-222.65625,48.33984375,35.15625,-221.6796875,9.27734375
1771539454.7305624,-211.42578125,72.265625,23.4375,-201.66015625,28.3203125
1771539454.7344687,-184.08203125,44.921875,21.484375,-172.36328125,20.01953125
1771539454.738375,-154.296875,32.2265625,23.92578125,-143.5546875,16.6015625
1771539454.7422812,-151.3671875,82.03125,12.20703125,-132.8125,24.4140625
1771539454.7461874,-110.3515625,62.5,0.9765625,-104.00390625,-27.83203125
1771539454.7500937,-65.91796875,51.7578125,4.8828125,-69.82421875,-3.41796875
1771539454.753125,-42.48046875,62.5,2.9296875,-48.33984375,62.01171875
1771539454.7570312,-36.62109375,47.36328125,-4.8828125,-31.25,14.16015625
1771539454.7609375,-13.18359375,30.76171875,-10.25390625,-11.23046875,33.69140625
1771539454.7648437,42.96875,25.87890625,-17.08984375,33.203125,55.6640625
1771539454.76875,68.84765625,25.390625,-11.71875,83.0078125,10.25390625
1771539454.7726562,93.26171875,26.3671875,-16.6015625,110.3515625,-13.671875
1771539454.7765625,100.09765625,30.2734375,-17.578125,103.515625,41.9921875
1771539454.7804687,104.4921875,0.9765625,-20.01953125,115.72265625,59.08203125
1771539454.784375,138.671875,32.71484375,-27.34375,161.62109375,25.87890625
1771539454.7882812,166.015625,60.05859375,-22.4609375,183.10546875,-4.39453125
1771539454.7921875,174.31640625,31.73828125,-25.87890625,198.2421875,-3.90625
1771539454.7960937,174.8046875,46.875,-30.2734375,219.23828125,51.26953125
1771539454.797125,184.08203125,64.94140625,-31.73828125,208.0078125,67.3828125
1771539454.8010314,185.05859375,59.08203125,-34.66796875,200.1953125,30.76171875
1771539454.8049376,192.87109375,52.734375,-40.0390625,225.09765625,-5.37109375
1771539454.8088439,208.984375,83.0078125,-41.50390625,228.02734375,-9.765625
1771539454.81275,217.7734375,98.14453125,-42.48046875,212.890625,12.6953125
1771539454.8166564,215.33203125,79.58984375,-41.9921875,227.05078125,21.97265625
1771539454.8205626,215.33203125,74.21875,-40.0390625,240.72265625,8.7890625
1771539454.8244689,226.07421875,110.3515625,-38.0859375,229.00390625,-10.25390625
1771539454.828375,225.09765625,164.0625,-39.55078125,221.6796875,35.15625
1771539454.8322814,207.03125,135.25390625,-40.52734375,230.95703125,81.0546875
1771539454.8361876,187.01171875,127.9296875,-41.9921875,218.75,18.06640625
1771539454.8400939,189.453125,174.31640625,-45.8984375,210.9375,-14.6484375
1771539454.844125,192.87109375,200.1953125,-46.38671875,229.00390625,37.109375
1771539454.8480313,192.87109375,204.58984375,-47.36328125,208.0078125,65.4296875
1771539454.8519375,189.94140625,213.37890625,-45.8984375,208.984375,92.28515625
1771539454.8558438,185.546875,239.2578125,-41.9921875,214.84375,83.984375
1771539454.85975,173.33984375,260.25390625,-47.36328125,189.94140625,29.296875
1771539454.8636563,166.50390625,258.30078125,-48.33984375,192.87109375,20.99609375
1771539454.8675625,177.734375,256.8359375,-42.48046875,192.87109375,63.96484375
1771539454.8714688,175.78125,342.7734375,-38.0859375,178.22265625,65.91796875
1771539454.875375,183.59375,385.25390625,-34.66796875,188.96484375,18.5546875
1771539454.8792813,189.94140625,329.1015625,-37.59765625,196.2890625,-12.6953125
1771539454.8831875,133.7890625,344.23828125,-40.52734375,156.25,-9.765625
1771539454.8870938,124.51171875,382.8125,-38.57421875,139.6484375,45.41015625
1771539454.888125,144.53125,402.83203125,-35.15625,150.390625,107.421875
1771539454.8920312,129.8828125,398.92578125,-35.15625,149.90234375,119.62890625
1771539454.8959374,130.859375,412.59765625,-33.69140625,152.34375,77.63671875
1771539454.8998437,126.46484375,447.265625,-38.0859375,137.6953125,42.48046875
1771539454.90375,123.046875,437.01171875,-41.015625,134.765625,27.34375
1771539454.9076562,130.37109375,400.87890625,-36.62109375,141.6015625,20.99609375
1771539454.9115624,117.67578125,418.9453125,-36.62109375,129.39453125,41.9921875
1771539454.9154687,118.1640625,463.37890625,-32.2265625,130.859375,88.8671875
1771539454.919375,126.46484375,441.40625,-29.296875,134.765625,32.71484375
1771539454.9232812,104.00390625,444.3359375,-32.2265625,123.046875,28.3203125
1771539454.9271874,98.14453125,450.68359375,-28.3203125,133.30078125,35.15625
1771539454.9310937,104.00390625,451.171875,-25.390625,115.72265625,14.6484375
1771539454.949125,82.51953125,449.21875,-25.87890625,92.7734375,49.31640625
1771539454.9530313,73.73046875,443.84765625,-25.87890625,86.9140625,81.0546875
1771539454.9569376,88.37890625,452.63671875,-22.4609375,100.09765625,59.5703125
1771539454.9608438,85.9375,458.984375,-23.92578125,115.72265625,29.296875
1771539454.96475,61.5234375,428.7109375,-33.203125,76.66015625,29.296875
1771539454.9686563,62.98828125,407.2265625,-24.90234375,68.84765625,-5.859375
1771539454.9725626,78.61328125,439.453125,-17.578125,88.37890625,-9.765625
1771539454.9764688,76.66015625,451.66015625,-21.97265625,93.75,36.1328125
1771539454.980375,75.68359375,403.80859375,-18.5546875,96.19140625,9.27734375
1771539454.9842813,56.640625,395.01953125,-16.6015625,75.1953125,-34.66796875
1771539454.9881876,40.0390625,435.05859375,-18.5546875,52.734375,-7.32421875
1771539454.9920938,54.6875,411.62109375,-19.53125,60.05859375,13.671875
1771539454.992125,73.73046875,384.765625,-18.5546875,73.2421875,19.04296875
1771539454.9960313,45.8984375,388.671875,-20.01953125,48.33984375,25.390625
1771539454.9999375,20.01953125,402.83203125,-18.5546875,30.2734375,15.625
1771539455.0038438,37.59765625,382.8125,-11.71875,49.8046875,58.59375
1771539455.00775,42.48046875,359.86328125,-15.625,64.453125,44.43359375
1771539455.0116563,33.203125,342.7734375,-17.08984375,52.24609375,-31.25
1771539455.0155625,14.6484375,357.421875,-17.08984375,26.85546875,-21.484375
1771539455.0194688,41.9921875,369.140625,-18.5546875,57.12890625,43.45703125
1771539455.023375,45.8984375,307.6171875,-11.71875,64.94140625,37.109375
1771539455.0272813,7.32421875,314.453125,-10.7421875,20.01953125,11.23046875
1771539455.0311875,2.44140625,377.44140625,-14.16015625,14.6484375,50.29296875
1771539455.0350938,8.30078125,349.609375,-11.71875,29.296875,71.2890625
1771539455.037125,9.765625,333.49609375,-9.765625,29.296875,65.91796875
1771539455.0410314,13.18359375,332.51953125,-12.20703125,20.5078125,60.546875
1771539455.0449376,0.0,331.54296875,-13.18359375,15.13671875,63.4765625
1771539455.0488439,-3.90625,321.2890625,-13.671875,16.6015625,84.47265625
1771539455.05275,7.32421875,306.15234375,-14.6484375,17.08984375,49.31640625
1771539455.0566564,12.20703125,313.96484375,-13.671875,23.92578125,9.765625
1771539455.0605626,16.6015625,333.49609375,-10.7421875,22.4609375,26.3671875
1771539455.0644689,5.37109375,336.42578125,-5.859375,16.6015625,55.6640625
1771539455.068375,17.578125,312.01171875,-8.7890625,17.08984375,50.78125
1771539455.0722814,36.62109375,354.98046875,-10.25390625,26.85546875,74.70703125
1771539455.0761876,9.27734375,379.39453125,-9.765625,22.4609375,79.1015625
1771539455.0800939,-4.8828125,341.30859375,-10.25390625,0.9765625,42.96875
1771539455.082125,-4.8828125,353.02734375,-4.39453125,-2.9296875,34.66796875
1771539455.0860312,-17.578125,377.9296875,0.9765625,-5.859375,48.828125
1771539455.0899374,-13.18359375,367.67578125,6.34765625,-9.27734375,13.671875
1771539455.0938437,-25.390625,352.05078125,5.37109375,-21.97265625,12.20703125
1771539455.09775,-31.73828125,347.65625,4.8828125,-13.18359375,-1.953125
1771539455.1016562,-27.34375,330.56640625,6.34765625,-23.92578125,-0.48828125
1771539455.1055624,-51.26953125,331.54296875,5.859375,-45.8984375,1.953125
1771539455.1094687,-57.6171875,293.45703125,6.34765625,-41.9921875,-33.69140625
1771539455.113375,-53.22265625,289.55078125,8.30078125,-50.29296875,-20.5078125
1771539455.1172812,-73.73046875,326.171875,12.6953125,-52.24609375,-18.5546875
1771539455.1211874,-66.89453125,307.12890625,18.06640625,-34.1796875,13.18359375
1771539455.1250937,-62.01171875,291.015625,16.11328125,-42.96875,69.3359375
1771539455.127125,-81.0546875,297.8515625,17.08984375,-61.5234375,57.6171875
1771539455.1310313,-87.40234375,294.43359375,20.01953125,-65.91796875,27.34375
1771539455.1349375,-80.078125,255.859375,21.97265625,-77.63671875,29.296875
1771539455.1388438,-98.14453125,236.81640625,31.25,-73.2421875,26.85546875
1771539455.14275,-114.2578125,235.3515625,40.0390625,-75.68359375,-19.04296875
1771539455.1466563,-106.93359375,235.83984375,40.52734375,-91.30859375,-8.7890625
1771539455.1505625,-119.62890625,239.2578125,25.390625,-119.62890625,62.01171875
1771539455.1544688,-139.16015625,220.21484375,19.04296875,-134.27734375,74.70703125
1771539455.158375,-167.96875,255.37109375,34.66796875,-140.13671875,10.25390625
1771539455.1622813,-176.26953125,268.5546875,38.57421875,-145.99609375,7.8125
1771539455.1661875,-167.48046875,232.421875,32.71484375,-139.6484375,14.16015625
1771539455.1700938,-156.73828125,232.91015625,32.71484375,-144.53125,18.5546875
1771539455.173125,-171.875,254.39453125,32.2265625,-177.734375,89.35546875
1771539455.1770313,-222.65625,253.41796875,30.2734375,-210.9375,41.9921875
1771539455.1809375,-207.03125,220.21484375,29.296875,-213.8671875,-37.59765625
1771539455.1848438,-207.51953125,239.2578125,28.80859375,-217.7734375,20.01953125
1771539455.18875,-246.58203125,243.1640625,22.94921875,-231.93359375,82.51953125
1771539455.1926563,-259.27734375,217.7734375,20.5078125,-229.4921875,47.8515625
1771539455.1965625,-279.296875,213.8671875,27.34375,-256.8359375,58.59375
1771539455.2004688,-275.87890625,215.33203125,27.83203125,-272.4609375,60.546875
1771539455.204375,-268.5546875,247.0703125,24.90234375,-255.859375,53.22265625
1771539455.2082813,-287.109375,217.7734375,26.3671875,-285.15625,24.90234375
1771539455.2121875,-289.55078125,211.42578125,20.99609375,-299.31640625,49.8046875
1771539455.2160938,-282.71484375,215.33203125,23.92578125,-286.62109375,67.3828125
1771539455.218125,-288.0859375,203.125,37.109375,-274.90234375,43.45703125
1771539455.2220314,-261.23046875,197.265625,42.96875,-261.23046875,89.84375
1771539455.2259376,-258.7890625,206.0546875,35.64453125,-278.80859375,77.1484375
1771539455.2298439,-267.578125,230.46875,27.83203125,-297.36328125,11.23046875
1771539455.23375,-270.5078125,211.42578125,34.1796875,-286.62109375,-11.23046875
1771539455.2376564,-280.76171875,192.87109375,38.57421875,-268.5546875,0.48828125
1771539455.2415626,-254.39453125,197.265625,31.73828125,-261.23046875,24.4140625
1771539455.2454689,-247.0703125,227.05078125,24.4140625,-262.6953125,-32.2265625
1771539455.249375,-257.32421875,250.0,30.2734375,-245.1171875,-8.7890625
1771539455.2532814,-256.8359375,209.47265625,35.64453125,-241.2109375,30.76171875
1771539455.2571876,-238.76953125,218.75,34.1796875,-259.27734375,13.671875
1771539455.2610939,-226.07421875,242.67578125,31.25,-231.4453125,54.6875
1771539455.277125,-234.86328125,225.5859375,30.76171875,-213.37890625,23.4375
1771539455.2810311,-219.23828125,225.5859375,28.80859375,-230.95703125,-19.04296875
1771539455.2849374,-206.54296875,253.90625,24.4140625,-229.4921875,39.0625
1771539455.2888436,-216.796875,253.90625,27.83203125,-210.44921875,100.09765625
1771539455.29275,-209.47265625,228.02734375,30.2734375,-216.30859375,44.43359375
1771539455.2966561,-190.91796875,198.73046875,29.296875,-184.5703125,22.94921875
1771539455.3005624,-182.6171875,206.54296875,32.71484375,-160.15625,-13.18359375
1771539455.3044686,-176.7578125,283.203125,22.94921875,-186.5234375,-10.7421875
1771539455.308375,-164.55078125,281.25,15.625,-188.4765625,23.92578125
1771539455.3122811,-145.01953125,256.8359375,19.04296875,-166.9921875,11.23046875
1771539455.3161874,-147.4609375,261.71875,19.04296875,-153.80859375,5.859375
1771539455.3200936,-154.296875,265.625,12.20703125,-143.06640625,-10.25390625
1771539455.322125,-139.6484375,261.71875,19.53125,-125.9765625,70.3125
1771539455.3260312,-151.85546875,248.046875,20.01953125,-133.7890625,91.796875
1771539455.3299375,-156.73828125,260.25390625,11.23046875,-115.72265625,42.96875
1771539455.3338437,-111.328125,263.18359375,19.04296875,-97.65625,42.96875
1771539455.33775,-96.19140625,241.2109375,20.5078125,-105.95703125,35.64453125
1771539455.3416562,-109.86328125,240.72265625,7.8125,-99.12109375,14.16015625
1771539455.3455625,-104.98046875,266.6015625,4.8828125,-85.44921875,33.69140625
1771539455.3494687,-87.40234375,285.64453125,5.859375,-89.84375,39.0625
1771539455.353375,-81.0546875,284.1796875,0.0,-83.0078125,20.01953125
1771539455.3572812,-85.9375,247.0703125,6.34765625,-62.01171875,8.7890625
1771539455.3611875,-89.84375,294.921875,9.765625,-69.3359375,-4.39453125
1771539455.3650937,-83.0078125,325.68359375,6.34765625,-67.87109375,37.59765625
1771539455.367125,-54.19921875,290.52734375,10.25390625,-40.0390625,39.0625
1771539455.3710313,-46.38671875,298.828125,13.671875,-40.0390625,11.23046875
1771539455.3749375,-72.75390625,309.08203125,12.6953125,-49.8046875,24.4140625
1771539455.3788438,-77.1484375,303.7109375,10.25390625,-52.24609375,77.63671875
1771539455.38275,-64.453125,291.015625,1.953125,-51.7578125,41.015625
1771539455.3866563,-55.17578125,285.15625,-4.39453125,-33.69140625,-26.3671875
1771539455.3905625,-39.0625,300.78125,1.46484375,-24.90234375,23.4375
1771539455.3944688,-31.73828125,316.89453125,6.8359375,-20.5078125,66.89453125
1771539455.398375,-50.78125,262.6953125,5.37109375,-37.59765625,44.43359375
1771539455.4022813,-45.8984375,258.7890625,4.8828125,-41.015625,-15.13671875
1771539455.4061875,-36.1328125,304.6875,11.71875,-12.20703125,-8.30078125
1771539455.4100938,-30.76171875,276.85546875,12.20703125,-3.41796875,20.5078125
1771539455.412125,-40.0390625,289.0625,1.46484375,-16.11328125,-2.44140625
1771539455.4160314,-41.015625,312.5,-10.7421875,-34.1796875,31.73828125
1771539455.4199376,-3.41796875,310.546875,-19.04296875,-15.13671875,86.9140625
1771539455.4238439,-5.859375,278.80859375,-3.41796875,-6.8359375,9.765625
1771539455.42775,-29.78515625,256.8359375,4.39453125,-21.484375,-36.62109375
1771539455.4316564,-16.11328125,264.6484375,-2.44140625,-4.8828125,-33.203125
1771539455.4355626,5.37109375,257.32421875,11.71875,18.5546875,-21.484375
1771539455.4394689,5.37109375,237.79296875,14.6484375,36.1328125,29.78515625
1771539455.443375,-16.6015625,232.421875,-3.41796875,5.859375,60.546875
1771539455.4472814,-21.97265625,265.625,-10.7421875,-20.5078125,21.97265625
1771539455.4511876,-11.71875,271.484375,-3.90625,-4.8828125,25.87890625
1771539455.4550939,1.46484375,208.0078125,2.44140625,25.390625,41.015625
1771539455.457125,11.71875,202.63671875,10.25390625,32.71484375,27.34375
1771539455.4610312,4.8828125,239.74609375,2.9296875,3.90625,31.25
1771539455.4649374,-9.27734375,223.6328125,-6.8359375,17.08984375,-3.41796875
1771539455.4688437,-2.9296875,208.49609375,-2.9296875,23.92578125,68.84765625
1771539455.47275,-5.859375,181.640625,6.8359375,6.8359375,20.5078125
1771539455.4766562,-4.8828125,162.59765625,8.7890625,17.08984375,-49.31640625
1771539455.4805624,1.953125,191.40625,-1.953125,31.73828125,11.23046875
1771539455.4844687,10.7421875,163.57421875,-12.6953125,35.64453125,42.96875
1771539455.488375,0.48828125,151.3671875,-0.9765625,0.48828125,7.32421875
1771539455.4922812,-24.90234375,184.5703125,11.23046875,-5.37109375,-12.20703125
1771539455.4961874,3.90625,155.2734375,13.18359375,37.59765625,-60.05859375
1771539455.5000937,20.01953125,163.0859375,-1.46484375,35.15625,-43.45703125
1771539455.502125,0.9765625,181.640625,-12.6953125,8.7890625,29.78515625
1771539455.5060313,-4.39453125,160.64453125,-7.8125,1.953125,82.03125
1771539455.5099375,12.20703125,121.09375,5.859375,18.06640625,29.296875
1771539455.5138438,12.6953125,141.11328125,10.7421875,33.203125,-4.8828125
1771539455.51775,-5.37109375,175.78125,-2.9296875,16.6015625,12.6953125
1771539455.5216563,-2.44140625,164.0625,-11.71875,5.859375,34.66796875
1771539455.5255625,4.39453125,142.08984375,-9.765625,2.9296875,44.921875
1771539455.5294688,23.92578125,123.53515625,-3.90625,22.94921875,21.484375
1771539455.533375,32.2265625,163.0859375,4.39453125,41.9921875,53.22265625
1771539455.5372813,7.32421875,167.96875,5.37109375,20.99609375,94.23828125
1771539455.5411875,5.859375,118.65234375,0.0,7.32421875,46.38671875
1771539455.5450938,5.37109375,133.30078125,-0.48828125,18.5546875,51.26953125
1771539455.547125,-2.9296875,146.97265625,4.39453125,28.3203125,75.1953125
1771539455.5510314,3.90625,130.37109375,9.765625,26.3671875,54.6875
1771539455.5549376,4.39453125,144.04296875,7.32421875,30.76171875,35.64453125
1771539455.5588439,-0.9765625,165.52734375,-1.46484375,20.5078125,24.90234375
1771539455.56275,2.44140625,154.296875,-10.25390625,12.6953125,44.43359375
1771539455.5666564,15.625,152.83203125,-11.23046875,17.578125,67.87109375
1771539455.5705626,20.99609375,129.39453125,-6.34765625,24.90234375,54.19921875
1771539455.5744689,-5.859375,128.90625,-8.30078125,12.6953125,6.8359375
1771539455.578375,-18.06640625,187.98828125,-4.8828125,13.671875,14.6484375
1771539455.5822814,0.9765625,166.9921875,1.953125,18.06640625,-0.48828125
1771539455.5861876,15.13671875,141.11328125,-0.48828125,14.16015625,0.0
1771539455.5900939,7.8125,149.4140625,-6.34765625,29.78515625,25.87890625
1771539455.592125,7.8125,146.484375,-9.27734375,20.99609375,8.7890625
1771539455.5960312,27.34375,139.16015625,-9.27734375,35.15625,-29.78515625
1771539455.5999374,28.3203125,152.83203125,-5.859375,52.734375,7.32421875
1771539455.6038437,27.83203125,161.1328125,3.41796875,44.921875,7.32421875
1771539455.60775,55.6640625,152.83203125,9.27734375,83.49609375,-33.69140625
1771539455.6116562,50.29296875,145.5078125,0.0,83.984375,19.04296875
1771539455.6155624,41.50390625,130.37109375,-8.7890625,41.015625,48.33984375
1771539455.6194687,36.1328125,162.109375,-3.90625,43.45703125,23.4375
1771539455.623375,51.7578125,198.2421875,-9.27734375,54.6875,53.22265625
1771539455.6272812,76.171875,155.2734375,-9.27734375,74.21875,61.5234375
1771539455.6311874,61.5234375,145.5078125,2.44140625,76.66015625,41.015625
1771539455.6350937,30.2734375,170.8984375,4.8828125,48.33984375,83.49609375
1771539455.652125,28.3203125,140.625,13.671875,58.59375,25.390625
1771539455.6560311,53.22265625,129.8828125,17.08984375,67.3828125,-26.3671875
1771539455.6599374,42.48046875,160.15625,3.90625,48.33984375,31.73828125
1771539455.6638436,20.5078125,168.45703125,-4.8828125,35.64453125,51.7578125
1771539455.66775,27.83203125,162.109375,-9.765625,44.921875,33.203125
1771539455.6716561,54.6875,134.765625,-12.20703125,76.171875,9.27734375
1771539455.6755624,35.64453125,147.94921875,2.44140625,60.546875,28.3203125
1771539455.6794686,-0.48828125,202.1484375,2.44140625,36.62109375,32.71484375
1771539455.683375,7.8125,174.31640625,-7.32421875,57.12890625,61.03515625
1771539455.6872811,36.1328125,144.53125,-5.37109375,62.5,83.984375
1771539455.6911874,57.6171875,177.24609375,-5.37109375,66.40625,82.51953125
1771539455.6950936,44.921875,181.15234375,1.953125,64.453125,95.21484375
1771539455.697125,29.296875,140.625,0.0,53.22265625,62.01171875
1771539455.7010312,38.57421875,131.8359375,-17.578125,57.12890625,-2.44140625
1771539455.7049375,47.8515625,149.4140625,-23.4375,52.24609375,35.64453125
1771539455.7088437,63.96484375,144.04296875,-17.578125,57.12890625,57.12890625
1771539455.71275,47.36328125,114.2578125,-7.8125,52.734375,31.25
1771539455.7166562,15.13671875,79.58984375,0.48828125,31.73828125,34.1796875
1771539455.7205625,25.390625,65.91796875,0.0,33.203125,19.04296875
1771539455.7244687,37.59765625,51.7578125,-8.30078125,43.9453125,18.5546875
1771539455.728375,29.296875,1.46484375,-20.01953125,37.109375,23.4375
1771539455.7322812,16.11328125,-29.296875,-13.18359375,26.3671875,5.37109375
1771539455.7361875,24.90234375,15.13671875,2.9296875,41.50390625,15.13671875
1771539455.7400937,39.0625,12.20703125,5.859375,42.48046875,26.3671875
1771539455.742125,42.96875,-17.08984375,2.9296875,59.5703125,71.2890625
1771539455.7460313,48.33984375,-10.7421875,3.41796875,58.59375,64.94140625
1771539455.7499375,22.4609375,53.22265625,0.9765625,30.2734375,17.578125
1771539455.7538438,1.46484375,60.05859375,0.48828125,37.59765625,18.06640625
1771539455.75775,10.7421875,51.7578125,0.0,38.57421875,-21.97265625
1771539455.7616563,12.6953125,80.078125,-6.34765625,30.2734375,-5.37109375
1771539455.7655625,5.37109375,132.8125,-7.8125,25.390625,66.89453125
1771539455.7694688,-1.953125,167.96875,-6.8359375,15.625,57.6171875
1771539455.773375,5.37109375,142.578125,-4.8828125,17.578125,60.546875
1771539455.7772813,16.11328125,178.7109375,-11.71875,18.06640625,34.1796875
1771539455.7811875,10.25390625,249.0234375,-12.6953125,28.3203125,-21.97265625
1771539455.7850938,-14.16015625,245.60546875,-0.48828125,26.3671875,-24.4140625
1771539455.788125,-11.23046875,270.5078125,6.34765625,16.6015625,10.25390625
1771539455.7920313,19.53125,306.640625,7.32421875,38.0859375,7.8125
1771539455.7959375,24.90234375,350.5859375,-4.8828125,13.18359375,10.25390625
1771539455.7998438,24.90234375,389.16015625,-16.6015625,-2.9296875,38.0859375
1771539455.80375,18.06640625,388.671875,-14.6484375,16.11328125,65.4296875
1771539455.8076563,7.8125,396.484375,-13.671875,15.13671875,50.78125
1771539455.8115625,20.5078125,436.03515625,-20.5078125,7.8125,16.11328125
1771539455.8154688,26.85546875,447.75390625,-9.27734375,9.765625,-6.34765625
1771539455.819375,28.3203125,437.5,5.37109375,14.16015625,-2.9296875
1771539455.8232813,26.3671875,504.8828125,2.9296875,21.484375,13.671875
1771539455.8271875,18.06640625,519.04296875,0.48828125,34.66796875,49.8046875
1771539455.8310938,18.06640625,507.32421875,-5.859375,31.73828125,22.94921875
1771539455.832125,22.94921875,546.38671875,-6.34765625,14.16015625,20.01953125
1771539455.8360312,33.69140625,576.171875,0.0,28.80859375,40.0390625
1771539455.8399374,28.3203125,593.75,-0.9765625,32.71484375,26.85546875
1771539455.8438437,9.765625,600.5859375,-6.8359375,19.04296875,31.73828125
1771539455.84775,29.296875,611.328125,-1.953125,48.33984375,61.03515625
1771539455.8516562,48.828125,626.953125,-7.32421875,66.89453125,24.4140625
1771539455.8555624,25.87890625,658.69140625,-17.08984375,37.59765625,41.9921875
1771539455.8594687,20.5078125,641.11328125,-19.53125,13.18359375,74.70703125
1771539455.863375,36.62109375,667.48046875,-18.5546875,21.97265625,38.0859375
1771539455.8672812,26.3671875,735.3515625,-7.8125,39.0625,17.08984375
1771539455.8711874,22.4609375,710.9375,-9.27734375,43.45703125,48.828125
1771539455.8750937,29.78515625,689.94140625,-7.32421875,39.55078125,21.484375
1771539455.877125,32.71484375,713.8671875,-0.48828125,43.45703125,7.8125
1771539455.8810313,11.71875,737.3046875,-9.27734375,26.3671875,38.57421875
1771539455.8849375,2.9296875,737.3046875,-9.27734375,28.80859375,21.97265625
1771539455.8888438,35.15625,782.2265625,-3.90625,66.40625,10.25390625
1771539455.89275,46.38671875,852.05078125,-6.8359375,45.8984375,0.48828125
1771539455.8966563,42.96875,891.11328125,-10.25390625,15.13671875,35.15625
1771539455.9005625,11.23046875,921.38671875,-14.16015625,3.41796875,31.73828125
1771539455.9044688,-13.671875,924.8046875,-12.20703125,-1.953125,10.7421875
1771539455.908375,9.27734375,965.8203125,-14.16015625,14.16015625,-8.7890625
1771539455.9122813,22.4609375,-996.09375,-18.5546875,19.04296875,-20.01953125
1771539455.9161875,9.765625,963.8671875,-11.71875,11.71875,39.0625
1771539455.9200938,-3.90625,932.12890625,-0.9765625,-2.44140625,8.7890625
1771539455.922125,-2.9296875,925.78125,3.90625,0.9765625,-57.6171875
1771539455.9260314,9.765625,907.2265625,3.41796875,20.01953125,-1.46484375
1771539455.9299376,11.23046875,885.7421875,-3.90625,12.6953125,78.61328125
1771539455.9338439,5.859375,877.9296875,-6.8359375,2.9296875,56.15234375
1771539455.93775,-10.25390625,851.5625,-5.859375,-9.27734375,7.32421875
1771539455.9416564,-0.9765625,833.0078125,-7.8125,-7.32421875,23.4375
1771539455.9455626,18.06640625,814.94140625,-7.32421875,10.7421875,27.83203125
1771539455.9494689,4.39453125,821.77734375,-4.8828125,7.32421875,17.08984375
1771539455.953375,-2.9296875,842.28515625,-2.44140625,9.27734375,61.03515625
1771539455.9572814,-7.8125,806.15234375,-8.30078125,-4.39453125,106.93359375
1771539455.9611876,5.859375,788.0859375,-7.8125,7.32421875,49.8046875
1771539455.9650939,17.578125,799.31640625,4.8828125,37.59765625,47.8515625
1771539455.968125,-3.41796875,806.640625,8.7890625,15.13671875,89.84375
1771539455.9720314,-3.41796875,779.78515625,9.27734375,5.859375,51.7578125
1771539455.9759376,4.8828125,772.4609375,8.30078125,10.7421875,47.36328125
1771539455.9798439,-15.13671875,796.875,-0.9765625,-12.6953125,37.59765625
1771539455.98375,-28.80859375,812.5,-6.8359375,-20.01953125,-1.46484375
1771539455.9876564,-17.08984375,810.546875,-4.39453125,-8.7890625,16.11328125
1771539455.9915626,-16.6015625,800.78125,6.34765625,3.90625,69.82421875
1771539455.9954689,-20.99609375,826.171875,6.8359375,-1.953125,44.43359375
1771539455.999375,-16.6015625,821.2890625,-0.48828125,-18.5546875,-2.9296875
1771539456.0032814,-28.3203125,791.50390625,3.41796875,-29.78515625,6.34765625
1771539456.0071876,-43.45703125,791.015625,12.6953125,-41.015625,26.85546875
1771539456.0110939,-33.69140625,805.6640625,14.6484375,-21.97265625,20.99609375
1771539456.013125,-21.484375,815.4296875,11.71875,-20.99609375,23.92578125
1771539456.0170312,-43.9453125,782.2265625,7.32421875,-32.2265625,58.59375
1771539456.0209374,-67.87109375,786.1328125,4.39453125,-47.36328125,82.51953125
1771539456.0248437,-63.96484375,836.42578125,4.39453125,-33.69140625,41.9921875
1771539456.02875,-35.64453125,843.26171875,8.7890625,-13.18359375,44.43359375
1771539456.0326562,-25.87890625,812.98828125,3.41796875,-45.41015625,60.05859375
1771539456.0365624,-46.875,839.84375,-9.765625,-40.52734375,35.15625
1771539456.0404687,-41.015625,887.6953125,-9.27734375,-17.08984375,21.97265625
1771539456.044375,-39.0625,875.0,6.8359375,-38.0859375,28.3203125
1771539456.0482812,-51.26953125,854.4921875,7.8125,-48.828125,62.98828125
1771539456.0521874,-34.66796875,872.55859375,4.8828125,-31.73828125,67.3828125
1771539456.0560937,-37.109375,903.80859375,0.9765625,-30.2734375,75.68359375
1771539456.072125,-35.15625,886.71875,-1.46484375,-41.015625,50.78125
1771539456.0760312,-32.2265625,890.625,3.90625,-20.99609375,54.6875
1771539456.0799375,-41.9921875,915.0390625,4.39453125,0.48828125,33.203125
1771539456.0838437,-29.296875,930.6640625,-7.32421875,-22.94921875,-40.52734375
1771539456.08775,-18.06640625,931.15234375,-14.16015625,-15.625,-19.04296875
1771539456.0916562,-17.578125,914.55078125,-3.90625,-12.6953125,3.90625
1771539456.0955625,-33.203125,937.01171875,2.9296875,-10.25390625,-9.765625
1771539456.0994687,-32.2265625,959.9609375,4.8828125,-4.39453125,-17.08984375
1771539456.103375,-16.6015625,943.84765625,4.39453125,-13.671875,44.43359375
1771539456.1072812,-10.25390625,940.4296875,3.90625,-0.48828125,38.57421875
1771539456.1111875,-17.578125,994.62890625,-4.8828125,-13.18359375,14.16015625
1771539456.1150937,-40.0390625,-998.53515625,-14.16015625,-22.94921875,44.921875
1771539456.117125,-35.64453125,992.1875,-4.8828125,-12.20703125,22.4609375
1771539456.1210313,-16.11328125,996.58203125,7.8125,-6.34765625,20.99609375
1771539456.1249375,-27.83203125,-1000.0,7.32421875,-12.6953125,30.76171875
1771539456.1288438,-39.55078125,999.0234375,12.20703125,-10.7421875,-11.71875
1771539456.13275,-33.69140625,999.51171875,12.6953125,-3.90625,44.921875
1771539456.1366563,-41.50390625,999.51171875,0.9765625,-35.64453125,80.078125
1771539456.1405625,-50.29296875,999.51171875,2.44140625,-27.34375,-9.27734375
1771539456.1444688,-40.0390625,999.51171875,4.39453125,3.41796875,58.10546875
1771539456.148375,-23.92578125,999.51171875,4.8828125,7.32421875,60.05859375
1771539456.1522813,-9.27734375,999.51171875,4.8828125,2.44140625,-37.59765625
1771539456.1561875,-7.8125,999.51171875,2.9296875,-13.671875,-5.37109375
1771539456.1600938,-4.39453125,999.51171875,5.37109375,-3.41796875,36.1328125
1771539456.161125,-8.30078125,999.51171875,1.46484375,4.8828125,54.6875
1771539456.1650312,-33.203125,999.51171875,0.0,-20.99609375,34.66796875
1771539456.1689374,-34.1796875,999.51171875,8.7890625,-14.6484375,21.97265625
1771539456.1728437,-15.625,999.51171875,12.20703125,21.484375,46.38671875
1771539456.17675,-11.71875,999.51171875,8.30078125,27.34375,53.7109375
1771539456.1806562,-8.30078125,999.0234375,0.0,6.8359375,57.6171875
1771539456.1845624,21.97265625,999.0234375,0.0,44.43359375,20.5078125
1771539456.1884687,22.4609375,-1000.0,10.25390625,57.12890625,-23.4375
1771539456.192375,-17.578125,995.60546875,13.671875,-5.37109375,31.25
1771539456.1962812,4.39453125,995.60546875,20.5078125,23.4375,77.1484375
1771539456.2001874,13.18359375,-1000.0,12.20703125,41.9921875,13.18359375
1771539456.2040937,2.44140625,999.0234375,-8.30078125,15.13671875,19.04296875
1771539456.207125,17.08984375,999.0234375,-8.30078125,19.04296875,33.69140625
1771539456.2110312,12.20703125,999.51171875,-0.48828125,31.73828125,57.6171875
1771539456.2149374,-6.34765625,998.53515625,7.32421875,34.66796875,91.30859375
1771539456.2188437,-8.7890625,997.0703125,11.23046875,37.59765625,36.1328125
1771539456.22275,1.46484375,992.67578125,8.7890625,23.92578125,37.59765625
1771539456.2266562,-0.48828125,979.98046875,0.48828125,11.71875,45.41015625
1771539456.2305624,12.6953125,994.140625,-3.90625,24.4140625,-5.859375
1771539456.2344687,14.6484375,974.12109375,4.39453125,26.3671875,-18.5546875
1771539456.238375,-14.16015625,963.8671875,12.6953125,11.71875,17.578125
1771539456.2422812,4.8828125,-995.60546875,7.8125,6.8359375,27.34375
1771539456.2461874,23.4375,977.05078125,11.23046875,27.83203125,46.875
1771539456.2500937,17.578125,953.125,14.6484375,34.1796875,61.5234375
1771539456.253125,26.85546875,973.6328125,3.90625,20.01953125,55.6640625
1771539456.2570312,23.92578125,964.84375,-2.44140625,23.4375,63.96484375
1771539456.2609375,12.6953125,942.87109375,4.8828125,40.52734375,58.10546875
1771539456.2648437,24.90234375,941.40625,10.7421875,48.33984375,38.0859375
1771539456.26875,42.96875,963.8671875,1.46484375,69.82421875,52.734375
1771539456.2726562,44.43359375,970.703125,0.48828125,72.75390625,66.89453125
1771539456.2765625,28.3203125,966.796875,8.7890625,53.22265625,79.1015625
1771539456.2804687,21.97265625,949.21875,10.7421875,66.89453125,84.9609375
1771539456.284375,41.015625,973.6328125,7.32421875,68.84765625,58.10546875
1771539456.2882812,54.6875,979.00390625,8.30078125,68.359375,18.5546875
1771539456.2921875,49.8046875,942.3828125,12.6953125,80.078125,19.53125
1771539456.2960937,65.4296875,945.80078125,16.11328125,94.23828125,-0.9765625
1771539456.297125,51.7578125,971.6796875,7.32421875,77.1484375,3.41796875
1771539456.3010314,13.18359375,954.1015625,-1.953125,47.8515625,-17.08984375
1771539456.3049376,23.4375,915.52734375,8.7890625,59.08203125,-54.6875
1771539456.3088439,29.296875,930.6640625,14.16015625,61.5234375,8.7890625
1771539456.31275,32.2265625,926.26953125,8.7890625,38.0859375,23.4375
1771539456.3166564,38.57421875,900.390625,6.34765625,37.109375,-10.25390625
1771539456.3205626,18.5546875,894.04296875,0.9765625,32.71484375,20.01953125
1771539456.3244689,5.37109375,908.203125,0.0,35.15625,31.73828125
1771539456.328375,5.859375,943.84765625,5.859375,49.31640625,54.6875
1771539456.3322814,10.25390625,907.71484375,9.765625,40.52734375,60.05859375
1771539456.3361876,19.04296875,893.5546875,6.8359375,29.296875,59.5703125
1771539456.3400939,21.484375,889.16015625,-2.44140625,41.50390625,51.26953125
1771539456.343125,29.296875,884.27734375,-9.27734375,29.296875,-4.8828125
1771539456.3470314,25.390625,872.0703125,-1.46484375,16.6015625,-24.4140625
1771539456.3509376,32.2265625,858.88671875,5.37109375,15.625,4.39453125
1771539456.3548439,37.109375,871.09375,5.37109375,15.13671875,-7.8125
1771539456.35875,40.0390625,861.81640625,6.8359375,42.48046875,3.90625
1771539456.3626564,44.43359375,825.68359375,9.765625,50.29296875,107.91015625
1771539456.3665626,31.25,803.7109375,17.08984375,56.15234375,116.69921875
1771539456.3704689,40.52734375,831.54296875,14.16015625,72.265625,29.296875
1771539456.374375,29.78515625,853.515625,-3.90625,40.52734375,-41.9921875
1771539456.3782814,18.5546875,831.0546875,-6.34765625,14.6484375,-27.34375
1771539456.3821876,43.9453125,842.28515625,-8.7890625,40.52734375,36.1328125
1771539456.3860939,52.24609375,853.02734375,-7.8125,68.359375,8.30078125
1771539456.402125,40.0390625,831.54296875,8.30078125,57.12890625,-27.34375
1771539456.4060311,41.015625,814.453125,11.23046875,61.5234375,20.01953125
1771539456.4099374,52.734375,822.265625,5.859375,78.61328125,36.1328125
1771539456.4138436,51.26953125,835.44921875,0.0,80.56640625,52.24609375
1771539456.41775,41.50390625,827.63671875,3.41796875,76.66015625,60.546875
1771539456.4216561,45.8984375,787.109375,12.6953125,69.3359375,65.4296875
1771539456.4255624,52.734375,782.71484375,14.16015625,81.54296875,73.73046875
1771539456.4294686,37.59765625,845.703125,7.32421875,74.70703125,5.859375
1771539456.433375,20.99609375,839.35546875,5.859375,63.4765625,-8.30078125
1771539456.4372811,24.90234375,824.21875,5.859375,74.70703125,19.04296875
1771539456.4411874,31.73828125,822.265625,10.25390625,58.10546875,20.01953125
1771539456.4450936,8.7890625,812.01171875,10.7421875,37.109375,-26.3671875
1771539456.447125,19.04296875,816.89453125,3.41796875,31.25,-2.44140625
1771539456.4510312,32.71484375,814.94140625,6.34765625,41.9921875,44.43359375
1771539456.4549375,28.80859375,821.2890625,13.671875,68.359375,44.43359375
1771539456.4588437,34.66796875,811.03515625,5.37109375,45.8984375,34.1796875
1771539456.46275,28.3203125,784.66796875,-8.7890625,25.390625,-3.90625
1771539456.4666562,28.3203125,768.5546875,-7.8125,54.6875,-3.90625
1771539456.4705625,35.64453125,791.9921875,4.39453125,60.05859375,28.80859375
1771539456.4744687,30.2734375,797.8515625,10.7421875,40.52734375,31.73828125
1771539456.478375,37.109375,779.296875,9.765625,43.9453125,48.828125
1771539456.4822812,56.15234375,739.2578125,8.30078125,50.29296875,36.62109375
1771539456.4861875,49.31640625,778.3203125,13.18359375,53.7109375,-30.2734375
1771539456.4900937,42.96875,826.171875,18.5546875,62.98828125,14.16015625
1771539456.492125,53.22265625,802.24609375,7.8125,78.125,82.03125
1771539456.4960313,60.05859375,797.8515625,-1.46484375,68.84765625,51.7578125
1771539456.4999375,55.6640625,818.84765625,-1.953125,55.6640625,47.36328125
1771539456.5038438,62.5,816.89453125,-0.48828125,67.3828125,51.26953125
1771539456.50775,66.40625,795.41015625,-1.46484375,66.89453125,1.953125
1771539456.5116563,62.98828125,797.8515625,3.90625,70.80078125,32.2265625
1771539456.5155625,57.12890625,812.5,7.8125,87.40234375,50.78125
1771539456.5194688,64.453125,818.359375,8.30078125,75.1953125,41.015625
1771539456.523375,64.94140625,769.53125,7.32421875,68.84765625,80.56640625
1771539456.5272813,69.82421875,771.97265625,1.46484375,96.19140625,29.296875
1771539456.5311875,52.24609375,840.33203125,7.8125,82.51953125,-17.08984375
1771539456.5350938,48.828125,811.03515625,15.625,91.30859375,2.9296875
1771539456.537125,79.1015625,788.0859375,12.6953125,92.28515625,9.27734375
1771539456.5410314,53.7109375,792.96875,5.37109375,48.828125,24.90234375
1771539456.5449376,16.11328125,767.08984375,6.34765625,41.50390625,36.62109375
1771539456.5488439,24.4140625,745.60546875,11.71875,50.78125,42.48046875
1771539456.55275,32.71484375,729.98046875,3.90625,57.6171875,31.25
1771539456.5566564,37.109375,722.65625,-6.34765625,64.94140625,23.92578125
1771539456.5605626,39.55078125,746.58203125,3.41796875,72.75390625,103.515625
1771539456.5644689,25.390625,709.47265625,10.7421875,48.33984375,82.03125
1771539456.568375,23.4375,651.85546875,3.90625,47.8515625,-17.578125
1771539456.5722814,30.76171875,698.2421875,0.48828125,66.89453125,41.9921875
1771539456.5761876,30.76171875,685.05859375,11.23046875,59.5703125,67.87109375
1771539456.5800939,33.69140625,624.0234375,23.4375,57.6171875,4.39453125
1771539456.582125,39.55078125,634.765625,19.04296875,76.66015625,4.39453125
1771539456.5860312,61.03515625,659.1796875,13.18359375,83.49609375,50.29296875
1771539456.5899374,91.796875,631.34765625,14.16015625,80.56640625,57.6171875
1771539456.5938437,61.5234375,613.28125,15.13671875,73.73046875,17.578125
1771539456.59775,42.48046875,622.0703125,12.6953125,70.3125,45.8984375
1771539456.6016562,71.77734375,609.86328125,7.32421875,69.3359375,45.41015625
1771539456.6055624,75.1953125,625.48828125,2.44140625,69.82421875,6.8359375
1771539456.6094687,55.6640625,599.12109375,5.859375,64.453125,24.4140625
1771539456.613375,59.5703125,593.75,12.6953125,77.63671875,31.25
1771539456.6172812,86.9140625,645.99609375,6.34765625,91.796875,58.59375
1771539456.6211874,81.54296875,622.55859375,4.8828125,96.6796875,65.91796875
1771539456.6250937,59.5703125,612.79296875,12.20703125,94.7265625,21.484375
1771539456.628125,67.3828125,614.2578125,12.6953125,87.40234375,13.671875
1771539456.6320312,93.26171875,598.6328125,17.08984375,97.16796875,38.0859375
1771539456.6359375,79.1015625,568.84765625,14.6484375,86.9140625,-4.39453125
1771539456.6398437,54.19921875,549.8046875,0.9765625,63.4765625,-56.640625
1771539456.64375,52.734375,575.68359375,3.90625,72.265625,7.32421875
1771539456.6476562,58.59375,565.91796875,6.34765625,71.2890625,64.94140625
1771539456.6515625,68.84765625,540.52734375,-1.46484375,77.1484375,53.7109375
1771539456.6554687,60.546875,539.0625,-3.41796875,79.58984375,28.3203125
1771539456.659375,45.41015625,570.3125,0.9765625,55.6640625,30.76171875
1771539456.6632812,52.24609375,568.84765625,4.8828125,54.6875,36.1328125
1771539456.6671875,57.12890625,535.15625,1.953125,56.15234375,42.48046875
1771539456.6710937,62.98828125,541.50390625,-3.41796875,60.05859375,47.8515625
1771539456.673125,58.10546875,552.734375,-4.39453125,72.265625,52.24609375
1771539456.6770313,48.828125,543.9453125,-5.859375,67.3828125,11.23046875
1771539456.6809375,48.828125,528.80859375,-0.48828125,45.41015625,40.52734375
1771539456.6848438,44.921875,519.04296875,6.8359375,50.29296875,96.6796875
1771539456.68875,34.66796875,519.04296875,8.30078125,36.1328125,45.41015625
1771539456.6926563,22.4609375,529.296875,10.25390625,46.875,30.76171875
1771539456.6965625,42.48046875,512.6953125,12.20703125,69.82421875,35.64453125
1771539456.7004688,57.12890625,526.3671875,9.765625,61.5234375,41.50390625
1771539456.704375,50.78125,581.54296875,8.30078125,57.6171875,62.01171875
1771539456.7082813,53.7109375,563.4765625,11.71875,52.734375,60.546875
1771539456.7121875,62.01171875,558.59375,6.34765625,67.3828125,54.6875
1771539456.7160938,59.08203125,569.3359375,-5.37109375,65.91796875,-11.71875
1771539456.717125,47.36328125,566.89453125,-10.25390625,41.9921875,13.671875
1771539456.7210312,41.50390625,553.7109375,-7.8125,34.1796875,27.34375
1771539456.7249374,49.8046875,539.0625,11.71875,68.84765625,-23.92578125
1771539456.7288437,45.41015625,554.6875,15.625,79.1015625,23.4375
1771539456.73275,34.66796875,541.015625,-0.9765625,47.8515625,21.484375
1771539456.7366562,26.3671875,509.27734375,-3.41796875,41.50390625,6.34765625
1771539456.7405624,25.87890625,488.28125,0.0,54.19921875,48.828125
1771539456.7444687,43.9453125,518.06640625,6.34765625,65.91796875,43.45703125
1771539456.748375,37.109375,545.8984375,8.7890625,45.41015625,34.1796875
1771539456.7522812,33.203125,491.2109375,11.23046875,34.66796875,50.29296875
1771539456.7561874,43.45703125,474.12109375,18.06640625,53.7109375,-5.859375
1771539456.7600937,29.78515625,501.953125,6.8359375,49.8046875,-34.1796875
1771539456.777125,23.92578125,479.4921875,-6.8359375,34.1796875,11.23046875
1771539456.7810311,27.83203125,442.87109375,0.0,44.921875,-1.46484375
1771539456.7849374,16.6015625,446.2890625,10.7421875,48.828125,-31.25
1771539456.7888436,22.4609375,465.8203125,10.25390625,42.48046875,-4.8828125
1771539456.79275,37.59765625,453.125,6.34765625,46.875,42.48046875
1771539456.7966561,34.66796875,405.2734375,-1.46484375,53.22265625,12.6953125
1771539456.8005624,18.06640625,430.6640625,-2.44140625,44.921875,19.53125
1771539456.8044686,5.859375,475.5859375,-0.48828125,41.50390625,89.84375
1771539456.808375,9.27734375,458.0078125,1.46484375,32.2265625,68.359375
1771539456.8122811,10.7421875,428.22265625,5.859375,24.90234375,-0.9765625
1771539456.8161874,14.16015625,443.84765625,6.34765625,37.59765625,23.92578125
1771539456.8200936,17.578125,479.4921875,-2.44140625,22.4609375,67.87109375
1771539456.822125,28.3203125,455.078125,-11.71875,27.83203125,71.77734375
1771539456.8260312,42.96875,455.56640625,-9.765625,34.66796875,81.0546875
1771539456.8299375,22.94921875,465.33203125,5.859375,16.11328125,71.77734375
1771539456.8338437,18.5546875,446.2890625,17.08984375,30.76171875,-16.6015625
1771539456.83775,32.2265625,450.68359375,13.18359375,51.7578125,15.625
1771539456.8416562,17.08984375,469.23828125,-3.90625,40.0390625,86.42578125
1771539456.8455625,23.4375,491.69921875,-13.18359375,24.4140625,60.546875
1771539456.8494687,32.2265625,513.671875,-6.34765625,30.2734375,34.66796875
1771539456.853375,22.94921875,493.65234375,6.8359375,31.73828125,26.3671875
1771539456.8572812,25.390625,467.28515625,9.27734375,34.66796875,56.640625
1771539456.8611875,38.0859375,512.20703125,3.41796875,48.33984375,71.2890625
1771539456.8650937,33.69140625,530.2734375,0.9765625,43.45703125,64.453125
1771539456.867125,30.2734375,476.5625,1.953125,42.48046875,31.25
1771539456.8710313,17.578125,463.8671875,6.8359375,26.85546875,-28.3203125
1771539456.8749375,1.953125,501.953125,5.37109375,8.7890625,8.30078125
1771539456.8788438,19.53125,497.55859375,0.48828125,25.390625,46.38671875
1771539456.88275,19.53125,485.83984375,6.34765625,38.57421875,-34.1796875
1771539456.8866563,8.7890625,483.3984375,7.8125,31.73828125,4.8828125
1771539456.8905625,35.64453125,468.26171875,-1.46484375,36.1328125,32.2265625
1771539456.8944688,50.78125,472.65625,0.48828125,57.6171875,0.48828125
1771539456.898375,21.484375,446.77734375,13.671875,56.15234375,17.578125
1771539456.9022813,-7.8125,448.2421875,10.7421875,44.921875,43.9453125
1771539456.9061875,32.71484375,484.375,1.46484375,60.05859375,17.578125
1771539456.9100938,79.1015625,458.49609375,13.671875,102.5390625,6.8359375
1771539456.912125,70.3125,432.6171875,22.94921875,92.7734375,85.44921875
1771539456.9160314,67.3828125,414.55078125,16.11328125,78.61328125,49.8046875
1771539456.9199376,79.1015625,414.55078125,17.08984375,112.79296875,-44.43359375
1771539456.9238439,88.37890625,397.94921875,20.01953125,116.2109375,21.97265625
1771539456.92775,88.8671875,351.07421875,16.11328125,101.07421875,53.7109375
1771539456.9316564,107.421875,335.44921875,19.53125,139.6484375,30.76171875
1771539456.9355626,116.69921875,354.4921875,22.4609375,178.7109375,5.859375
1771539456.9394689,115.72265625,334.9609375,28.3203125,146.484375,-10.7421875
1771539456.943375,129.8828125,288.0859375,30.2734375,135.7421875,2.9296875
1771539456.9472814,138.671875,321.2890625,26.85546875,163.0859375,12.6953125
1771539456.9511876,142.08984375,317.3828125,33.203125,177.734375,10.25390625
1771539456.9550939,136.71875,269.04296875,32.71484375,186.03515625,15.625
1771539456.957125,137.6953125,274.4140625,24.4140625,184.08203125,35.64453125
1771539456.9610312,150.390625,305.6640625,16.6015625,181.640625,25.87890625
1771539456.9649374,156.25,315.91796875,14.6484375,187.98828125,37.59765625
1771539456.9688437,150.87890625,288.0859375,15.13671875,194.82421875,28.3203125
1771539456.97275,168.9453125,309.5703125,10.7421875,187.5,11.71875
1771539456.9766562,176.26953125,331.0546875,6.34765625,193.84765625,47.36328125
1771539456.9805624,154.296875,336.9140625,9.765625,195.80078125,57.6171875
1771539456.9844687,149.90234375,303.7109375,3.90625,188.96484375,7.32421875
1771539456.988375,159.1796875,292.96875,0.0,192.3828125,-10.7421875
1771539456.9922812,152.34375,340.33203125,-0.48828125,188.96484375,38.0859375
1771539456.9961874,154.296875,307.12890625,-5.37109375,197.75390625,27.34375
1771539457.0000937,164.55078125,284.66796875,-5.37109375,203.61328125,55.17578125
1771539457.002125,185.05859375,283.203125,-5.37109375,201.171875,41.9921875
1771539457.0060313,200.1953125,279.78515625,-7.8125,202.63671875,-39.55078125
1771539457.0099375,168.45703125,270.01953125,-9.765625,196.77734375,-0.9765625
1771539457.0138438,161.1328125,270.01953125,-15.625,198.73046875,81.54296875
1771539457.01775,187.98828125,266.11328125,-22.94921875,201.66015625,99.12109375
1771539457.0216563,189.94140625,236.81640625,-21.97265625,222.65625,84.47265625
1771539457.0255625,186.03515625,247.55859375,-15.625,216.30859375,86.9140625
1771539457.0294688,179.19921875,229.4921875,-11.71875,195.3125,72.265625
1771539457.033375,181.640625,237.3046875,-17.578125,197.75390625,49.31640625
1771539457.0372813,182.6171875,262.6953125,-21.484375,196.2890625,60.546875
1771539457.0411875,165.52734375,211.42578125,-18.5546875,189.94140625,68.359375
1771539457.0450938,177.734375,218.75,-19.53125,187.01171875,32.71484375
1771539457.047125,186.5234375,242.1875,-20.5078125,192.87109375,-19.04296875
1771539457.0510314,168.45703125,216.796875,-20.99609375,182.6171875,-18.06640625
1771539457.0549376,153.80859375,201.171875,-14.6484375,175.78125,9.765625
1771539457.0588439,158.203125,215.8203125,-14.16015625,178.7109375,31.25
1771539457.06275,167.48046875,229.98046875,-14.6484375,169.921875,29.296875
1771539457.0666564,158.69140625,220.21484375,-10.25390625,167.48046875,27.83203125
1771539457.0705626,154.296875,208.0078125,-14.6484375,164.0625,27.34375
1771539457.0744689,143.06640625,227.05078125,-18.06640625,154.296875,4.8828125
1771539457.078375,145.01953125,269.04296875,-20.01953125,155.2734375,51.26953125
1771539457.0822814,148.92578125,263.18359375,-20.5078125,145.99609375,76.171875
1771539457.0861876,131.34765625,239.74609375,-15.625,138.671875,37.109375
1771539457.0900939,117.67578125,257.32421875,-14.6484375,131.8359375,52.24609375
1771539457.092125,120.60546875,266.6015625,-13.671875,149.4140625,26.85546875
1771539457.0960312,127.9296875,245.1171875,-12.6953125,174.31640625,30.76171875
1771539457.0999374,127.44140625,240.234375,-18.5546875,145.99609375,60.546875
1771539457.1038437,139.16015625,248.53515625,-20.5078125,124.0234375,-0.48828125
1771539457.10775,148.92578125,246.09375,-17.08984375,133.30078125,0.9765625
1771539457.1116562,135.7421875,220.21484375,-12.6953125,149.4140625,45.41015625
1771539457.1155624,126.953125,205.078125,-13.18359375,158.69140625,62.5
1771539457.1194687,130.859375,240.234375,-16.11328125,136.71875,37.59765625
1771539457.123375,144.04296875,261.23046875,-14.6484375,127.9296875,4.39453125
1771539457.1272812,127.9296875,240.234375,-14.16015625,137.6953125,47.8515625
1771539457.1311874,114.74609375,222.65625,-13.671875,145.99609375,66.89453125
1771539457.1350937,131.8359375,231.4453125,-9.27734375,145.99609375,-19.04296875
1771539457.152125,126.46484375,233.3984375,-11.23046875,138.18359375,-18.06640625
1771539457.1560311,125.9765625,202.1484375,-15.625,125.0,16.6015625
1771539457.1599374,143.5546875,222.16796875,-12.6953125,127.44140625,59.5703125
1771539457.1638436,145.5078125,261.71875,-8.7890625,147.4609375,124.0234375
1771539457.16775,129.8828125,241.2109375,-9.27734375,124.51171875,73.73046875
1771539457.1716561,116.2109375,205.078125,-9.27734375,110.3515625,73.2421875
1771539457.1755624,117.1875,218.75,-6.8359375,125.0,83.49609375
1771539457.1794686,119.140625,268.5546875,-7.32421875,120.60546875,57.6171875
1771539457.183375,119.140625,240.234375,-13.18359375,115.234375,88.37890625
1771539457.1872811,114.2578125,223.14453125,-10.25390625,124.51171875,24.90234375
1771539457.1911874,104.4921875,240.234375,-10.25390625,116.69921875,43.9453125
1771539457.1950936,98.14453125,228.02734375,-14.16015625,109.86328125,90.8203125
1771539457.197125,91.30859375,195.80078125,-13.18359375,104.00390625,20.01953125
1771539457.2010312,98.14453125,198.2421875,-9.27734375,102.5390625,5.37109375
1771539457.2049375,105.46875,235.3515625,-4.39453125,138.18359375,19.53125
1771539457.2088437,116.2109375,228.515625,-9.27734375,137.20703125,51.7578125
1771539457.21275,108.3984375,180.6640625,-14.6484375,107.421875,6.8359375
1771539457.2166562,105.95703125,160.15625,-11.23046875,117.67578125,8.30078125
1771539457.2205625,132.32421875,169.43359375,-7.8125,140.625,59.5703125
1771539457.2244687,124.0234375,175.78125,-10.25390625,134.765625,33.69140625
1771539457.228375,110.3515625,137.20703125,-13.671875,124.51171875,11.71875
1771539457.2322812,107.421875,104.98046875,-14.16015625,121.58203125,38.0859375
1771539457.2361875,108.3984375,158.69140625,-10.7421875,125.0,78.61328125
1771539457.2400937,109.375,150.390625,-11.71875,134.27734375,12.6953125
1771539457.242125,104.4921875,121.09375,-16.6015625,117.1875,-13.18359375
1771539457.2460313,104.4921875,137.6953125,-18.06640625,105.46875,10.7421875
1771539457.2499375,91.30859375,141.11328125,-14.16015625,100.09765625,10.25390625
1771539457.2538438,83.0078125,139.16015625,-15.13671875,91.796875,9.765625
1771539457.25775,86.9140625,118.1640625,-15.13671875,95.703125,23.4375
1771539457.2616563,94.7265625,101.07421875,-11.23046875,93.26171875,-20.5078125
1771539457.2655625,96.19140625,143.06640625,-10.25390625,81.54296875,-12.6953125
1771539457.2694688,83.49609375,167.48046875,-12.6953125,83.49609375,18.5546875
1771539457.273375,83.0078125,112.79296875,-13.671875,95.703125,-3.41796875
1771539457.2772813,86.42578125,119.140625,-13.18359375,90.8203125,20.01953125
1771539457.2811875,72.75390625,181.15234375,-14.16015625,78.125,65.4296875
1771539457.2850938,64.453125,162.59765625,-13.18359375,87.40234375,58.10546875
1771539457.287125,81.0546875,154.296875,-12.20703125,80.56640625,-2.44140625
1771539457.2910314,85.44921875,164.0625,-5.37109375,73.73046875,32.71484375
1771539457.2949376,69.3359375,166.015625,-1.953125,74.21875,50.78125
1771539457.2988439,63.96484375,159.66796875,-4.39453125,75.1953125,20.5078125
1771539457.30275,68.359375,147.94921875,-0.9765625,75.1953125,-16.6015625
1771539457.3066564,55.17578125,152.83203125,-5.37109375,79.1015625,-15.13671875
1771539457.3105626,43.9453125,161.62109375,-10.25390625,73.2421875,32.71484375
1771539457.3144689,55.17578125,157.71484375,0.0,78.125,36.1328125
1771539457.318375,65.91796875,120.60546875,2.44140625,75.1953125,27.83203125
1771539457.3222814,66.40625,146.97265625,0.9765625,71.77734375,22.94921875
1771539457.3261876,61.5234375,178.7109375,0.48828125,85.9375,46.875
1771539457.3300939,87.890625,104.98046875,5.37109375,93.75,22.4609375
1771539457.332125,107.421875,96.19140625,3.90625,94.23828125,-22.94921875
1771539457.3360312,61.5234375,137.20703125,-12.20703125,59.5703125,44.43359375
1771539457.3399374,61.5234375,115.72265625,-11.71875,62.5,78.61328125
1771539457.3438437,83.0078125,91.796875,-1.953125,102.5390625,37.59765625
1771539457.34775,62.5,94.23828125,-3.90625,82.03125,35.64453125
1771539457.3516562,58.59375,71.2890625,-2.9296875,54.6875,42.96875
1771539457.3555624,71.77734375,73.2421875,2.44140625,65.91796875,24.4140625
1771539457.3594687,68.84765625,41.50390625,1.953125,73.73046875,14.6484375
1771539457.363375,73.73046875,15.625,1.46484375,81.54296875,32.71484375
1771539457.3672812,75.1953125,76.66015625,2.44140625,85.9375,17.08984375
1771539457.3711874,68.359375,76.66015625,0.48828125,83.0078125,27.34375
1771539457.3750937,82.03125,50.29296875,3.41796875,71.2890625,21.484375
1771539457.377125,67.3828125,40.52734375,1.46484375,57.6171875,-31.73828125
1771539457.3810313,70.80078125,50.29296875,3.41796875,78.125,37.109375
1771539457.3849375,74.70703125,42.48046875,12.6953125,101.5625,86.9140625
1771539457.3888438,62.98828125,18.06640625,10.25390625,91.796875,35.15625
1771539457.39275,56.640625,14.16015625,6.8359375,53.22265625,29.296875
1771539457.3966563,57.6171875,0.48828125,7.8125,45.41015625,27.34375
1771539457.4005625,66.89453125,-10.7421875,10.25390625,64.94140625,29.296875
1771539457.4044688,61.5234375,-25.87890625,10.7421875,73.73046875,31.73828125
1771539457.408375,47.36328125,9.27734375,5.859375,73.2421875,18.5546875
1771539457.4122813,42.48046875,8.30078125,5.859375,65.91796875,20.01953125
1771539457.4161875,51.7578125,-37.109375,7.32421875,58.10546875,52.24609375
1771539457.4200938,69.82421875,-32.2265625,5.859375,65.4296875,45.8984375
1771539457.422125,68.359375,-1.46484375,6.34765625,66.40625,12.6953125
1771539457.4260314,61.03515625,-15.13671875,3.90625,77.1484375,-7.32421875
1771539457.4299376,62.5,-39.55078125,4.8828125,76.171875,-23.4375
1771539457.4338439,58.10546875,-40.52734375,4.8828125,63.96484375,-0.9765625
1771539457.43775,54.19921875,-48.828125,1.46484375,66.89453125,40.0390625
1771539457.4416564,54.19921875,-50.78125,5.859375,71.2890625,76.171875
1771539457.4455626,74.21875,-66.40625,10.7421875,70.3125,26.3671875
1771539457.4494689,75.68359375,-53.22265625,10.25390625,69.82421875,26.3671875
1771539457.453375,50.29296875,-7.8125,4.39453125,76.171875,52.24609375
1771539457.4572814,57.6171875,-39.0625,3.90625,70.3125,10.7421875
1771539457.4611876,59.08203125,-63.96484375,5.37109375,56.640625,3.90625
1771539457.4650939,50.78125,-60.546875,2.9296875,55.17578125,48.828125
1771539457.468125,60.546875,-62.01171875,5.37109375,61.5234375,44.921875
1771539457.4720314,55.17578125,-67.87109375,12.20703125,77.63671875,3.90625
1771539457.4759376,52.24609375,-69.82421875,14.16015625,90.33203125,59.5703125
1771539457.4798439,54.19921875,-62.5,12.20703125,66.40625,68.84765625
1771539457.48375,45.41015625,-75.68359375,9.27734375,42.96875,39.55078125
1771539457.4876564,70.80078125,-122.0703125,19.53125,81.54296875,64.94140625
1771539457.4915626,107.91015625,-160.64453125,35.15625,125.0,31.25
1771539457.4954689,70.3125,-98.14453125,15.13671875,83.49609375,8.30078125
1771539457.499375,31.25,-60.05859375,-2.9296875,55.17578125,45.8984375
1771539457.5032814,59.5703125,-98.6328125,-3.90625,76.171875,51.26953125
1771539457.5071876,101.5625,-106.4453125,-3.90625,94.23828125,7.8125
1771539457.5110939,132.8125,-72.265625,-5.37109375,104.00390625,-20.5078125
1771539457.527125,156.25,-44.921875,-17.08984375,117.67578125,14.6484375
1771539457.5310311,173.33984375,-56.15234375,-17.08984375,153.80859375,24.90234375
1771539457.5349374,191.89453125,-66.40625,-23.4375,186.5234375,12.6953125
1771539457.5388436,206.0546875,-42.48046875,-33.69140625,173.828125,24.4140625
1771539457.54275,216.796875,-8.7890625,-33.69140625,155.2734375,54.6875
1771539457.5466561,225.5859375,-47.36328125,-36.1328125,180.6640625,37.109375
1771539457.5505624,225.09765625,-41.015625,-38.57421875,183.59375,7.32421875
1771539457.5544686,216.796875,39.55078125,-43.45703125,173.33984375,-0.48828125
1771539457.558375,231.4453125,29.78515625,-40.0390625,199.21875,11.23046875
1771539457.5622811,232.421875,9.27734375,-44.43359375,201.171875,46.875
1771539457.5661874,213.37890625,27.83203125,-56.640625,167.96875,17.08984375
1771539457.5700936,224.609375,44.43359375,-62.01171875,171.875,39.0625
1771539457.572125,253.41796875,28.3203125,-62.5,196.77734375,15.625
1771539457.5760312,253.41796875,29.296875,-55.17578125,194.82421875,-27.83203125
1771539457.5799375,235.3515625,52.24609375,-54.19921875,179.6875,31.25
1771539457.5838437,217.7734375,44.921875,-58.10546875,178.7109375,66.40625
1771539457.58775,211.42578125,30.2734375,-52.24609375,169.43359375,85.44921875
1771539457.5916562,207.51953125,22.94921875,-45.41015625,157.71484375,65.4296875
1771539457.5955625,194.3359375,35.15625,-40.0390625,155.2734375,45.8984375
1771539457.5994687,174.8046875,45.41015625,-39.55078125,142.578125,74.70703125
1771539457.603375,156.73828125,44.921875,-38.57421875,141.11328125,29.78515625
1771539457.6072812,160.64453125,17.08984375,-29.78515625,144.04296875,-23.4375
1771539457.6111875,174.8046875,64.94140625,-25.390625,142.08984375,-6.34765625
1771539457.6150937,154.78515625,87.890625,-26.85546875,131.34765625,13.18359375
1771539457.617125,124.51171875,47.8515625,-26.3671875,127.9296875,25.87890625
1771539457.6210313,126.46484375,60.546875,-23.92578125,138.18359375,41.9921875
1771539457.6249375,127.44140625,78.125,-23.92578125,119.140625,93.75
1771539457.6288438,121.09375,71.77734375,-21.97265625,97.65625,79.1015625
1771539457.63275,103.515625,47.36328125,-16.6015625,98.14453125,41.9921875
1771539457.6366563,112.3046875,41.50390625,-16.6015625,101.07421875,68.359375
1771539457.6405625,110.83984375,61.5234375,-16.11328125,84.9609375,92.28515625
1771539457.6444688,94.7265625,67.3828125,-14.16015625,91.30859375,70.80078125
1771539457.648375,104.4921875,32.2265625,-9.27734375,94.7265625,26.3671875
1771539457.6522813,116.2109375,45.8984375,-3.90625,100.09765625,-5.37109375
1771539457.6561875,110.3515625,122.55859375,-2.9296875,111.328125,-8.30078125
1771539457.6600938,90.33203125,120.60546875,-1.46484375,97.65625,31.25
1771539457.662125,80.078125,92.28515625,0.9765625,78.61328125,22.4609375
1771539457.6660314,92.7734375,107.91015625,0.9765625,83.0078125,-29.296875
1771539457.6699376,109.375,121.09375,3.90625,84.9609375,22.94921875
1771539457.6738439,101.07421875,98.14453125,1.953125,90.8203125,28.80859375
1771539457.67775,81.54296875,89.35546875,-1.46484375,94.7265625,4.8828125
1771539457.6816564,83.0078125,110.83984375,1.46484375,87.40234375,62.01171875
1771539457.6855626,84.47265625,125.0,2.44140625,89.35546875,105.46875
1771539457.6894689,83.49609375,115.234375,2.44140625,93.75,53.7109375
1771539457.693375,81.0546875,99.12109375,4.8828125,80.56640625,9.765625
1771539457.6972814,70.3125,145.01953125,4.8828125,53.7109375,67.87109375
1771539457.7011876,64.94140625,158.203125,2.44140625,52.24609375,66.89453125
1771539457.7050939,62.98828125,104.4921875,1.953125,59.08203125,-5.37109375
1771539457.706125,56.640625,104.00390625,3.90625,56.640625,24.90234375
1771539457.7100313,48.33984375,142.08984375,7.32421875,78.125,71.2890625
1771539457.7139375,56.640625,132.32421875,4.8828125,76.171875,34.1796875
1771539457.7178438,69.82421875,129.39453125,4.8828125,44.921875,52.24609375
1771539457.72175,62.98828125,126.953125,8.7890625,54.6875,42.96875
1771539457.7256563,55.6640625,119.140625,8.30078125,68.359375,-7.8125
1771539457.7295625,58.10546875,145.01953125,11.71875,72.265625,39.0625
1771539457.7334688,60.546875,121.58203125,13.18359375,64.453125,31.73828125
1771539457.737375,56.640625,125.9765625,14.6484375,54.19921875,3.90625
1771539457.7412813,58.59375,168.9453125,12.6953125,49.31640625,36.62109375
1771539457.7451875,56.15234375,144.04296875,9.765625,43.9453125,23.4375
1771539457.7490938,68.84765625,137.20703125,10.25390625,47.36328125,-6.34765625
1771539457.753125,74.70703125,155.76171875,14.16015625,52.734375,-17.08984375
1771539457.7570312,33.203125,175.78125,15.625,70.80078125,40.52734375
1771539457.7609375,27.83203125,159.1796875,12.6953125,61.5234375,53.22265625
1771539457.7648437,48.828125,157.2265625,18.06640625,41.9921875,-21.97265625
1771539457.76875,47.8515625,166.50390625,21.484375,46.875,-11.23046875
1771539457.7726562,37.59765625,145.5078125,19.53125,47.8515625,25.87890625
1771539457.7765625,39.55078125,145.01953125,20.99609375,44.43359375,-27.83203125
1771539457.7804687,41.50390625,144.53125,22.4609375,41.50390625,-29.296875
1771539457.784375,33.69140625,179.6875,22.94921875,49.8046875,42.96875
1771539457.7882812,32.2265625,186.03515625,23.4375,52.24609375,36.1328125
1771539457.7921875,39.55078125,146.97265625,22.94921875,55.17578125,-28.3203125
1771539457.7960937,43.45703125,162.109375,23.92578125,61.5234375,14.6484375
1771539457.797125,57.12890625,176.7578125,21.484375,60.05859375,30.76171875
1771539457.8010314,60.05859375,178.22265625,16.6015625,63.4765625,7.32421875
1771539457.8049376,41.9921875,164.55078125,20.5078125,53.7109375,35.15625
1771539457.8088439,43.9453125,178.7109375,21.484375,41.9921875,35.64453125
1771539457.81275,39.55078125,200.68359375,17.08984375,40.52734375,62.98828125
1771539457.8166564,37.59765625,174.31640625,17.578125,53.22265625,15.13671875
1771539457.8205626,52.24609375,158.69140625,20.01953125,63.4765625,6.34765625
1771539457.8244689,46.875,174.8046875,17.578125,51.26953125,54.19921875
1771539457.828375,34.1796875,226.5625,17.08984375,41.50390625,33.203125
1771539457.8322814,40.52734375,207.03125,20.5078125,43.45703125,36.1328125
1771539457.8361876,45.41015625,193.84765625,18.5546875,49.8046875,60.05859375
1771539457.8400939,41.50390625,198.2421875,18.5546875,29.78515625,89.84375
1771539457.842125,31.73828125,186.03515625,20.99609375,25.390625,16.11328125
1771539457.8460312,31.25,193.84765625,22.94921875,41.015625,-7.8125
1771539457.8499374,39.0625,204.58984375,23.92578125,34.1796875,78.61328125
1771539457.8538437,25.390625,208.0078125,23.4375,41.50390625,71.2890625
1771539457.85775,20.5078125,210.9375,19.53125,38.57421875,61.03515625
1771539457.8616562,40.0390625,196.77734375,16.6015625,34.1796875,92.7734375
1771539457.8655624,39.55078125,158.203125,15.13671875,42.96875,46.38671875
1771539457.8694687,24.90234375,193.84765625,11.71875,30.2734375,40.0390625
1771539457.873375,26.3671875,225.09765625,13.18359375,22.4609375,68.84765625
1771539457.8772812,20.01953125,186.5234375,15.625,40.52734375,35.64453125
1771539457.8811874,9.765625,182.12890625,18.06640625,42.48046875,35.64453125
1771539457.8850937,18.5546875,201.171875,17.578125,28.80859375,80.078125
1771539457.903125,20.01953125,194.82421875,17.578125,22.94921875,51.26953125
1771539457.9070313,11.23046875,176.7578125,15.13671875,23.4375,-3.41796875
1771539457.9109375,17.08984375,187.5,14.6484375,17.578125,63.96484375
1771539457.9148438,27.83203125,194.3359375,16.11328125,13.18359375,34.66796875
1771539457.91875,37.59765625,187.98828125,16.11328125,25.87890625,-47.8515625
1771539457.9226563,42.96875,169.43359375,20.5078125,49.31640625,13.18359375
1771539457.9265625,29.78515625,194.3359375,11.71875,41.50390625,43.9453125
1771539457.9304688,38.0859375,234.86328125,0.0,35.15625,26.85546875
1771539457.934375,26.85546875,223.14453125,23.92578125,17.08984375,27.83203125
1771539457.9382813,-30.76171875,172.8515625,39.55078125,-31.25,-11.71875
1771539457.9421875,-56.640625,183.59375,31.73828125,-42.96875,41.9921875
1771539457.9460938,-62.98828125,196.2890625,39.0625,-42.48046875,59.08203125
1771539457.947125,-69.82421875,165.0390625,46.38671875,-58.59375,-29.296875
1771539457.9510312,-105.46875,151.3671875,60.546875,-79.58984375,-12.20703125
1771539457.9549375,-134.27734375,143.5546875,64.94140625,-90.8203125,20.99609375
1771539457.9588437,-162.109375,127.44140625,74.70703125,-134.27734375,29.296875
1771539457.96275,-196.2890625,91.796875,86.42578125,-173.33984375,58.10546875
1771539457.9666562,-200.68359375,70.3125,92.7734375,-169.43359375,8.30078125
1771539457.9705625,-225.09765625,87.40234375,108.3984375,-180.17578125,-4.8828125
1771539457.9744687,-222.16796875,85.9375,113.28125,-155.2734375,27.34375
1771539457.978375,-224.12109375,54.6875,115.72265625,-140.625,56.15234375
1771539457.9822812,-241.69921875,0.0,122.0703125,-183.10546875,82.03125
1771539457.9861875,-236.81640625,34.1796875,120.1171875,-184.08203125,19.04296875
1771539457.9900937,-233.88671875,71.2890625,117.67578125,-168.9453125,1.953125
1771539457.992125,-211.42578125,30.76171875,113.76953125,-140.13671875,25.87890625
1771539457.9960313,-211.9140625,28.80859375,114.2578125,-135.7421875,20.5078125
1771539457.9999375,-212.40234375,37.109375,113.76953125,-134.765625,-26.85546875
1771539458.0038438,-167.96875,39.0625,111.81640625,-105.95703125,-4.39453125
1771539458.00775,-149.90234375,20.5078125,105.46875,-104.00390625,-3.41796875
1771539458.0116563,-149.4140625,15.13671875,104.4921875,-86.42578125,-52.24609375
1771539458.0155625,-126.953125,42.48046875,105.95703125,-69.3359375,1.46484375
1771539458.0194688,-125.48828125,84.47265625,96.6796875,-61.5234375,68.84765625
1771539458.023375,-111.328125,68.84765625,85.44921875,-41.9921875,97.65625
1771539458.0272813,-73.2421875,63.4765625,74.70703125,-34.1796875,20.99609375
1771539458.0311875,-82.51953125,130.37109375,70.3125,-43.45703125,3.41796875
1771539458.0350938,-85.9375,120.60546875,72.75390625,-34.66796875,50.78125
1771539458.037125,-70.80078125,115.234375,65.4296875,-12.20703125,24.4140625
1771539458.0410314,-52.734375,161.1328125,61.5234375,-5.37109375,48.828125
1771539458.0449376,-39.0625,164.0625,61.5234375,8.30078125,37.109375
1771539458.0488439,-36.62109375,153.3203125,55.6640625,20.01953125,-17.08984375
1771539458.05275,-32.71484375,154.296875,51.7578125,10.25390625,-11.23046875
1771539458.0566564,-27.34375,161.62109375,47.8515625,15.13671875,3.41796875
1771539458.0605626,-36.1328125,179.6875,44.921875,9.27734375,25.87890625
1771539458.0644689,-41.50390625,192.87109375,41.50390625,0.48828125,57.12890625
1771539458.068375,-6.34765625,177.24609375,41.50390625,19.53125,72.265625
1771539458.0722814,6.8359375,194.82421875,41.50390625,29.296875,3.41796875
1771539458.0761876,2.44140625,212.890625,35.64453125,39.0625,9.27734375
1771539458.0800939,8.7890625,180.6640625,29.296875,42.96875,56.15234375
1771539458.083125,9.27734375,184.08203125,26.85546875,35.15625,-13.671875
1771539458.0870314,18.5546875,201.171875,27.83203125,37.109375,3.41796875
1771539458.0909376,30.2734375,192.3828125,30.2734375,45.41015625,31.73828125
1771539458.0948439,39.55078125,183.59375,28.80859375,49.8046875,-0.9765625
1771539458.09875,29.296875,179.19921875,25.87890625,53.7109375,38.0859375
1771539458.1026564,23.92578125,160.64453125,27.83203125,57.6171875,42.96875
1771539458.1065626,23.92578125,173.828125,27.34375,53.22265625,41.50390625
1771539458.1104689,16.6015625,162.109375,23.92578125,30.2734375,59.5703125
1771539458.114375,22.4609375,156.25,25.87890625,36.62109375,33.69140625
1771539458.1182814,22.4609375,218.26171875,24.90234375,44.43359375,-0.9765625
1771539458.1221876,26.3671875,207.51953125,21.484375,37.109375,61.5234375
1771539458.1260939,21.484375,182.12890625,21.484375,41.50390625,86.9140625
1771539458.127125,6.8359375,178.22265625,20.99609375,34.66796875,-12.6953125
1771539458.1310313,12.20703125,183.10546875,23.92578125,25.87890625,-10.7421875
1771539458.1349375,27.34375,161.1328125,26.85546875,35.15625,30.76171875
1771539458.1388438,23.4375,151.3671875,29.296875,40.52734375,23.92578125
1771539458.14275,27.34375,152.83203125,31.73828125,40.52734375,8.30078125
1771539458.1466563,33.203125,141.6015625,25.87890625,46.875,18.5546875
1771539458.1505625,27.34375,148.92578125,23.4375,43.9453125,7.32421875
1771539458.1544688,24.4140625,120.1171875,21.97265625,37.59765625,-0.9765625
1771539458.158375,9.27734375,140.13671875,21.97265625,36.62109375,30.2734375
1771539458.1622813,20.5078125,181.15234375,22.4609375,39.55078125,43.45703125
1771539458.1661875,23.4375,150.87890625,22.94921875,48.33984375,84.9609375
1771539458.1700938,21.484375,146.484375,23.92578125,42.48046875,83.49609375
1771539458.173125,23.92578125,156.73828125,27.34375,27.83203125,19.04296875
1771539458.1770313,15.625,151.85546875,27.83203125,33.69140625,61.03515625
1771539458.1809375,22.4609375,122.55859375,28.3203125,54.6875,92.28515625
1771539458.1848438,46.38671875,111.328125,43.9453125,89.35546875,77.1484375
1771539458.18875,66.40625,122.0703125,43.45703125,90.33203125,47.36328125
1771539458.1926563,22.94921875,137.20703125,13.671875,20.99609375,-31.73828125
1771539458.1965625,14.16015625,122.55859375,6.34765625,6.34765625,-40.0390625
1771539458.2004688,53.22265625,121.58203125,12.6953125,39.0625,35.15625
1771539458.204375,36.62109375,180.6640625,4.39453125,10.7421875,24.90234375
1771539458.2082813,10.25390625,166.9921875,3.90625,19.04296875,10.7421875
1771539458.2121875,39.0625,150.87890625,4.8828125,43.45703125,21.484375
1771539458.2160938,21.484375,154.78515625,6.8359375,-4.39453125,-1.46484375
1771539458.217125,-5.859375,159.66796875,9.765625,3.41796875,22.94921875
1771539458.2210312,14.16015625,159.66796875,0.48828125,27.34375,67.87109375
1771539458.2249374,23.92578125,152.34375,-0.9765625,22.94921875,63.4765625
1771539458.2288437,25.87890625,150.87890625,7.8125,23.4375,36.62109375
1771539458.23275,32.2265625,139.16015625,5.37109375,41.9921875,68.359375
1771539458.2366562,30.2734375,122.0703125,7.32421875,43.9453125,62.98828125
1771539458.2405624,22.94921875,97.16796875,12.20703125,33.203125,4.8828125
1771539458.2444687,32.71484375,141.6015625,5.859375,31.73828125,-14.6484375
1771539458.248375,34.1796875,169.921875,8.30078125,33.69140625,20.5078125
1771539458.2522812,44.921875,121.58203125,14.6484375,38.57421875,34.66796875
1771539458.2561874,51.7578125,136.71875,13.18359375,33.203125,83.0078125
1771539458.2600937,39.0625,174.8046875,14.6484375,34.1796875,82.51953125
1771539458.277125,37.109375,164.55078125,16.6015625,40.0390625,-8.30078125
1771539458.2810311,30.2734375,147.94921875,14.16015625,39.0625,31.25
1771539458.2849374,28.80859375,147.4609375,15.13671875,37.109375,72.265625
1771539458.2888436,36.1328125,157.2265625,12.6953125,42.96875,38.57421875
1771539458.29275,32.71484375,141.11328125,12.6953125,47.36328125,-8.30078125
1771539458.2966561,34.1796875,106.4453125,20.5078125,47.36328125,61.5234375
1771539458.3005624,38.57421875,111.81640625,18.5546875,23.92578125,75.1953125
1771539458.3044686,35.64453125,157.71484375,16.6015625,31.25,-9.765625
1771539458.308375,47.8515625,145.99609375,20.5078125,58.10546875,-2.9296875
1771539458.3122811,54.6875,125.0,20.01953125,56.15234375,-46.38671875
1771539458.3161874,21.97265625,137.20703125,17.578125,44.921875,0.48828125
1771539458.3200936,14.6484375,121.58203125,20.01953125,41.50390625,40.0390625
1771539458.322125,21.484375,117.67578125,17.578125,45.41015625,35.15625
1771539458.3260312,27.83203125,117.67578125,15.13671875,37.59765625,70.3125
1771539458.3299375,40.0390625,108.3984375,19.04296875,46.38671875,-1.46484375
1771539458.3338437,29.296875,114.74609375,21.97265625,51.7578125,3.41796875
1771539458.33775,27.83203125,102.05078125,23.92578125,46.38671875,56.15234375
1771539458.3416562,30.76171875,87.890625,22.94921875,54.6875,15.625
1771539458.3455625,56.15234375,109.86328125,22.4609375,45.8984375,7.32421875
1771539458.3494687,43.45703125,120.1171875,19.04296875,27.34375,8.7890625
1771539458.353375,5.859375,85.44921875,20.5078125,20.01953125,7.32421875
1771539458.3572812,25.390625,52.734375,24.4140625,29.78515625,31.73828125
1771539458.3611875,24.90234375,92.28515625,19.04296875,41.015625,17.08984375
1771539458.3650937,17.08984375,101.07421875,19.53125,38.57421875,24.90234375
1771539458.368125,46.875,82.51953125,23.4375,36.1328125,21.484375
1771539458.3720312,48.828125,85.9375,24.90234375,39.55078125,41.50390625
1771539458.3759375,23.4375,87.40234375,24.4140625,33.203125,54.19921875
1771539458.3798437,22.4609375,94.23828125,24.4140625,35.15625,32.71484375
1771539458.38375,24.90234375,61.5234375,22.94921875,42.96875,36.62109375
1771539458.3876562,42.48046875,42.48046875,24.90234375,62.01171875,57.6171875
1771539458.3915625,50.78125,65.4296875,25.87890625,69.3359375,44.43359375
1771539458.3954687,35.15625,74.70703125,17.578125,34.1796875,26.85546875
1771539458.399375,35.64453125,28.80859375,20.01953125,19.04296875,28.3203125
1771539458.4032812,47.36328125,44.43359375,24.90234375,33.69140625,42.96875
1771539458.4071875,35.64453125,100.5859375,24.4140625,39.0625,71.77734375
1771539458.4110937,22.94921875,72.75390625,22.94921875,44.43359375,62.5
1771539458.412125,34.66796875,53.7109375,21.97265625,37.109375,-14.6484375
1771539458.4160314,36.1328125,72.265625,23.4375,41.50390625,15.625
1771539458.4199376,38.0859375,78.125,19.04296875,44.43359375,47.8515625
1771539458.4238439,55.6640625,54.19921875,21.97265625,46.38671875,21.97265625
1771539458.42775,64.94140625,28.3203125,32.2265625,54.19921875,56.15234375
1771539458.4316564,46.38671875,32.2265625,33.203125,47.8515625,35.64453125
1771539458.4355626,26.3671875,58.59375,17.578125,27.34375,21.97265625
1771539458.4394689,35.15625,62.01171875,7.32421875,26.3671875,58.59375
1771539458.443375,27.83203125,5.37109375,16.11328125,26.85546875,32.71484375
1771539458.4472814,17.578125,35.15625,18.5546875,14.6484375,17.08984375
1771539458.4511876,33.69140625,79.1015625,20.5078125,41.015625,26.3671875
1771539458.4550939,30.2734375,35.15625,19.04296875,40.52734375,-9.27734375
1771539458.457125,34.1796875,33.69140625,19.04296875,48.828125,24.90234375
1771539458.4610312,37.109375,41.015625,20.01953125,43.45703125,58.10546875
1771539458.4649374,56.15234375,24.4140625,16.6015625,30.76171875,3.90625
1771539458.4688437,40.0390625,3.41796875,20.5078125,45.41015625,-1.953125
1771539458.47275,14.16015625,3.41796875,20.5078125,32.71484375,30.2734375
1771539458.4766562,23.4375,6.34765625,20.01953125,20.01953125,40.0390625
1771539458.4805624,30.76171875,20.01953125,26.85546875,29.78515625,24.4140625
1771539458.4844687,37.59765625,2.44140625,25.87890625,30.2734375,21.97265625
1771539458.488375,40.52734375,4.8828125,23.92578125,21.97265625,73.2421875
1771539458.4922812,40.0390625,55.6640625,23.4375,30.2734375,56.640625
1771539458.4961874,38.57421875,38.57421875,24.4140625,43.9453125,22.94921875
1771539458.5000937,29.296875,41.50390625,23.92578125,47.36328125,31.73828125
1771539458.502125,27.34375,54.19921875,20.01953125,43.9453125,38.0859375
1771539458.5060313,31.73828125,35.64453125,22.94921875,45.8984375,23.92578125
1771539458.5099375,33.69140625,23.92578125,23.4375,58.59375,48.828125
1771539458.5138438,32.2265625,15.625,22.4609375,47.8515625,22.4609375
1771539458.51775,34.66796875,13.671875,22.4609375,37.59765625,-14.6484375
1771539458.5216563,31.25,1.46484375,20.99609375,48.828125,-18.5546875
1771539458.5255625,31.25,-3.41796875,24.90234375,41.50390625,-5.37109375
1771539458.5294688,24.90234375,-1.953125,27.34375,35.64453125,45.8984375
1771539458.533375,28.3203125,28.80859375,26.85546875,38.0859375,44.921875
1771539458.5372813,43.45703125,40.0390625,28.80859375,44.43359375,-13.18359375
1771539458.5411875,28.3203125,10.7421875,23.92578125,49.8046875,-4.8828125
1771539458.5450938,29.78515625,13.671875,21.97265625,38.0859375,41.50390625
1771539458.547125,44.43359375,61.5234375,24.90234375,39.0625,48.33984375
1771539458.5510314,39.0625,53.22265625,23.92578125,45.41015625,55.17578125
1771539458.5549376,29.296875,24.90234375,23.4375,39.55078125,62.01171875
1771539458.5588439,22.94921875,26.85546875,24.90234375,41.015625,13.18359375
1771539458.56275,49.31640625,34.1796875,22.94921875,43.9453125,-21.97265625
1771539458.5666564,44.921875,28.80859375,21.97265625,28.3203125,21.484375
1771539458.5705626,14.16015625,10.25390625,24.90234375,19.53125,74.21875
1771539458.5744689,25.390625,6.34765625,29.296875,28.3203125,8.7890625
1771539458.578375,31.25,49.8046875,29.78515625,48.828125,-62.98828125
1771539458.5822814,34.1796875,34.1796875,24.4140625,43.45703125,32.2265625
1771539458.5861876,32.2265625,-1.46484375,25.390625,32.2265625,67.87109375
1771539458.5900939,32.2265625,-6.8359375,27.34375,27.83203125,42.48046875
1771539458.592125,28.3203125,7.8125,26.3671875,24.4140625,56.15234375
1771539458.5960312,22.4609375,-1.46484375,25.87890625,25.87890625,5.37109375
1771539458.5999374,32.71484375,-2.44140625,28.80859375,34.1796875,4.8828125
1771539458.6038437,28.3203125,27.83203125,28.80859375,42.96875,26.3671875
1771539458.60775,20.01953125,30.2734375,31.25,37.109375,20.5078125
1771539458.6116562,30.76171875,17.578125,34.1796875,38.0859375,48.33984375
1771539458.6155624,32.71484375,1.953125,28.3203125,29.296875,75.68359375
1771539458.6194687,25.390625,28.80859375,25.390625,21.484375,47.36328125
1771539458.623375,22.94921875,50.29296875,30.2734375,16.6015625,40.0390625
1771539458.6272812,31.73828125,19.04296875,35.15625,19.53125,93.75
1771539458.6311874,46.38671875,12.20703125,33.69140625,28.80859375,73.2421875
1771539458.6350937,33.203125,20.01953125,34.1796875,33.203125,39.55078125
1771539458.637125,13.18359375,8.7890625,36.62109375,26.3671875,32.71484375
1771539458.6410313,11.71875,-7.32421875,32.71484375,9.27734375,-1.46484375
1771539458.6449375,12.6953125,5.37109375,29.296875,7.8125,-35.15625
1771539458.6488438,10.7421875,39.55078125,35.64453125,12.20703125,-11.23046875
1771539458.65275,-11.23046875,40.0390625,38.57421875,5.859375,32.2265625
1771539458.6566563,-25.87890625,4.8828125,36.1328125,-9.27734375,3.41796875
1771539458.6605625,-18.5546875,4.39453125,37.59765625,-13.18359375,10.7421875
1771539458.6644688,-14.16015625,51.7578125,38.0859375,-10.7421875,19.53125
1771539458.668375,-18.5546875,38.57421875,34.66796875,-21.97265625,-10.7421875
1771539458.6722813,-13.18359375,20.99609375,37.109375,-23.4375,28.3203125
1771539458.6761875,-32.71484375,31.25,42.96875,-22.4609375,47.36328125
1771539458.6800938,-52.734375,30.2734375,41.9921875,-31.25,58.10546875
1771539458.697125,-41.50390625,10.7421875,45.41015625,-28.80859375,80.078125
1771539458.7010312,-44.921875,-3.90625,50.29296875,-39.55078125,45.41015625
1771539458.7049375,-43.9453125,17.08984375,48.33984375,-36.1328125,16.11328125
1771539458.7088437,-41.50390625,8.30078125,48.33984375,-47.8515625,46.875
1771539458.71275,-63.96484375,-25.87890625,51.7578125,-74.70703125,5.37109375
1771539458.7166562,-76.171875,-47.36328125,52.734375,-78.125,-32.2265625
1771539458.7205625,-74.70703125,-5.37109375,55.17578125,-79.58984375,-12.6953125
1771539458.7244687,-65.4296875,36.1328125,58.59375,-72.75390625,6.34765625
1771539458.728375,-66.89453125,-4.8828125,58.59375,-62.5,16.11328125
1771539458.7322812,-80.078125,-22.94921875,61.03515625,-65.91796875,22.4609375
1771539458.7361875,-86.42578125,-12.6953125,66.40625,-69.3359375,37.59765625
1771539458.7400937,-83.984375,-9.765625,64.94140625,-69.82421875,26.3671875
1771539458.742125,-88.37890625,-35.64453125,70.3125,-93.26171875,70.3125
1771539458.7460313,-84.47265625,-62.01171875,76.66015625,-76.66015625,92.28515625
1771539458.7499375,-81.54296875,-54.6875,71.2890625,-63.96484375,14.6484375
1771539458.7538438,-97.16796875,-36.1328125,62.01171875,-99.12109375,-6.34765625
1771539458.75775,-96.19140625,-36.62109375,58.10546875,-126.953125,2.44140625
1771539458.7616563,-111.328125,-38.57421875,60.05859375,-129.8828125,21.484375
1771539458.7655625,-125.0,-30.2734375,63.96484375,-126.953125,6.34765625
1771539458.7694688,-121.09375,0.48828125,66.89453125,-112.3046875,13.671875
1771539458.773375,-134.765625,-20.01953125,65.4296875,-107.421875,56.640625
1771539458.7772813,-126.953125,-47.36328125,66.89453125,-116.2109375,46.38671875
1771539458.7811875,-124.51171875,3.90625,64.94140625,-131.34765625,30.2734375
1771539458.7850938,-124.51171875,0.9765625,61.03515625,-135.25390625,41.015625
1771539458.787125,-131.34765625,-7.8125,60.05859375,-140.625,22.94921875
1771539458.7910314,-155.2734375,1.46484375,57.6171875,-155.2734375,66.89453125
1771539458.7949376,-146.484375,-3.41796875,54.19921875,-142.08984375,59.5703125
1771539458.7988439,-150.390625,1.953125,50.78125,-156.25,32.71484375
1771539458.80275,-160.64453125,9.27734375,43.9453125,-172.8515625,69.82421875
1771539458.8066564,-142.578125,12.6953125,50.29296875,-161.62109375,26.85546875
1771539458.8105626,-143.5546875,22.4609375,51.7578125,-149.90234375,7.8125
1771539458.8144689,-172.36328125,23.4375,46.875,-140.13671875,26.3671875
1771539458.818375,-158.69140625,-16.6015625,46.875,-144.04296875,51.26953125
1771539458.8222814,-140.625,4.39453125,42.96875,-127.44140625,62.5
1771539458.8261876,-143.06640625,37.109375,36.62109375,-137.6953125,-1.46484375
1771539458.8300939,-132.8125,5.859375,37.109375,-166.015625,12.6953125
1771539458.836125,-118.1640625,-4.8828125,42.96875,-147.4609375,56.15234375
1771539458.8400311,-113.28125,2.9296875,45.8984375,-124.51171875,37.59765625
1771539458.8439374,-107.91015625,-6.8359375,41.015625,-126.46484375,69.3359375
1771539458.8478436,-114.74609375,-25.87890625,35.64453125,-139.6484375,29.78515625
1771539458.85175,-123.53515625,-26.3671875,38.57421875,-128.41796875,20.99609375
1771539458.8556561,-108.88671875,-32.71484375,38.0859375,-114.2578125,7.8125
1771539458.8595624,-107.421875,-2.44140625,35.64453125,-119.62890625,19.04296875
1771539458.8634686,-106.4453125,-15.13671875,40.52734375,-122.0703125,81.54296875
1771539458.867375,-106.93359375,-38.57421875,48.828125,-105.46875,67.87109375
1771539458.8712811,-94.23828125,0.0,45.41015625,-92.28515625,39.55078125
1771539458.8751874,-85.9375,-30.2734375,39.0625,-101.07421875,33.69140625
1771539458.8790936,-115.72265625,-42.96875,42.96875,-109.86328125,9.765625
1771539458.877125,-95.703125,-26.85546875,41.50390625,-108.3984375,7.8125
1771539458.8810313,-70.80078125,-23.4375,33.203125,-94.7265625,33.203125
1771539458.8849375,-83.49609375,-33.69140625,35.64453125,-83.49609375,85.9375
1771539458.8888438,-88.8671875,-58.10546875,40.52734375,-78.125,96.19140625
1771539458.89275,-73.73046875,-53.22265625,41.015625,-76.66015625,-12.20703125
1771539458.8966563,-52.24609375,-38.0859375,37.59765625,-59.5703125,-20.99609375
1771539458.9005625,-51.26953125,-42.96875,31.73828125,-31.73828125,55.17578125
1771539458.9044688,-46.38671875,-69.82421875,32.71484375,-32.71484375,44.43359375
1771539458.908375,-63.4765625,-37.109375,41.50390625,-59.5703125,58.10546875
1771539458.9122813,-51.26953125,-29.296875,46.38671875,-34.66796875,44.921875
1771539458.9161875,-15.13671875,-86.9140625,48.33984375,0.9765625,-24.90234375
1771539458.9200938,-6.34765625,-79.58984375,40.52734375,-12.6953125,-23.92578125
1771539458.923125,-22.4609375,-30.2734375,29.78515625,-2.44140625,37.109375
1771539458.9270313,-15.13671875,-42.48046875,31.73828125,10.25390625,50.78125
1771539458.9309375,18.5546875,-87.40234375,39.0625,8.7890625,-44.43359375
1771539458.9348438,40.0390625,-69.82421875,36.1328125,28.3203125,-51.7578125
1771539458.93875,36.1328125,-36.1328125,19.53125,35.15625,51.7578125
1771539458.9426563,25.390625,-67.3828125,10.7421875,41.50390625,58.10546875
1771539458.9465625,55.6640625,-104.00390625,15.13671875,75.1953125,4.39453125
1771539458.9504688,91.796875,-70.80078125,13.18359375,100.5859375,55.6640625
1771539458.954375,94.7265625,-17.578125,2.9296875,91.30859375,86.42578125
1771539458.9582813,108.88671875,-41.015625,5.37109375,95.703125,75.68359375
1771539458.9621875,135.25390625,-44.43359375,0.9765625,112.3046875,79.1015625
1771539458.9660938,154.78515625,-31.73828125,-3.41796875,129.39453125,89.84375
1771539458.967125,160.64453125,-44.921875,-1.46484375,145.5078125,40.52734375
1771539458.9710312,160.64453125,-72.265625,-6.8359375,161.1328125,-20.99609375
1771539458.9749374,167.48046875,-74.21875,-5.859375,165.0390625,23.92578125
1771539458.9788437,167.48046875,-68.84765625,-6.34765625,185.546875,69.3359375
1771539458.98275,182.12890625,-73.73046875,-9.27734375,201.171875,53.22265625
1771539458.9866562,190.91796875,-65.91796875,-7.32421875,191.89453125,60.546875
1771539458.9905624,213.8671875,-105.46875,-8.30078125,202.1484375,77.1484375
1771539458.9944687,205.56640625,-93.75,-11.23046875,213.8671875,-0.9765625
1771539458.998375,192.3828125,-28.3203125,-13.18359375,216.30859375,46.38671875
1771539459.0022812,204.58984375,-58.59375,-12.6953125,209.9609375,49.8046875
1771539459.0061874,198.2421875,-64.453125,-9.27734375,194.82421875,-9.27734375
1771539459.0100937,192.87109375,-32.2265625,-9.27734375,192.87109375,19.04296875
1771539459.027125,197.265625,-25.390625,-11.23046875,191.89453125,20.01953125
1771539459.0310311,186.03515625,-46.875,-10.7421875,188.96484375,0.0
1771539459.0349374,179.6875,-41.50390625,-5.859375,191.40625,32.2265625
1771539459.0388436,192.87109375,-17.578125,-2.9296875,196.2890625,23.4375
1771539459.04275,189.94140625,-5.859375,-4.39453125,189.94140625,33.69140625
1771539459.0466561,182.12890625,-39.55078125,-4.8828125,181.15234375,64.453125
1771539459.0505624,180.6640625,-42.96875,-8.7890625,180.6640625,-3.41796875
1771539459.0544686,175.29296875,22.4609375,-8.30078125,186.5234375,4.8828125
1771539459.058375,162.59765625,5.859375,-4.39453125,170.8984375,55.6640625
1771539459.0622811,173.33984375,-41.50390625,-3.41796875,163.57421875,63.4765625
1771539459.0661874,174.8046875,-35.15625,-0.9765625,167.48046875,1.953125
1771539459.0700936,161.1328125,-11.23046875,-2.44140625,159.1796875,35.64453125
1771539459.072125,160.64453125,-26.3671875,-2.9296875,164.0625,47.8515625
1771539459.0760312,138.671875,-41.9921875,-3.41796875,162.59765625,-65.91796875
1771539459.0799375,132.32421875,-33.203125,-4.39453125,158.203125,-30.2734375
1771539459.0838437,154.78515625,-27.83203125,1.953125,160.15625,0.9765625
1771539459.08775,151.85546875,-24.90234375,2.44140625,148.92578125,-2.44140625
1771539459.0916562,142.08984375,-34.66796875,-0.48828125,144.53125,46.875
1771539459.0955625,146.484375,-21.484375,0.9765625,142.08984375,33.203125
1771539459.0994687,129.8828125,-3.90625,1.46484375,123.53515625,55.6640625
1771539459.103375,133.7890625,-33.203125,0.9765625,128.90625,70.80078125
1771539459.1072812,141.11328125,-77.63671875,-0.9765625,138.18359375,34.66796875
1771539459.1111875,130.37109375,-34.1796875,3.90625,124.0234375,55.6640625
1771539459.1150937,131.8359375,-5.859375,12.20703125,130.859375,60.546875
1771539459.117125,123.53515625,-40.52734375,11.23046875,124.51171875,13.18359375
1771539459.1210313,109.86328125,-24.4140625,8.7890625,106.93359375,25.87890625
1771539459.1249375,110.83984375,-18.06640625,9.765625,104.4921875,-2.9296875
1771539459.1288438,100.5859375,-31.25,7.32421875,106.4453125,-14.6484375
1771539459.13275,91.796875,-47.36328125,7.8125,95.21484375,11.71875
1771539459.1366563,112.79296875,-47.8515625,9.27734375,99.12109375,-8.30078125
1771539459.1405625,101.07421875,-21.484375,6.8359375,89.84375,70.80078125
1771539459.1444688,85.9375,-16.11328125,8.7890625,77.63671875,62.5
1771539459.148375,90.8203125,-55.17578125,9.27734375,67.3828125,27.83203125
1771539459.1522813,75.1953125,-52.734375,8.7890625,58.10546875,89.35546875
1771539459.1561875,72.75390625,-23.4375,9.765625,65.4296875,36.1328125
1771539459.1600938,67.87109375,-50.78125,8.7890625,66.89453125,10.25390625
1771539459.162125,71.77734375,-55.17578125,12.20703125,76.171875,10.7421875
1771539459.1660314,68.359375,-27.34375,14.6484375,82.51953125,29.296875
1771539459.1699376,57.6171875,-19.53125,8.30078125,68.84765625,65.91796875
1771539459.1738439,71.2890625,-40.0390625,10.25390625,67.3828125,49.8046875
1771539459.17775,62.01171875,-52.734375,15.13671875,69.82421875,33.69140625
1771539459.1816564,44.43359375,-45.41015625,15.13671875,69.3359375,29.296875
1771539459.1855626,60.546875,-29.78515625,16.6015625,82.03125,74.70703125
1771539459.1894689,105.95703125,-46.38671875,9.765625,106.4453125,95.21484375
1771539459.193375,102.05078125,-63.4765625,16.11328125,103.02734375,63.96484375
1771539459.1972814,43.9453125,-43.45703125,24.90234375,53.22265625,63.4765625
1771539459.2011876,42.96875,-57.12890625,33.203125,59.08203125,41.9921875
1771539459.2050939,46.38671875,-101.07421875,41.015625,77.1484375,4.39453125
1771539459.208125,49.8046875,-97.16796875,37.109375,79.58984375,49.31640625
1771539459.2120314,42.96875,-77.63671875,41.50390625,65.4296875,50.29296875
1771539459.2159376,45.8984375,-100.09765625,47.8515625,55.6640625,-49.8046875
1771539459.2198439,55.17578125,-135.25390625,52.24609375,72.75390625,-55.6640625
1771539459.22375,43.9453125,-141.6015625,53.7109375,77.1484375,-18.5546875
1771539459.2276564,49.31640625,-132.32421875,54.19921875,60.546875,-11.71875
1771539459.2315626,52.24609375,-126.46484375,55.17578125,68.359375,19.04296875
1771539459.2354689,52.734375,-155.76171875,59.08203125,91.796875,61.03515625
1771539459.239375,55.17578125,-161.62109375,55.6640625,69.82421875,48.33984375
1771539459.2432814,42.48046875,-110.83984375,49.31640625,34.1796875,29.296875
1771539459.2471876,29.78515625,-133.7890625,48.33984375,38.0859375,41.50390625
1771539459.2510939,42.48046875,-145.99609375,49.31640625,63.96484375,1.46484375
1771539459.252125,34.66796875,-131.34765625,50.29296875,64.94140625,37.109375
1771539459.2560313,30.2734375,-135.25390625,49.31640625,62.01171875,55.17578125
1771539459.2599375,31.25,-136.71875,47.36328125,61.5234375,11.23046875
1771539459.2638438,40.0390625,-133.30078125,44.43359375,71.77734375,31.25
1771539459.26775,53.7109375,-123.53515625,49.31640625,68.84765625,32.2265625
1771539459.2716563,43.45703125,-114.2578125,46.38671875,62.5,22.4609375
1771539459.2755625,45.8984375,-118.1640625,43.9453125,67.87109375,36.1328125
1771539459.2794688,52.24609375,-146.484375,46.875,70.3125,37.59765625
1771539459.283375,52.24609375,-119.140625,45.8984375,72.75390625,2.9296875
1771539459.2872813,55.6640625,-94.23828125,48.828125,84.47265625,-11.23046875
1771539459.2911875,51.7578125,-133.7890625,44.43359375,62.98828125,-15.13671875
1771539459.2950938,39.55078125,-132.32421875,39.55078125,51.26953125,15.13671875
1771539459.297125,60.05859375,-124.51171875,41.9921875,59.5703125,-16.6015625
1771539459.3010314,56.640625,-128.41796875,44.921875,55.17578125,-50.29296875
1771539459.3049376,34.1796875,-138.18359375,45.41015625,58.10546875,0.9765625
1771539459.3088439,40.52734375,-136.71875,38.57421875,52.734375,-15.625
1771539459.31275,45.41015625,-140.13671875,41.015625,69.3359375,1.46484375
1771539459.3166564,41.50390625,-158.203125,41.015625,80.078125,42.96875
1771539459.3205626,35.64453125,-179.19921875,35.15625,64.94140625,43.9453125
1771539459.3244689,43.45703125,-187.98828125,32.2265625,51.7578125,72.75390625
1771539459.328375,48.33984375,-129.8828125,33.69140625,45.41015625,33.69140625
1771539459.3322814,43.45703125,-129.39453125,36.62109375,46.875,11.23046875
1771539459.3361876,42.96875,-151.85546875,32.71484375,45.8984375,23.4375
1771539459.3400939,49.8046875,-143.06640625,35.15625,45.41015625,2.44140625
1771539459.342125,40.0390625,-136.71875,38.57421875,50.29296875,-24.90234375
1771539459.3460312,33.203125,-144.53125,39.0625,57.6171875,-15.625
1771539459.3499374,48.33984375,-155.76171875,41.50390625,57.6171875,8.7890625
1771539459.3538437,49.31640625,-144.53125,37.109375,58.10546875,8.7890625
1771539459.35775,39.55078125,-144.53125,31.25,49.8046875,26.85546875
1771539459.3616562,38.57421875,-168.45703125,33.203125,58.59375,14.16015625
1771539459.3655624,47.8515625,-188.4765625,32.71484375,55.6640625,-19.04296875
