timestamps,TP9,AF7,AF8,TP10,Right AUX
1771539342.972125,40.0390625,388.671875,32.71484375,49.31640625,29.78515625
1771539342.9760313,24.90234375,268.5546875,28.80859375,32.2265625,51.26953125
1771539342.9799376,31.25,290.52734375,32.71484375,27.83203125,33.203125
1771539342.9838438,47.36328125,436.5234375,34.1796875,50.29296875,43.9453125
1771539342.98775,40.0390625,259.765625,31.25,61.5234375,31.25
1771539342.9916563,35.64453125,73.73046875,30.76171875,31.25,-6.8359375
1771539342.9955626,36.62109375,159.66796875,30.2734375,25.390625,7.8125
1771539342.9994688,37.109375,300.78125,28.80859375,44.43359375,32.71484375
1771539343.003375,37.59765625,40.52734375,28.80859375,45.8984375,-8.7890625
1771539343.0072813,40.52734375,-2.44140625,32.71484375,29.78515625,-15.13671875
1771539343.0111876,38.57421875,391.11328125,32.71484375,20.01953125,28.80859375
1771539343.0150938,26.85546875,336.9140625,28.3203125,41.50390625,-2.44140625
1771539343.016125,21.97265625,279.296875,26.85546875,46.875,-1.46484375
1771539343.0200312,21.97265625,387.20703125,27.34375,19.53125,48.828125
1771539343.0239375,12.20703125,349.12109375,27.83203125,7.32421875,29.78515625
1771539343.0278437,18.5546875,220.703125,30.76171875,26.3671875,15.625
1771539343.03175,31.73828125,230.46875,32.71484375,33.69140625,75.1953125
1771539343.0356562,19.53125,210.9375,34.66796875,25.87890625,88.8671875
1771539343.0395625,17.578125,110.83984375,31.73828125,22.4609375,24.90234375
1771539343.0434687,22.4609375,112.3046875,27.34375,12.6953125,53.7109375
1771539343.047375,16.11328125,-167.96875,30.76171875,7.8125,52.24609375
1771539343.0512812,12.20703125,4.39453125,32.2265625,14.6484375,-34.66796875
1771539343.0551875,18.5546875,362.3046875,35.64453125,15.13671875,15.625
1771539343.0590937,18.5546875,315.91796875,35.64453125,21.97265625,87.890625
1771539343.060125,10.25390625,322.75390625,38.0859375,22.94921875,76.171875
1771539343.0640314,9.765625,415.0390625,39.0625,18.06640625,91.796875
1771539343.0679376,10.7421875,307.12890625,35.15625,8.7890625,50.78125
1771539343.0718439,-7.8125,100.09765625,32.71484375,-14.6484375,3.90625
1771539343.07575,-7.32421875,149.4140625,33.69140625,1.46484375,24.90234375
1771539343.0796564,8.30078125,149.4140625,37.59765625,18.5546875,41.015625
1771539343.0835626,8.30078125,32.71484375,38.57421875,6.8359375,12.20703125
1771539343.0874689,18.5546875,-235.3515625,37.59765625,-1.46484375,14.16015625
1771539343.091375,18.06640625,-241.69921875,36.1328125,1.953125,16.6015625
1771539343.0952814,5.859375,238.76953125,41.50390625,14.16015625,-10.7421875
1771539343.0991876,13.18359375,260.7421875,44.43359375,7.32421875,-32.2265625
1771539343.1030939,-1.953125,178.7109375,41.50390625,-12.6953125,39.0625
1771539343.120125,-7.8125,315.4296875,43.9453125,-6.34765625,80.078125
1771539343.1240313,6.8359375,338.37890625,48.828125,14.16015625,27.83203125
1771539343.1279376,8.30078125,200.68359375,43.45703125,11.23046875,27.34375
1771539343.1318438,-2.9296875,77.1484375,40.0390625,-6.8359375,19.04296875
1771539343.13575,-12.20703125,138.18359375,44.43359375,-21.484375,-16.6015625
1771539343.1396563,-1.46484375,129.39453125,43.9453125,-10.7421875,16.11328125
1771539343.1435626,-0.48828125,41.50390625,44.921875,-0.48828125,88.37890625
1771539343.1474688,-10.25390625,127.44140625,47.36328125,-17.08984375,97.16796875
1771539343.151375,-6.8359375,82.03125,47.36328125,-1.46484375,-2.9296875
1771539343.1552813,9.765625,145.99609375,46.38671875,23.92578125,-32.2265625
1771539343.1591876,18.06640625,81.54296875,42.96875,13.18359375,7.8125
1771539343.1630938,6.8359375,-233.3984375,44.921875,5.37109375,20.01953125
1771539343.151125,1.953125,48.33984375,51.26953125,-2.44140625,36.1328125
1771539343.1550312,4.8828125,293.9453125,47.36328125,3.90625,68.359375
1771539343.1589375,0.9765625,212.40234375,48.33984375,17.08984375,49.31640625
1771539343.1628437,0.48828125,191.40625,46.38671875,20.01953125,10.25390625
1771539343.16675,2.9296875,238.28125,41.50390625,6.8359375,29.296875
1771539343.1706562,13.18359375,131.8359375,45.41015625,0.9765625,92.28515625
1771539343.1745625,23.92578125,87.40234375,44.921875,26.3671875,99.12109375
1771539343.1784687,25.87890625,223.6328125,45.41015625,40.0390625,53.7109375
1771539343.182375,28.3203125,242.1875,41.50390625,25.87890625,18.06640625
1771539343.1862812,37.59765625,227.05078125,40.0390625,21.484375,39.0625
1771539343.1901875,38.57421875,-118.1640625,42.96875,38.57421875,71.2890625
1771539343.1940937,31.25,-176.26953125,48.828125,49.31640625,38.57421875
1771539343.211125,33.203125,271.97265625,48.828125,42.96875,39.0625
1771539343.2150311,38.0859375,185.546875,43.9453125,34.1796875,46.875
1771539343.2189374,40.0390625,83.49609375,44.921875,36.62109375,32.2265625
1771539343.2228436,41.015625,203.125,46.875,45.8984375,-20.01953125
1771539343.22675,31.73828125,208.0078125,46.875,42.48046875,-35.64453125
1771539343.2306561,37.59765625,-43.45703125,44.921875,40.52734375,22.94921875
1771539343.2345624,49.8046875,-114.2578125,46.38671875,47.36328125,10.25390625
1771539343.2384686,37.109375,130.859375,44.43359375,42.48046875,-16.6015625
1771539343.242375,35.15625,163.0859375,41.015625,34.1796875,-12.6953125
1771539343.2462811,36.1328125,-20.99609375,41.9921875,29.78515625,1.953125
1771539343.2501874,31.25,-57.12890625,44.43359375,31.73828125,16.11328125
1771539343.2540936,40.0390625,82.51953125,40.0390625,42.96875,32.71484375
1771539343.257125,46.875,84.9609375,36.1328125,44.43359375,25.87890625
1771539343.2610312,35.15625,-301.7578125,32.2265625,39.55078125,18.06640625
1771539343.2649374,37.59765625,-533.203125,26.3671875,36.1328125,35.15625
1771539343.2688437,41.9921875,-40.0390625,26.85546875,34.66796875,89.35546875
1771539343.27275,43.45703125,135.7421875,28.80859375,47.36328125,89.35546875
1771539343.2766562,45.41015625,-183.59375,27.83203125,47.8515625,24.4140625
1771539343.2805624,39.0625,-293.9453125,28.80859375,30.2734375,22.4609375
1771539343.2844687,43.9453125,-69.82421875,34.66796875,33.203125,9.765625
1771539343.288375,52.734375,5.859375,36.62109375,52.24609375,8.7890625
1771539343.2922812,58.10546875,-369.62890625,31.25,51.7578125,15.625
1771539343.2961874,49.8046875,-383.30078125,34.66796875,39.0625,14.6484375
1771539343.3000937,47.8515625,46.875,38.0859375,46.38671875,26.85546875
1771539343.301125,58.10546875,39.55078125,35.64453125,55.6640625,56.640625
1771539343.3050313,48.33984375,-25.390625,36.62109375,56.640625,78.125
1771539343.3089375,39.55078125,27.34375,38.0859375,44.921875,52.24609375
1771539343.3128438,40.52734375,-32.2265625,40.0390625,34.66796875,30.2734375
1771539343.31675,51.26953125,-224.609375,41.9921875,54.6875,12.6953125
1771539343.3206563,49.31640625,-254.8828125,44.921875,62.98828125,52.734375
1771539343.3245625,38.57421875,-109.375,44.921875,44.921875,95.703125
1771539343.3284688,52.734375,-6.8359375,40.0390625,46.875,17.578125
1771539343.332375,56.15234375,-126.953125,42.96875,56.640625,0.0
1771539343.3362813,44.921875,-323.2421875,41.015625,54.6875,28.3203125
1771539343.3401875,43.9453125,-17.08984375,38.0859375,50.78125,36.1328125
1771539343.3440938,44.921875,125.0,42.96875,51.26953125,38.57421875
1771539343.346125,41.015625,35.64453125,46.38671875,48.33984375,41.50390625
1771539343.3500311,43.9453125,35.15625,44.43359375,59.5703125,22.94921875
1771539343.3539374,47.8515625,118.1640625,41.50390625,71.77734375,62.98828125
1771539343.3578436,46.875,80.078125,47.8515625,61.03515625,109.86328125
1771539343.36175,45.8984375,-63.4765625,49.8046875,63.4765625,48.33984375
1771539343.3656561,45.8984375,-106.93359375,45.8984375,73.73046875,41.015625
1771539343.3695624,48.828125,-50.29296875,46.38671875,80.56640625,76.171875
1771539343.3734686,42.48046875,-33.69140625,43.9453125,67.3828125,62.01171875
1771539343.377375,38.0859375,-307.12890625,45.41015625,56.15234375,-0.48828125
1771539343.3812811,47.36328125,-201.66015625,47.36328125,69.82421875,-19.04296875
1771539343.3851874,45.41015625,300.29296875,47.36328125,69.3359375,36.62109375
1771539343.3890936,43.9453125,246.58203125,45.41015625,56.15234375,70.80078125
1771539343.391125,49.8046875,15.13671875,51.7578125,58.10546875,34.66796875
1771539343.3950312,59.5703125,222.16796875,53.7109375,81.0546875,50.78125
1771539343.3989375,51.26953125,355.95703125,47.36328125,83.49609375,50.29296875
1771539343.4028437,24.90234375,183.10546875,43.45703125,47.36328125,15.625
1771539343.40675,38.57421875,126.46484375,37.109375,34.66796875,24.90234375
1771539343.4106562,60.546875,94.7265625,37.109375,60.05859375,-6.8359375
1771539343.4145625,48.828125,110.83984375,45.8984375,65.91796875,-18.06640625
1771539343.4184687,21.484375,99.12109375,55.6640625,44.921875,6.8359375
1771539343.422375,25.87890625,-259.765625,52.734375,39.55078125,7.8125
1771539343.4262812,36.62109375,-29.296875,50.29296875,52.24609375,-17.578125
1771539343.4301875,31.25,396.484375,57.12890625,63.4765625,13.671875
1771539343.4340937,45.8984375,315.91796875,59.5703125,74.21875,42.48046875
1771539343.436125,36.62109375,222.65625,54.19921875,52.24609375,26.3671875
1771539343.4400313,9.765625,247.0703125,55.6640625,38.0859375,4.39453125
1771539343.4439375,8.7890625,296.875,56.15234375,52.734375,42.96875
1771539343.4478438,2.44140625,158.69140625,52.734375,48.33984375,24.90234375
1771539343.45175,-5.859375,87.890625,52.734375,38.57421875,-16.11328125
1771539343.4556563,8.30078125,53.7109375,53.7109375,40.0390625,19.04296875
1771539343.4595625,26.85546875,21.484375,52.734375,51.26953125,25.87890625
1771539343.4634688,38.0859375,-122.0703125,51.26953125,59.08203125,49.8046875
1771539343.467375,29.296875,-64.453125,48.828125,50.29296875,62.5
1771539343.4712813,19.53125,278.3203125,44.921875,33.69140625,30.76171875
1771539343.4751875,28.3203125,190.4296875,43.9453125,33.69140625,9.765625
1771539343.4790938,28.80859375,59.08203125,41.015625,33.69140625,18.06640625
1771539343.481125,9.27734375,260.7421875,39.0625,27.83203125,61.03515625
1771539343.4850314,14.6484375,314.453125,43.45703125,20.99609375,42.96875
1771539343.4889376,28.80859375,143.5546875,48.828125,22.4609375,10.7421875
1771539343.4928439,20.01953125,153.80859375,44.921875,30.2734375,44.43359375
1771539343.49675,31.25,255.37109375,36.62109375,39.0625,49.31640625
1771539343.5006564,27.83203125,127.9296875,40.0390625,34.66796875,22.4609375
1771539343.5045626,17.08984375,-68.359375,40.52734375,26.85546875,62.01171875
1771539343.5084689,30.2734375,-146.484375,35.15625,32.2265625,94.7265625
1771539343.512375,35.15625,129.8828125,41.50390625,41.50390625,45.8984375
1771539343.5162814,37.109375,297.36328125,42.48046875,38.57421875,28.3203125
1771539343.5201876,27.83203125,162.109375,38.0859375,26.3671875,35.15625
1771539343.5240939,25.87890625,156.73828125,39.55078125,37.59765625,12.20703125
1771539343.527125,32.71484375,241.2109375,38.57421875,36.62109375,10.25390625
1771539343.5310311,34.1796875,204.58984375,36.62109375,35.15625,65.4296875
1771539343.5349374,27.83203125,24.4140625,36.1328125,31.73828125,67.3828125
1771539343.5388436,27.83203125,99.609375,39.0625,39.55078125,62.98828125
1771539343.54275,32.71484375,312.5,39.55078125,42.48046875,93.26171875
1771539343.5466561,34.1796875,202.1484375,34.66796875,35.64453125,96.6796875
1771539343.5505624,35.64453125,-235.3515625,37.59765625,29.296875,22.4609375
1771539343.5544686,37.109375,-185.05859375,38.0859375,24.90234375,26.3671875
1771539343.558375,38.57421875,250.0,31.25,29.78515625,-0.48828125
1771539343.5622811,46.875,197.75390625,34.1796875,41.9921875,-42.48046875
1771539343.5661874,48.828125,94.23828125,36.1328125,36.1328125,-13.18359375
1771539343.5700936,43.45703125,155.2734375,29.78515625,30.2734375,-18.5546875
1771539343.572125,48.33984375,270.01953125,34.1796875,37.59765625,15.13671875
1771539343.5760312,48.828125,163.0859375,34.1796875,38.57421875,-1.953125
1771539343.5799375,41.9921875,121.09375,31.73828125,29.296875,45.41015625
1771539343.5838437,39.0625,105.46875,35.15625,22.4609375,42.96875
1771539343.58775,42.48046875,176.7578125,31.73828125,30.2734375,26.85546875
1771539343.5916562,53.22265625,70.80078125,26.85546875,40.0390625,-0.48828125
1771539343.5955625,54.6875,-318.359375,24.90234375,33.203125,-0.9765625
1771539343.5994687,40.0390625,-62.01171875,30.2734375,13.671875,56.15234375
1771539343.603375,24.4140625,349.609375,32.71484375,11.71875,58.59375
1771539343.6072812,35.15625,337.890625,27.83203125,20.5078125,85.9375
1771539343.6111875,39.55078125,292.96875,31.25,26.85546875,83.49609375
1771539343.6150937,20.5078125,263.671875,31.25,20.99609375,62.98828125
1771539343.631125,24.90234375,279.296875,24.4140625,20.99609375,46.875
1771539343.6350312,33.203125,281.25,30.76171875,24.90234375,50.78125
1771539343.6389375,29.78515625,242.67578125,37.109375,24.4140625,6.8359375
1771539343.6428437,32.71484375,288.0859375,32.2265625,26.85546875,5.859375
1771539343.64675,33.69140625,261.23046875,29.78515625,19.04296875,11.71875
1771539343.6506562,36.1328125,131.34765625,27.34375,21.97265625,28.3203125
1771539343.6545625,48.828125,90.33203125,25.390625,42.48046875,77.1484375
1771539343.6584687,38.0859375,198.73046875,26.3671875,21.484375,52.734375
1771539343.662375,22.4609375,295.41015625,25.87890625,-5.859375,28.3203125
1771539343.6662812,22.4609375,-15.625,23.92578125,-0.48828125,44.921875
1771539343.6701875,22.4609375,-17.578125,27.83203125,10.7421875,75.1953125
1771539343.6740937,20.5078125,415.0390625,31.73828125,22.4609375,67.87109375
1771539343.676125,17.578125,324.70703125,29.296875,10.7421875,61.03515625
1771539343.6800313,23.4375,267.08984375,25.390625,17.08984375,99.609375
1771539343.6839375,21.484375,369.140625,25.390625,21.484375,79.58984375
1771539343.6878438,16.11328125,360.3515625,25.390625,16.6015625,40.52734375
1771539343.69175,27.83203125,218.75,25.87890625,20.5078125,41.015625
1771539343.6956563,23.92578125,19.04296875,25.390625,14.6484375,25.390625
1771539343.6995625,19.04296875,122.55859375,25.390625,21.97265625,5.859375
1771539343.7034688,21.484375,305.17578125,27.34375,27.83203125,2.44140625
1771539343.707375,23.92578125,150.87890625,26.85546875,18.5546875,54.19921875
1771539343.7112813,20.5078125,-309.5703125,26.85546875,3.90625,22.94921875
1771539343.7151875,16.11328125,-77.63671875,28.3203125,7.8125,-0.48828125
1771539343.7190938,23.92578125,440.91796875,34.1796875,20.5078125,75.68359375
1771539343.721125,31.73828125,324.21875,35.64453125,21.97265625,84.47265625
1771539343.7250311,18.06640625,170.8984375,30.76171875,12.20703125,-22.4609375
1771539343.7289374,4.39453125,309.08203125,33.69140625,15.625,-12.6953125
1771539343.7328436,17.08984375,373.53515625,37.59765625,27.83203125,56.640625
1771539343.73675,20.5078125,299.31640625,33.69140625,12.6953125,88.37890625
1771539343.7406561,10.7421875,99.12109375,27.34375,-1.46484375,44.921875
1771539343.7445624,13.671875,147.4609375,28.80859375,9.765625,41.9921875
1771539343.7484686,25.87890625,321.77734375,29.78515625,20.01953125,80.56640625
1771539343.752375,33.203125,166.50390625,33.203125,21.484375,18.06640625
1771539343.7562811,18.5546875,196.2890625,30.76171875,21.484375,14.16015625
1771539343.7601874,25.87890625,211.9140625,28.80859375,34.1796875,38.57421875
1771539343.7640936,60.05859375,164.0625,39.55078125,59.08203125,-3.90625
1771539343.766125,55.6640625,-147.4609375,30.76171875,45.8984375,-33.203125
1771539343.7700312,18.06640625,-106.93359375,17.578125,10.25390625,-8.7890625
1771539343.7739375,18.5546875,330.56640625,13.671875,-2.44140625,40.0390625
1771539343.7778437,37.59765625,288.57421875,13.18359375,14.6484375,57.6171875
1771539343.78175,39.0625,235.3515625,20.5078125,36.62109375,39.0625
1771539343.7856562,29.78515625,159.66796875,20.5078125,27.83203125,19.53125
1771539343.7895625,24.4140625,147.94921875,20.99609375,6.8359375,2.44140625
1771539343.7934687,25.87890625,107.421875,25.390625,7.32421875,19.53125
1771539343.797375,40.0390625,-81.54296875,27.83203125,28.80859375,41.9921875
1771539343.8012812,40.52734375,179.19921875,28.80859375,34.66796875,21.484375
1771539343.8051875,31.73828125,334.47265625,22.94921875,24.90234375,36.62109375
1771539343.8090937,28.3203125,269.04296875,16.11328125,19.53125,74.70703125
1771539343.812125,27.83203125,177.24609375,13.671875,21.97265625,47.8515625
1771539343.8160312,36.1328125,142.578125,15.625,24.4140625,12.6953125
1771539343.8199375,35.15625,219.23828125,20.5078125,20.99609375,-5.859375
1771539343.8238437,28.3203125,76.171875,18.06640625,21.484375,0.48828125
1771539343.82775,35.64453125,96.19140625,19.53125,30.76171875,11.71875
1771539343.8316562,41.9921875,173.33984375,20.99609375,44.43359375,26.3671875
1771539343.8355625,32.71484375,88.37890625,19.04296875,39.0625,32.2265625
1771539343.8394687,28.3203125,-125.48828125,19.04296875,22.94921875,75.1953125
1771539343.843375,41.50390625,-55.6640625,19.04296875,22.4609375,61.5234375
1771539343.8472812,39.0625,293.9453125,22.4609375,26.3671875,-8.7890625
1771539343.8511875,30.2734375,263.18359375,27.83203125,26.85546875,28.3203125
1771539343.8550937,34.66796875,182.12890625,31.73828125,31.25,71.2890625
1771539343.856125,22.94921875,230.95703125,25.390625,25.87890625,20.5078125
1771539343.8600314,22.4609375,259.27734375,21.484375,29.78515625,-23.4375
1771539343.8639376,31.25,141.11328125,25.390625,43.9453125,0.9765625
1771539343.8678439,29.296875,20.01953125,25.87890625,35.64453125,38.0859375
1771539343.87175,29.78515625,132.32421875,23.92578125,23.92578125,29.296875
1771539343.8756564,27.34375,120.1171875,29.78515625,27.83203125,-6.34765625
1771539343.8795626,28.80859375,-54.6875,30.2734375,29.78515625,-4.39453125
1771539343.8834689,24.4140625,-317.3828125,26.3671875,18.5546875,31.25
1771539343.887375,26.3671875,-138.671875,27.83203125,14.16015625,-28.3203125
1771539343.8912814,39.55078125,253.90625,25.87890625,25.390625,-60.05859375
1771539343.8951876,41.015625,250.9765625,34.1796875,32.71484375,29.78515625
1771539343.8990939,41.015625,201.171875,32.71484375,39.55078125,33.69140625
1771539343.916125,44.43359375,226.5625,24.4140625,34.1796875,14.6484375
1771539343.9200313,38.0859375,251.46484375,28.3203125,25.87890625,44.43359375
1771539343.9239376,40.0390625,159.66796875,30.2734375,37.59765625,39.0625
1771539343.9278438,41.50390625,150.390625,31.73828125,45.8984375,38.57421875
1771539343.93175,32.71484375,190.4296875,31.73828125,31.73828125,57.12890625
1771539343.9356563,42.48046875,77.1484375,28.3203125,29.78515625,37.59765625
1771539343.9395626,47.8515625,-273.4375,27.83203125,38.0859375,-28.80859375
1771539343.9434688,41.015625,-263.18359375,29.78515625,38.57421875,46.38671875
1771539343.947375,34.66796875,216.796875,29.296875,35.15625,110.3515625
1771539343.9512813,32.2265625,237.3046875,32.71484375,35.15625,64.453125
1771539343.9551876,43.45703125,143.5546875,34.66796875,40.52734375,49.31640625
1771539343.9590938,48.828125,209.47265625,30.76171875,41.9921875,18.5546875
1771539343.961125,33.203125,207.51953125,26.85546875,32.71484375,-13.18359375
1771539343.9650311,24.90234375,77.63671875,28.3203125,28.3203125,-8.30078125
1771539343.9689374,34.1796875,24.90234375,30.2734375,32.2265625,-7.8125
1771539343.9728436,31.25,166.015625,28.3203125,35.64453125,14.16015625
1771539343.97675,19.53125,215.33203125,26.3671875,33.203125,54.6875
1771539343.9806561,26.3671875,-2.44140625,28.3203125,28.80859375,52.734375
1771539343.9845624,33.69140625,-33.203125,30.2734375,27.83203125,34.66796875
1771539343.9884686,31.73828125,130.859375,28.80859375,32.2265625,24.90234375
1771539343.992375,26.3671875,144.04296875,28.3203125,25.87890625,10.7421875
1771539343.9962811,16.6015625,8.7890625,27.83203125,16.6015625,53.7109375
1771539344.0001874,16.6015625,-325.68359375,31.25,21.484375,41.9921875
1771539344.0040936,27.34375,-71.2890625,32.2265625,24.90234375,-10.25390625
1771539344.006125,23.92578125,218.26171875,31.73828125,29.296875,-39.0625
1771539344.0100312,20.01953125,127.44140625,27.83203125,19.04296875,-9.765625
1771539344.0139375,17.08984375,173.828125,26.3671875,12.20703125,60.05859375
1771539344.0178437,21.97265625,276.85546875,34.66796875,24.90234375,71.77734375
1771539344.02175,27.83203125,279.78515625,35.64453125,21.484375,104.00390625
1771539344.0256562,22.4609375,57.12890625,28.80859375,13.671875,89.84375
1771539344.0295625,17.578125,-22.94921875,28.3203125,7.32421875,60.546875
1771539344.0334687,23.92578125,186.03515625,28.3203125,14.6484375,66.40625
1771539344.037375,28.80859375,226.07421875,26.3671875,26.85546875,50.29296875
1771539344.0412812,24.90234375,-149.90234375,25.87890625,19.53125,54.19921875
1771539344.0451875,21.484375,-265.625,23.4375,7.32421875,27.34375
1771539344.0490937,26.85546875,144.53125,25.87890625,18.06640625,41.9921875
1771539344.050125,31.25,159.66796875,22.4609375,24.90234375,39.0625
1771539344.0540311,31.25,-26.85546875,23.92578125,23.92578125,-2.9296875
1771539344.0579374,26.85546875,89.35546875,32.2265625,15.625,-1.46484375
1771539344.0618436,23.92578125,212.40234375,30.76171875,18.5546875,8.7890625
1771539344.06575,34.1796875,136.71875,29.296875,26.85546875,21.97265625
1771539344.0696561,46.38671875,-32.2265625,29.296875,28.80859375,17.08984375
1771539344.0735624,40.0390625,-13.671875,28.80859375,24.90234375,28.80859375
1771539344.0774686,41.50390625,209.9609375,22.94921875,18.5546875,74.70703125
1771539344.081375,52.734375,119.62890625,24.4140625,26.85546875,93.75
1771539344.0852811,28.3203125,-182.12890625,27.83203125,15.625,26.85546875
1771539344.0891874,10.7421875,72.265625,35.15625,10.25390625,-6.34765625
1771539344.0930936,29.296875,283.203125,39.0625,26.85546875,56.640625
1771539344.096125,48.33984375,165.0390625,34.66796875,29.296875,66.40625
1771539344.1000311,39.0625,177.734375,35.15625,20.01953125,84.47265625
1771539344.1039374,26.3671875,288.57421875,34.1796875,16.6015625,105.46875
1771539344.1078436,11.23046875,210.44921875,30.76171875,6.8359375,51.7578125
1771539344.11175,14.6484375,0.9765625,26.85546875,8.30078125,15.13671875
1771539344.1156561,29.296875,-35.64453125,30.76171875,19.53125,67.87109375
1771539344.1195624,18.5546875,38.57421875,33.203125,20.99609375,51.7578125
1771539344.1234686,8.30078125,66.40625,26.3671875,1.953125,-57.6171875
1771539344.127375,23.4375,-147.4609375,25.390625,5.859375,-20.5078125
1771539344.1312811,40.0390625,-74.21875,34.66796875,28.3203125,62.01171875
1771539344.1351874,41.9921875,276.85546875,39.55078125,31.73828125,5.37109375
1771539344.1390936,32.71484375,200.1953125,31.25,26.85546875,8.7890625
1771539344.141125,18.5546875,113.28125,27.34375,13.18359375,40.52734375
1771539344.1450312,20.5078125,250.9765625,30.76171875,10.25390625,52.24609375
1771539344.1489375,31.73828125,250.9765625,31.73828125,20.99609375,57.6171875
1771539344.1528437,29.296875,-17.08984375,29.78515625,20.01953125,34.66796875
1771539344.15675,25.87890625,-108.88671875,29.296875,5.37109375,-8.7890625
1771539344.1606562,31.25,6.8359375,29.78515625,9.765625,-27.34375
1771539344.1645625,35.64453125,154.78515625,28.3203125,18.06640625,20.5078125
1771539344.1684687,40.52734375,32.2265625,33.203125,26.3671875,-21.484375
1771539344.172375,31.25,-129.8828125,29.296875,15.625,-27.83203125
1771539344.1762812,25.390625,222.16796875,26.85546875,9.765625,44.921875
1771539344.1801875,39.55078125,361.328125,31.25,30.76171875,44.921875
1771539344.1840937,42.96875,102.5390625,27.34375,37.109375,15.625
1771539344.185125,31.73828125,52.24609375,23.92578125,18.06640625,46.38671875
1771539344.1890314,34.1796875,244.140625,31.25,29.296875,35.64453125
1771539344.1929376,38.0859375,239.2578125,31.73828125,41.015625,-3.90625
1771539344.1968439,33.203125,187.5,29.296875,32.71484375,38.57421875
1771539344.20075,33.69140625,189.453125,29.296875,28.3203125,47.8515625
1771539344.2046564,25.87890625,99.609375,31.25,19.53125,27.83203125
1771539344.2085626,7.8125,57.12890625,30.2734375,17.578125,30.2734375
1771539344.2124689,14.16015625,-147.94921875,22.94921875,15.625,18.5546875
1771539344.216375,20.5078125,-229.00390625,23.92578125,8.7890625,6.8359375
1771539344.2202814,14.16015625,186.5234375,33.69140625,10.25390625,3.90625
1771539344.2241876,15.13671875,320.3125,35.64453125,15.625,54.6875
1771539344.2280939,16.6015625,211.42578125,30.2734375,20.99609375,20.99609375
1771539344.231125,9.765625,262.6953125,35.15625,24.90234375,-11.71875
1771539344.2350314,6.8359375,344.23828125,36.1328125,-0.48828125,57.6171875
1771539344.2389376,11.71875,216.796875,26.85546875,-2.9296875,62.5
1771539344.2428439,16.11328125,109.86328125,27.83203125,16.6015625,-25.390625
1771539344.24675,16.11328125,253.41796875,30.76171875,16.11328125,20.01953125
1771539344.2506564,16.6015625,187.98828125,27.34375,4.8828125,70.3125
1771539344.2545626,10.25390625,-33.203125,27.83203125,1.46484375,55.6640625
1771539344.2584689,23.92578125,-172.36328125,27.83203125,7.8125,45.8984375
1771539344.262375,32.2265625,86.42578125,27.83203125,14.6484375,14.16015625
1771539344.2662814,13.18359375,380.37109375,33.203125,8.30078125,56.15234375
1771539344.2701876,15.13671875,111.81640625,32.2265625,-0.9765625,20.01953125
1771539344.2740939,19.04296875,47.36328125,26.85546875,0.48828125,-4.8828125
1771539344.276125,17.578125,296.875,28.80859375,4.8828125,23.4375
1771539344.2800312,12.20703125,263.18359375,25.87890625,7.8125,-0.9765625
1771539344.2839375,1.46484375,152.83203125,25.390625,0.9765625,19.04296875
1771539344.2878437,11.23046875,168.45703125,29.296875,8.7890625,20.01953125
1771539344.29175,8.7890625,258.30078125,24.90234375,0.9765625,36.62109375
1771539344.2956562,6.34765625,161.62109375,28.80859375,-2.44140625,52.734375
1771539344.2995625,25.87890625,-173.33984375,37.59765625,16.11328125,56.640625
1771539344.3034687,18.06640625,-114.74609375,35.64453125,15.13671875,66.89453125
1771539344.307375,2.44140625,317.3828125,38.57421875,5.37109375,53.22265625
1771539344.3112812,2.44140625,277.34375,33.203125,1.953125,40.0390625
1771539344.3151875,0.48828125,110.83984375,26.85546875,-0.9765625,31.25
1771539344.3190937,-12.6953125,229.4921875,25.87890625,-11.23046875,53.7109375
1771539344.336125,9.27734375,311.03515625,32.2265625,-1.46484375,6.34765625
1771539344.3400311,14.6484375,160.15625,34.66796875,0.48828125,-19.53125
1771539344.3439374,-8.7890625,107.91015625,26.85546875,-12.6953125,53.7109375
1771539344.3478436,0.9765625,217.7734375,34.66796875,-0.9765625,45.8984375
1771539344.35175,-1.953125,327.63671875,36.62109375,6.8359375,72.75390625
1771539344.3556561,5.859375,65.91796875,30.2734375,4.8828125,46.875
1771539344.3595624,18.5546875,-252.44140625,35.15625,6.8359375,-10.25390625
1771539344.3634686,-1.953125,91.30859375,36.1328125,-6.34765625,48.828125
1771539344.367375,-15.625,317.3828125,29.78515625,-13.18359375,26.3671875
1771539344.3712811,-15.625,202.63671875,26.85546875,-17.08984375,-3.41796875
1771539344.3751874,-9.27734375,205.56640625,29.78515625,-12.6953125,34.66796875
1771539344.3790936,4.39453125,276.3671875,43.9453125,-2.9296875,32.2265625
1771539344.382125,-4.8828125,208.984375,42.96875,-17.578125,41.9921875
1771539344.3860312,-10.25390625,114.2578125,40.0390625,-18.06640625,88.37890625
1771539344.3899374,-19.04296875,183.10546875,34.66796875,-22.94921875,69.3359375
1771539344.3938437,-43.45703125,281.73828125,26.3671875,-44.921875,44.43359375
1771539344.39775,-41.50390625,262.20703125,28.80859375,-60.05859375,48.828125
1771539344.4016562,-50.29296875,143.06640625,33.203125,-65.4296875,62.98828125
1771539344.4055624,-69.82421875,34.66796875,37.59765625,-65.4296875,28.80859375
1771539344.4094687,-76.171875,174.8046875,48.33984375,-75.68359375,-0.48828125
1771539344.413375,-83.0078125,178.7109375,56.640625,-91.30859375,-13.671875
1771539344.4172812,-88.8671875,91.796875,54.19921875,-95.21484375,32.2265625
1771539344.4211874,-97.65625,197.75390625,58.10546875,-96.19140625,58.10546875
1771539344.4250937,-93.75,272.4609375,61.5234375,-90.33203125,36.62109375
1771539344.426125,-85.9375,132.32421875,51.26953125,-91.796875,42.96875
1771539344.4300313,-80.56640625,-145.5078125,50.29296875,-80.078125,37.109375
1771539344.4339375,-66.40625,-95.703125,54.6875,-62.01171875,28.3203125
1771539344.4378438,-43.45703125,99.609375,51.26953125,-52.24609375,34.1796875
1771539344.44175,-44.43359375,-2.44140625,44.921875,-50.29296875,18.5546875
1771539344.4456563,-50.29296875,-214.84375,43.45703125,-43.9453125,6.34765625
1771539344.4495625,-30.2734375,-100.5859375,48.828125,-21.97265625,27.83203125
1771539344.4534688,-22.94921875,118.1640625,51.7578125,-15.13671875,35.15625
1771539344.457375,-18.06640625,-49.31640625,42.48046875,-8.30078125,9.765625
1771539344.4612813,-8.7890625,-300.29296875,32.2265625,-3.90625,50.29296875
1771539344.4651875,-0.48828125,-40.0390625,35.15625,2.44140625,23.92578125
1771539344.4690938,8.7890625,86.9140625,37.109375,16.6015625,5.37109375
1771539344.470125,12.6953125,42.48046875,31.25,22.4609375,53.7109375
1771539344.4740312,15.625,23.4375,31.25,19.04296875,40.52734375
1771539344.4779375,28.80859375,86.9140625,30.76171875,26.3671875,20.01953125
1771539344.4818437,43.45703125,103.515625,32.71484375,41.9921875,44.921875
1771539344.48575,50.78125,24.90234375,35.64453125,43.9453125,77.1484375
1771539344.4896562,48.33984375,-111.81640625,20.99609375,37.109375,50.29296875
1771539344.4935625,38.0859375,-173.33984375,9.765625,34.66796875,17.578125
1771539344.4974687,38.57421875,-94.23828125,18.06640625,42.96875,16.11328125
1771539344.501375,49.8046875,-314.453125,19.04296875,51.26953125,18.5546875
1771539344.5052812,49.8046875,-376.46484375,14.6484375,38.0859375,44.43359375
1771539344.5091875,43.45703125,31.73828125,19.04296875,36.62109375,11.71875
1771539344.5130937,52.734375,78.61328125,23.92578125,57.12890625,-24.4140625
1771539344.516125,57.6171875,1.953125,15.13671875,56.15234375,1.46484375
1771539344.5200312,52.24609375,89.84375,13.18359375,53.7109375,24.4140625
1771539344.5239375,52.734375,75.1953125,21.484375,53.7109375,-0.9765625
1771539344.5278437,68.84765625,17.578125,25.390625,59.5703125,27.34375
1771539344.53175,69.3359375,26.85546875,28.3203125,65.4296875,74.70703125
1771539344.5356562,49.8046875,-85.9375,29.296875,65.4296875,24.90234375
1771539344.5395625,50.78125,-70.3125,27.83203125,60.546875,45.8984375
1771539344.5434687,50.78125,-90.33203125,20.5078125,52.734375,32.2265625
1771539344.547375,59.5703125,-428.22265625,14.16015625,55.17578125,5.859375
1771539344.5512812,65.4296875,-148.92578125,24.4140625,64.453125,42.96875
1771539344.5551875,49.8046875,170.8984375,28.3203125,52.734375,9.765625
1771539344.5590937,34.1796875,88.37890625,25.390625,36.1328125,33.203125
1771539344.561125,40.52734375,154.78515625,31.25,47.36328125,90.8203125
1771539344.5650313,46.38671875,207.03125,29.78515625,54.19921875,54.6875
1771539344.5689375,37.109375,150.390625,30.76171875,43.45703125,39.55078125
1771539344.5728438,37.109375,39.0625,30.76171875,27.83203125,16.11328125
1771539344.57675,34.66796875,101.5625,28.3203125,24.4140625,39.0625
1771539344.5806563,32.2265625,87.40234375,28.3203125,25.390625,61.5234375
1771539344.5845625,41.50390625,-15.13671875,31.25,34.66796875,21.97265625
1771539344.5884688,34.66796875,-229.98046875,35.15625,22.94921875,20.99609375
1771539344.592375,24.4140625,-138.18359375,30.2734375,9.27734375,20.01953125
1771539344.5962813,5.859375,252.44140625,31.25,2.44140625,49.31640625
1771539344.6001875,-16.6015625,169.921875,34.1796875,-12.6953125,49.31640625
1771539344.6040938,-31.25,54.6875,33.69140625,-34.1796875,21.484375
1771539344.606125,-34.66796875,261.71875,45.41015625,-47.36328125,58.59375
1771539344.6100314,-55.6640625,394.04296875,43.45703125,-62.5,29.296875
1771539344.6139376,-78.125,267.08984375,46.875,-79.1015625,4.8828125
1771539344.6178439,-108.3984375,251.953125,55.6640625,-108.88671875,51.26953125
1771539344.62175,-145.99609375,317.3828125,50.78125,-150.390625,5.37109375
1771539344.6256564,-156.73828125,302.734375,52.734375,-165.52734375,26.3671875
1771539344.6295626,-174.8046875,139.16015625,69.82421875,-175.29296875,88.8671875
1771539344.6334689,-207.51953125,-69.82421875,70.80078125,-207.03125,44.921875
1771539344.637375,-236.81640625,199.21875,63.96484375,-240.234375,43.9453125
1771539344.6412814,-243.65234375,374.51171875,69.3359375,-247.55859375,10.7421875
1771539344.6451876,-253.90625,250.9765625,66.89453125,-268.06640625,27.34375
1771539344.6490939,-266.6015625,217.7734375,58.10546875,-277.34375,77.63671875
1771539344.652125,-282.2265625,113.76953125,63.96484375,-290.52734375,28.80859375
1771539344.6560311,-287.109375,173.33984375,64.94140625,-296.38671875,53.7109375
1771539344.6599374,-268.5546875,38.57421875,53.22265625,-281.73828125,36.62109375
1771539344.6638436,-250.48828125,-43.9453125,49.8046875,-278.3203125,-4.8828125
1771539344.66775,-231.4453125,148.4375,50.78125,-258.30078125,58.59375
1771539344.6716561,-227.05078125,-5.859375,41.50390625,-240.234375,1.953125
1771539344.6755624,-191.40625,-325.68359375,42.96875,-201.171875,-18.5546875
1771539344.6794686,-151.3671875,-258.30078125,47.36328125,-162.59765625,40.0390625
1771539344.683375,-127.9296875,93.75,45.8984375,-144.53125,32.71484375
1771539344.6872811,-94.7265625,56.640625,45.41015625,-117.67578125,41.50390625
1771539344.6911874,-66.40625,-12.20703125,38.0859375,-79.1015625,64.94140625
1771539344.6950936,-42.48046875,16.6015625,40.0390625,-43.45703125,26.85546875
1771539344.697125,-15.13671875,29.296875,44.43359375,-14.16015625,6.34765625
1771539344.7010312,5.859375,-81.54296875,37.59765625,4.8828125,17.08984375
1771539344.7049375,30.2734375,-223.14453125,35.15625,29.78515625,2.44140625
1771539344.7088437,55.17578125,-77.1484375,37.59765625,58.59375,25.390625
1771539344.71275,80.078125,48.828125,32.2265625,69.82421875,41.9921875
1771539344.7166562,85.44921875,-159.66796875,26.85546875,77.63671875,46.875
1771539344.7205625,95.703125,-505.859375,21.97265625,97.65625,65.91796875
1771539344.7244687,110.3515625,-284.66796875,16.11328125,115.234375,35.64453125
1771539344.728375,120.60546875,113.28125,14.16015625,125.48828125,4.8828125
1771539344.7322812,132.32421875,27.34375,16.6015625,127.9296875,21.484375
1771539344.7361875,139.16015625,26.85546875,11.23046875,131.8359375,51.26953125
1771539344.7400937,149.90234375,133.7890625,7.8125,141.6015625,41.50390625
1771539344.756125,156.25,109.375,9.765625,146.97265625,22.94921875
1771539344.7600312,154.78515625,2.9296875,9.27734375,142.08984375,16.11328125
1771539344.7639375,166.9921875,-16.11328125,9.27734375,147.4609375,6.8359375
1771539344.7678437,180.17578125,112.3046875,10.7421875,164.0625,29.78515625
1771539344.77175,171.875,75.1953125,9.765625,161.1328125,24.90234375
1771539344.7756562,161.62109375,-306.15234375,3.90625,150.87890625,-29.78515625
1771539344.7795625,160.15625,-569.3359375,2.9296875,144.04296875,-10.25390625
1771539344.7834687,155.2734375,-102.5390625,5.37109375,144.04296875,22.94921875
1771539344.787375,149.90234375,206.54296875,4.8828125,152.34375,6.34765625
1771539344.7912812,156.73828125,102.5390625,7.32421875,158.203125,18.06640625
1771539344.7951875,158.69140625,157.71484375,5.859375,150.87890625,31.25
1771539344.7990937,159.1796875,247.55859375,7.32421875,151.85546875,44.921875
1771539344.815125,155.2734375,182.12890625,16.11328125,146.484375,67.3828125
1771539344.8190312,147.94921875,90.8203125,14.6484375,141.11328125,72.75390625
1771539344.8229375,139.16015625,154.296875,5.859375,133.30078125,67.87109375
1771539344.8268437,130.859375,180.17578125,3.90625,124.0234375,31.73828125
1771539344.83075,135.25390625,122.55859375,5.859375,134.765625,55.17578125
1771539344.8346562,141.6015625,-33.203125,5.859375,143.06640625,56.15234375
1771539344.8385625,140.625,-24.90234375,9.765625,131.34765625,12.6953125
1771539344.8424687,134.27734375,64.94140625,17.08984375,125.48828125,-12.6953125
1771539344.846375,129.8828125,25.87890625,18.5546875,132.32421875,15.625
1771539344.8502812,131.8359375,-201.171875,17.08984375,126.46484375,118.65234375
1771539344.8541875,120.1171875,-15.13671875,20.01953125,119.140625,78.125
1771539344.8580937,117.67578125,256.8359375,20.5078125,111.81640625,10.7421875
1771539344.846125,123.046875,202.63671875,19.04296875,114.2578125,31.25
1771539344.8500311,120.1171875,201.171875,24.90234375,113.76953125,20.99609375
1771539344.8539374,118.65234375,302.24609375,24.4140625,115.72265625,74.70703125
1771539344.8578436,107.91015625,250.0,22.94921875,108.88671875,69.82421875
1771539344.86175,98.6328125,128.90625,24.4140625,96.19140625,29.296875
1771539344.8656561,97.16796875,32.2265625,25.87890625,104.4921875,16.6015625
1771539344.8695624,100.09765625,-2.9296875,27.83203125,108.3984375,-16.6015625
1771539344.8734686,96.19140625,94.23828125,20.99609375,95.703125,9.27734375
1771539344.877375,87.40234375,94.23828125,25.87890625,88.37890625,20.99609375
1771539344.8812811,94.7265625,110.83984375,27.34375,86.9140625,31.25
1771539344.8851874,101.5625,144.04296875,23.4375,80.56640625,66.89453125
1771539344.8890936,80.56640625,154.78515625,26.3671875,83.49609375,71.77734375
1771539344.891125,75.1953125,-223.6328125,22.94921875,79.1015625,20.5078125
1771539344.8950312,97.16796875,-200.1953125,28.80859375,92.7734375,35.15625
1771539344.8989375,106.4453125,267.08984375,34.66796875,105.46875,38.57421875
1771539344.9028437,82.03125,233.88671875,23.4375,83.0078125,46.38671875
1771539344.90675,64.453125,163.57421875,17.08984375,62.01171875,71.77734375
1771539344.9106562,69.3359375,107.91015625,21.97265625,64.94140625,42.48046875
1771539344.9145625,73.73046875,164.0625,20.99609375,71.2890625,43.9453125
1771539344.9184687,82.51953125,116.2109375,18.5546875,76.171875,50.78125
1771539344.922375,75.68359375,-217.28515625,24.4140625,66.89453125,-22.4609375
1771539344.9262812,74.70703125,79.1015625,27.34375,72.75390625,-5.37109375
1771539344.9301875,80.56640625,387.6953125,25.390625,80.56640625,77.63671875
1771539344.9340937,74.21875,239.74609375,28.3203125,61.5234375,79.1015625
1771539344.936125,63.96484375,41.9921875,25.87890625,54.6875,27.34375
1771539344.9400313,53.22265625,128.90625,27.34375,50.29296875,-0.9765625
1771539344.9439375,56.15234375,282.71484375,27.83203125,61.5234375,25.390625
1771539344.9478438,67.87109375,105.95703125,22.94921875,75.1953125,47.8515625
1771539344.95175,69.3359375,78.61328125,21.484375,68.84765625,59.5703125
1771539344.9556563,64.94140625,102.05078125,26.3671875,61.03515625,42.48046875
1771539344.9595625,69.82421875,47.36328125,27.34375,64.94140625,22.94921875
1771539344.9634688,66.89453125,-181.15234375,23.4375,62.5,-23.4375
1771539344.967375,61.5234375,-124.0234375,21.484375,54.6875,17.578125
1771539344.9712813,53.22265625,260.7421875,25.390625,48.828125,32.2265625
1771539344.9751875,62.98828125,221.19140625,30.76171875,62.98828125,-5.37109375
1771539344.9790938,72.75390625,185.546875,31.73828125,71.77734375,48.828125
1771539344.981125,64.94140625,256.8359375,26.85546875,64.94140625,53.7109375
1771539344.9850314,59.08203125,270.5078125,26.85546875,55.6640625,39.55078125
1771539344.9889376,61.03515625,50.78125,33.69140625,58.59375,24.4140625
1771539344.9928439,57.12890625,-15.625,30.2734375,66.89453125,36.62109375
1771539344.99675,43.45703125,220.703125,25.87890625,52.24609375,62.5
1771539345.0006564,41.50390625,145.99609375,25.390625,53.22265625,33.69140625
1771539345.0045626,49.31640625,-91.796875,29.78515625,55.6640625,9.765625
1771539345.0084689,52.734375,-221.19140625,33.69140625,33.69140625,-34.66796875
1771539345.012375,47.36328125,91.796875,27.34375,37.109375,-21.484375
1771539345.0162814,41.9921875,369.62890625,22.4609375,35.64453125,73.2421875
1771539345.0201876,38.57421875,205.56640625,24.4140625,19.04296875,49.8046875
1771539345.0240939,37.59765625,155.2734375,22.94921875,27.83203125,8.30078125
1771539345.026125,35.64453125,306.640625,20.5078125,35.64453125,75.68359375
1771539345.0300312,30.2734375,249.51171875,24.90234375,31.25,37.59765625
1771539345.0339375,31.73828125,126.46484375,27.34375,29.296875,33.69140625
1771539345.0378437,32.2265625,166.015625,26.85546875,32.2265625,58.59375
1771539345.04175,31.25,119.140625,26.3671875,32.71484375,-11.23046875
1771539345.0456562,31.25,26.3671875,29.78515625,32.71484375,14.6484375
1771539345.0495625,35.64453125,-212.40234375,33.203125,28.3203125,22.4609375
1771539345.0534687,45.41015625,-287.59765625,30.76171875,31.73828125,-7.32421875
1771539345.057375,43.9453125,194.3359375,27.83203125,33.203125,25.390625
1771539345.0612812,37.109375,277.34375,29.296875,32.2265625,15.13671875
1771539345.0651875,32.71484375,118.65234375,27.83203125,31.25,-22.4609375
1771539345.0690937,34.66796875,231.4453125,25.87890625,29.296875,40.0390625
1771539345.071125,38.57421875,316.89453125,25.87890625,34.66796875,62.01171875
1771539345.0750313,40.52734375,191.40625,25.87890625,33.203125,58.10546875
1771539345.0789375,41.9921875,104.98046875,28.3203125,29.78515625,76.171875
1771539345.0828438,33.203125,189.94140625,31.25,25.87890625,79.1015625
1771539345.08675,36.1328125,259.27734375,29.78515625,31.73828125,91.796875
1771539345.0906563,40.52734375,18.06640625,22.94921875,38.57421875,47.8515625
1771539345.0945625,33.69140625,-331.54296875,22.94921875,31.25,3.90625
1771539345.0984688,23.4375,-98.14453125,22.94921875,22.94921875,37.59765625
1771539345.102375,32.2265625,283.203125,22.94921875,33.203125,72.265625
1771539345.1062813,46.875,117.67578125,28.3203125,44.43359375,46.875
1771539345.1101875,38.0859375,7.8125,27.83203125,38.57421875,32.71484375
1771539345.1140938,37.59765625,231.93359375,20.99609375,32.2265625,73.2421875
1771539345.130125,60.546875,218.26171875,20.01953125,45.8984375,42.48046875
1771539345.1340313,54.6875,104.4921875,30.76171875,40.52734375,-12.6953125
1771539345.1379375,13.671875,107.421875,41.015625,9.27734375,-3.41796875
1771539345.1418438,21.484375,194.82421875,43.45703125,16.11328125,33.203125
1771539345.14575,45.41015625,168.45703125,39.0625,34.66796875,42.96875
1771539345.1496563,9.27734375,-0.9765625,35.15625,14.6484375,12.6953125
1771539345.1535625,8.7890625,-48.828125,33.69140625,18.5546875,17.08984375
1771539345.1574688,27.34375,103.02734375,44.921875,42.48046875,12.20703125
1771539345.161375,0.0,167.96875,40.52734375,6.34765625,7.32421875
1771539345.1652813,4.8828125,-185.05859375,38.0859375,6.8359375,23.4375
1771539345.1691875,6.8359375,-263.671875,40.0390625,20.01953125,-6.34765625
1771539345.1730938,7.8125,189.453125,36.62109375,18.06640625,9.27734375
1771539345.176125,21.484375,112.3046875,35.15625,20.99609375,-20.5078125
1771539345.1800313,21.97265625,-0.48828125,39.0625,15.625,-35.15625
1771539345.1839375,19.04296875,163.57421875,42.48046875,23.92578125,3.90625
1771539345.1878438,13.18359375,220.21484375,32.2265625,32.2265625,20.01953125
1771539345.19175,14.16015625,112.79296875,30.2734375,29.296875,53.22265625
1771539345.1956563,18.06640625,-69.3359375,33.69140625,29.296875,42.48046875
1771539345.1995625,27.34375,27.83203125,33.69140625,28.3203125,46.38671875
1771539345.2034688,26.85546875,240.72265625,32.71484375,23.92578125,53.22265625
1771539345.207375,30.2734375,69.3359375,29.78515625,29.296875,61.5234375
1771539345.2112813,32.2265625,-236.81640625,33.203125,27.34375,36.1328125
1771539345.2151875,31.73828125,57.12890625,38.57421875,28.80859375,-14.16015625
1771539345.2190938,48.828125,140.625,41.015625,43.9453125,-68.359375
1771539345.236125,46.875,-120.60546875,46.38671875,44.43359375,-73.2421875
1771539345.2400312,29.296875,52.734375,42.48046875,30.76171875,45.8984375
1771539345.2439375,24.4140625,280.76171875,35.15625,33.69140625,56.640625
1771539345.2478437,25.390625,272.94921875,37.59765625,41.9921875,41.9921875
1771539345.25175,36.1328125,190.4296875,40.0390625,54.6875,65.4296875
1771539345.2556562,39.0625,51.26953125,35.15625,45.41015625,71.77734375
1771539345.2595625,36.62109375,91.30859375,32.71484375,26.85546875,57.6171875
1771539345.2634687,38.57421875,185.05859375,35.15625,31.73828125,-35.64453125
1771539345.267375,33.69140625,-122.0703125,38.0859375,34.1796875,6.8359375
1771539345.2712812,32.2265625,-164.55078125,39.0625,27.83203125,45.41015625
1771539345.2751875,23.4375,193.84765625,38.0859375,23.4375,-8.7890625
1771539345.2790937,36.1328125,159.1796875,34.66796875,23.92578125,-24.90234375
1771539345.310125,45.8984375,114.74609375,30.2734375,31.25,6.34765625
1771539345.3140314,34.66796875,198.73046875,34.1796875,33.203125,80.56640625
1771539345.3179376,36.1328125,149.4140625,35.15625,31.25,77.63671875
1771539345.3218439,38.57421875,87.40234375,29.296875,34.66796875,68.84765625
1771539345.32575,41.015625,28.80859375,31.73828125,33.203125,73.2421875
1771539345.3296564,39.55078125,80.56640625,35.15625,35.15625,110.3515625
1771539345.3335626,29.78515625,97.16796875,31.25,24.90234375,114.2578125
1771539345.3374689,33.203125,56.640625,27.83203125,21.484375,57.12890625
1771539345.341375,44.43359375,48.33984375,27.83203125,41.015625,5.859375
1771539345.3452814,46.38671875,207.51953125,24.90234375,38.57421875,30.76171875
1771539345.3491876,42.96875,253.90625,25.87890625,23.92578125,62.5
1771539345.3530939,42.96875,-80.56640625,26.85546875,24.90234375,2.44140625
1771539345.313125,36.62109375,-239.2578125,29.78515625,26.3671875,-17.08984375
1771539345.3170311,30.2734375,152.83203125,34.1796875,33.69140625,23.4375
1771539345.3209374,32.71484375,262.20703125,29.296875,34.66796875,28.80859375
1771539345.3248436,32.2265625,141.6015625,28.3203125,23.92578125,23.92578125
1771539345.32875,46.38671875,117.67578125,30.76171875,31.25,35.15625
1771539345.3326561,44.43359375,121.09375,31.25,37.109375,59.08203125
1771539345.3365624,30.76171875,60.05859375,34.1796875,24.4140625,83.49609375
1771539345.3404686,23.92578125,2.44140625,32.2265625,16.6015625,54.19921875
1771539345.344375,26.3671875,137.20703125,31.73828125,21.484375,8.30078125
1771539345.3482811,36.1328125,291.50390625,34.1796875,29.296875,38.0859375
1771539345.3521874,35.15625,207.03125,30.2734375,35.64453125,44.921875
1771539345.3560936,26.85546875,21.484375,25.87890625,27.34375,19.53125
1771539345.356125,29.296875,123.046875,33.69140625,24.90234375,23.92578125
1771539345.3600314,39.55078125,251.46484375,37.59765625,30.2734375,25.87890625
1771539345.3639376,38.57421875,128.41796875,38.0859375,33.203125,53.7109375
1771539345.3678439,31.25,6.34765625,40.52734375,28.80859375,59.5703125
1771539345.37175,32.71484375,140.13671875,32.71484375,19.53125,55.6640625
1771539345.3756564,30.76171875,132.8125,28.3203125,26.3671875,75.1953125
1771539345.3795626,28.3203125,-57.6171875,31.73828125,34.1796875,37.59765625
1771539345.3834689,35.64453125,-360.3515625,30.2734375,34.66796875,6.8359375
1771539345.387375,32.71484375,-429.6875,33.69140625,22.94921875,34.1796875
1771539345.3912814,34.66796875,-3.90625,34.1796875,20.5078125,-11.71875
1771539345.3951876,40.0390625,250.9765625,35.64453125,35.15625,-8.30078125
1771539345.3990939,30.76171875,242.67578125,35.64453125,33.203125,40.52734375
1771539345.401125,29.78515625,274.90234375,35.15625,25.87890625,14.6484375
1771539345.4050312,32.2265625,235.3515625,41.9921875,28.3203125,-26.85546875
1771539345.4089375,36.1328125,174.31640625,40.52734375,35.15625,-1.953125
1771539345.4128437,41.015625,183.10546875,34.1796875,36.62109375,29.78515625
1771539345.41675,25.390625,183.59375,34.66796875,29.78515625,-1.953125
1771539345.4206562,26.3671875,97.16796875,34.1796875,40.0390625,1.46484375
1771539345.4245625,36.62109375,-159.66796875,31.73828125,36.1328125,38.0859375
1771539345.4284687,24.4140625,-125.9765625,33.69140625,27.83203125,43.45703125
1771539345.432375,12.6953125,233.3984375,34.1796875,28.80859375,14.6484375
1771539345.4362812,14.16015625,142.578125,35.15625,20.5078125,16.11328125
1771539345.4401875,20.01953125,-26.3671875,32.2265625,22.4609375,28.80859375
1771539345.4440937,28.3203125,144.04296875,32.71484375,29.78515625,24.90234375
1771539345.446125,25.390625,345.703125,34.1796875,32.71484375,68.84765625
1771539345.4500313,26.85546875,206.54296875,24.4140625,22.4609375,70.3125
1771539345.4539375,34.66796875,137.6953125,22.4609375,22.4609375,51.7578125
1771539345.4578438,37.59765625,277.34375,28.80859375,28.3203125,86.42578125
1771539345.46175,41.50390625,287.59765625,31.25,18.5546875,77.63671875
1771539345.4656563,27.83203125,9.27734375,28.80859375,8.30078125,53.22265625
1771539345.4695625,24.4140625,-262.6953125,29.78515625,19.04296875,28.80859375
1771539345.4734688,22.4609375,28.3203125,29.296875,21.97265625,-0.48828125
1771539345.477375,21.97265625,273.4375,31.25,25.87890625,11.23046875
1771539345.4812813,20.01953125,159.1796875,39.0625,27.34375,45.8984375
1771539345.4851875,15.13671875,153.3203125,33.203125,22.4609375,55.17578125
1771539345.4890938,21.484375,147.94921875,29.78515625,22.94921875,5.37109375
1771539345.505125,22.4609375,122.55859375,31.25,28.3203125,-33.69140625
1771539345.5090313,15.625,65.91796875,27.34375,21.97265625,51.7578125
1771539345.5129375,11.71875,34.1796875,28.3203125,18.5546875,69.3359375
1771539345.5168438,24.4140625,214.84375,31.25,24.4140625,26.3671875
1771539345.52075,38.0859375,230.46875,35.15625,18.06640625,43.9453125
1771539345.5246563,34.66796875,70.80078125,33.69140625,20.99609375,57.6171875
1771539345.5285625,23.4375,-68.84765625,26.3671875,11.71875,15.625
1771539345.5324688,27.34375,96.6796875,31.73828125,14.6484375,-15.13671875
1771539345.536375,32.71484375,219.7265625,39.0625,23.4375,7.8125
1771539345.5402813,28.3203125,-89.84375,30.76171875,15.13671875,21.484375
1771539345.5441875,13.18359375,-30.76171875,29.78515625,11.23046875,68.359375
1771539345.5480938,17.08984375,296.875,31.73828125,17.578125,77.63671875
1771539345.552125,25.390625,214.84375,27.83203125,16.6015625,40.52734375
1771539345.5560312,36.1328125,1.953125,34.1796875,25.87890625,2.9296875
1771539345.5599375,33.203125,-11.71875,35.15625,28.80859375,-0.9765625
1771539345.5638437,28.3203125,199.70703125,29.78515625,18.06640625,31.73828125
1771539345.56775,37.59765625,108.88671875,33.69140625,27.83203125,10.7421875
1771539345.5716562,45.41015625,-134.765625,31.73828125,32.2265625,3.41796875
1771539345.5755625,44.43359375,-30.76171875,28.80859375,22.94921875,-11.71875
1771539345.5794687,29.296875,171.875,33.69140625,18.06640625,-35.15625
1771539345.583375,21.97265625,88.8671875,30.2734375,18.06640625,25.87890625
1771539345.5872812,27.34375,-142.08984375,25.87890625,22.94921875,56.15234375
1771539345.5911875,24.90234375,100.09765625,24.4140625,21.484375,37.109375
1771539345.5950937,23.4375,285.64453125,30.2734375,18.06640625,62.01171875
1771539345.595125,29.296875,168.9453125,33.69140625,31.25,33.203125
1771539345.5990312,33.69140625,133.7890625,29.296875,29.296875,-9.765625
1771539345.6029375,31.73828125,189.94140625,28.3203125,27.34375,-9.765625
1771539345.6068437,30.2734375,145.5078125,28.3203125,23.92578125,-16.6015625
1771539345.61075,36.1328125,48.33984375,26.3671875,25.390625,-2.44140625
1771539345.6146562,36.1328125,-14.6484375,28.80859375,40.52734375,8.7890625
1771539345.6185625,46.875,-3.90625,29.78515625,40.0390625,-20.5078125
1771539345.6224687,46.38671875,177.24609375,28.3203125,28.80859375,20.01953125
1771539345.626375,26.85546875,-102.5390625,29.296875,11.23046875,34.66796875
1771539345.6302812,27.34375,-227.05078125,37.59765625,16.11328125,-6.34765625
1771539345.6341875,28.3203125,263.18359375,39.0625,27.34375,45.41015625
1771539345.6380937,15.13671875,281.25,33.203125,16.6015625,91.30859375
1771539345.641125,8.7890625,94.23828125,37.59765625,12.20703125,33.203125
1771539345.6450312,21.97265625,214.84375,41.50390625,24.90234375,48.33984375
1771539345.6489375,20.01953125,232.421875,39.0625,26.3671875,12.6953125
1771539345.6528437,15.625,87.40234375,40.52734375,25.87890625,0.0
1771539345.65675,22.94921875,74.21875,44.921875,28.80859375,76.66015625
1771539345.6606562,16.6015625,43.9453125,43.9453125,26.85546875,66.40625
1771539345.6645625,12.6953125,5.37109375,35.15625,33.203125,60.546875
1771539345.6684687,24.4140625,-34.66796875,32.2265625,37.109375,69.3359375
1771539345.672375,20.01953125,-372.55859375,32.2265625,26.3671875,4.8828125
1771539345.6762812,7.8125,-134.765625,28.3203125,24.4140625,2.44140625
1771539345.6801875,17.578125,296.875,27.34375,34.66796875,28.80859375
1771539345.6840937,27.83203125,154.296875,34.66796875,34.66796875,-20.01953125
1771539345.701125,22.94921875,106.4453125,35.15625,16.6015625,-30.76171875
1771539345.7050312,27.83203125,210.44921875,37.109375,14.6484375,3.90625
1771539345.7089374,37.109375,253.90625,41.015625,27.83203125,44.43359375
1771539345.7128437,36.62109375,172.8515625,38.0859375,33.69140625,64.94140625
1771539345.71675,23.92578125,130.859375,33.69140625,29.296875,51.26953125
1771539345.7206562,12.20703125,22.94921875,30.2734375,20.01953125,33.203125
1771539345.7245624,24.90234375,78.61328125,33.203125,27.34375,46.875
1771539345.7284687,42.48046875,-92.28515625,34.1796875,30.76171875,23.4375
1771539345.732375,35.15625,-268.06640625,31.25,25.390625,13.18359375
1771539345.7362812,23.4375,41.50390625,33.69140625,25.390625,22.94921875
1771539345.7401874,18.06640625,143.06640625,36.62109375,24.90234375,2.9296875
1771539345.7440937,28.3203125,58.59375,36.1328125,32.71484375,-2.9296875
1771539345.731125,35.64453125,175.78125,39.0625,36.62109375,54.6875
1771539345.7350314,27.83203125,278.80859375,37.59765625,19.53125,88.37890625
1771539345.7389376,26.3671875,100.5859375,32.2265625,16.11328125,47.36328125
1771539345.7428439,31.73828125,1.953125,29.78515625,30.76171875,26.3671875
1771539345.74675,28.80859375,165.52734375,29.78515625,27.34375,43.45703125
1771539345.7506564,30.76171875,54.19921875,25.390625,18.06640625,20.5078125
1771539345.7545626,32.71484375,-127.9296875,27.83203125,21.97265625,38.0859375
1771539345.7584689,24.90234375,-12.6953125,31.73828125,21.97265625,29.296875
1771539345.762375,24.90234375,151.85546875,31.25,22.4609375,-15.625
1771539345.7662814,22.4609375,233.88671875,28.80859375,25.87890625,29.78515625
1771539345.7701876,24.90234375,-28.3203125,24.4140625,11.23046875,-6.8359375
1771539345.7740939,30.2734375,-380.859375,26.3671875,11.23046875,4.39453125
1771539345.790125,30.2734375,-36.62109375,33.203125,24.90234375,34.66796875
1771539345.7940311,32.71484375,264.6484375,31.25,21.484375,13.671875
1771539345.7979374,34.1796875,158.203125,30.2734375,17.08984375,48.828125
1771539345.8018436,35.15625,154.78515625,28.80859375,20.99609375,50.78125
1771539345.80575,40.52734375,229.00390625,33.69140625,30.76171875,43.45703125
1771539345.8096561,35.64453125,79.1015625,39.55078125,40.0390625,-1.953125
1771539345.8135624,27.34375,-250.48828125,38.0859375,31.25,-0.48828125
1771539345.8174686,29.78515625,-188.96484375,38.57421875,18.06640625,34.1796875
1771539345.821375,23.92578125,249.51171875,38.57421875,16.6015625,40.52734375
1771539345.8252811,31.73828125,251.953125,39.0625,24.90234375,45.8984375
1771539345.8291874,36.1328125,113.28125,36.1328125,26.85546875,38.0859375
1771539345.8330936,23.92578125,192.3828125,29.296875,24.4140625,78.125
1771539345.836125,22.4609375,303.7109375,24.90234375,27.83203125,103.02734375
1771539345.8400311,41.015625,117.1875,31.73828125,29.78515625,55.17578125
1771539345.8439374,46.875,-115.72265625,35.64453125,29.296875,-10.25390625
1771539345.8478436,22.4609375,79.1015625,33.203125,19.04296875,20.99609375
1771539345.85175,23.92578125,228.515625,31.73828125,25.390625,56.15234375
1771539345.8556561,35.15625,-12.6953125,32.71484375,27.34375,32.71484375
1771539345.8595624,34.1796875,-133.30078125,31.25,28.80859375,1.953125
1771539345.8634686,33.203125,50.78125,37.109375,32.71484375,-26.3671875
1771539345.867375,36.62109375,231.93359375,43.9453125,32.2265625,30.76171875
1771539345.8712811,40.52734375,94.7265625,40.0390625,40.52734375,90.8203125
1771539345.8751874,37.109375,-150.390625,36.1328125,37.59765625,117.67578125
1771539345.8790936,25.390625,86.9140625,32.2265625,16.6015625,76.66015625
1771539345.881125,23.4375,261.71875,32.2265625,20.01953125,78.61328125
1771539345.8850312,23.4375,170.41015625,39.0625,37.109375,72.75390625
1771539345.8889375,19.53125,154.78515625,37.59765625,32.2265625,55.6640625
1771539345.8928437,26.85546875,191.89453125,36.62109375,24.4140625,66.89453125
1771539345.89675,14.6484375,60.05859375,39.0625,17.578125,29.296875
1771539345.9006562,16.11328125,-41.9921875,37.59765625,20.99609375,40.0390625
1771539345.9045625,28.80859375,18.06640625,36.1328125,23.92578125,38.57421875
1771539345.9084687,27.34375,161.1328125,34.1796875,24.4140625,13.671875
1771539345.912375,32.71484375,180.6640625,37.59765625,30.76171875,11.23046875
1771539345.9162812,30.76171875,-171.875,38.57421875,28.80859375,-0.48828125
1771539345.9201875,16.11328125,-264.16015625,38.57421875,19.53125,21.484375
1771539345.9240937,7.32421875,175.78125,41.9921875,18.06640625,19.04296875
1771539345.927125,4.8828125,202.63671875,40.0390625,12.6953125,35.64453125
1771539345.9310312,-1.46484375,74.21875,36.62109375,7.32421875,7.32421875
1771539345.9349375,-4.8828125,171.38671875,39.0625,18.5546875,-33.203125
1771539345.9388437,-7.8125,241.69921875,38.57421875,7.8125,-1.46484375
1771539345.94275,-10.25390625,112.3046875,38.57421875,-8.30078125,16.6015625
1771539345.9466562,0.0,-24.4140625,38.57421875,-15.13671875,39.55078125
1771539345.9505625,-3.41796875,39.0625,38.0859375,-11.71875,53.7109375
1771539345.9544687,-12.20703125,110.83984375,42.96875,0.48828125,44.43359375
1771539345.958375,-19.53125,53.7109375,46.38671875,-12.6953125,25.87890625
1771539345.9622812,-48.33984375,59.08203125,46.875,-41.9921875,30.76171875
1771539345.9661875,-55.6640625,232.421875,54.19921875,-41.50390625,34.66796875
1771539345.9700937,-38.57421875,310.546875,65.91796875,-20.5078125,22.94921875
1771539345.971125,-1.46484375,39.55078125,77.63671875,6.34765625,-0.48828125
1771539345.9750311,-15.625,-247.55859375,73.2421875,-34.66796875,-7.32421875
1771539345.9789374,-87.890625,130.859375,60.05859375,-94.23828125,7.32421875
1771539345.9828436,-80.56640625,367.67578125,67.3828125,-90.8203125,19.04296875
1771539345.98675,-68.84765625,261.71875,82.03125,-97.65625,6.8359375
1771539345.9906561,-104.00390625,147.4609375,68.359375,-122.55859375,14.16015625
1771539345.9945624,-109.375,88.37890625,65.91796875,-131.8359375,-55.17578125
1771539345.9984686,-85.44921875,338.37890625,80.078125,-125.9765625,-11.23046875
1771539346.002375,-94.23828125,133.7890625,77.63671875,-130.37109375,70.80078125
1771539346.0062811,-121.09375,-56.640625,75.68359375,-146.484375,78.125
1771539346.0101874,-122.0703125,380.859375,69.82421875,-151.85546875,90.8203125
1771539346.0140936,-115.72265625,412.59765625,65.4296875,-149.90234375,37.109375
1771539346.016125,-109.86328125,300.29296875,64.94140625,-146.97265625,50.29296875
1771539346.0200312,-114.2578125,312.5,52.24609375,-163.0859375,13.671875
1771539346.0239375,-116.69921875,345.703125,49.8046875,-159.66796875,13.671875
1771539346.0278437,-101.5625,314.94140625,38.57421875,-133.7890625,80.56640625
1771539346.03175,-72.75390625,232.91015625,26.3671875,-125.9765625,57.6171875
1771539346.0356562,-62.01171875,134.27734375,24.4140625,-123.046875,30.76171875
1771539346.0395625,-74.70703125,148.92578125,18.5546875,-135.25390625,44.43359375
1771539346.0434687,-50.29296875,161.62109375,14.6484375,-112.79296875,80.56640625
1771539346.047375,-11.23046875,-73.2421875,1.953125,-75.68359375,48.828125
1771539346.0512812,-7.8125,144.53125,-13.671875,-75.68359375,18.06640625
1771539346.0551875,4.8828125,351.5625,-21.484375,-53.7109375,37.59765625
1771539346.0590937,41.50390625,74.70703125,-33.203125,-20.01953125,31.73828125
1771539346.060125,63.96484375,80.078125,-46.875,-5.859375,31.25
1771539346.0640314,98.14453125,316.89453125,-40.52734375,45.41015625,32.71484375
1771539346.0679376,120.60546875,270.5078125,-49.8046875,87.40234375,24.4140625
1771539346.0718439,122.55859375,131.8359375,-60.546875,65.4296875,1.46484375
1771539346.07575,149.4140625,141.6015625,-68.359375,73.2421875,-13.671875
1771539346.0796564,195.3125,127.9296875,-75.1953125,113.28125,52.24609375
1771539346.0835626,228.515625,136.71875,-63.4765625,152.34375,80.078125
1771539346.0874689,225.5859375,-98.14453125,-59.5703125,156.25,51.7578125
1771539346.091375,220.703125,-134.765625,-69.3359375,165.52734375,74.21875
1771539346.0952814,233.3984375,264.16015625,-77.1484375,188.96484375,49.31640625
1771539346.0991876,257.8125,192.3828125,-73.2421875,210.9375,-2.9296875
1771539346.1030939,284.1796875,49.8046875,-65.4296875,239.2578125,-11.71875
1771539346.106125,278.3203125,165.52734375,-54.6875,233.3984375,33.203125
1771539346.1100314,249.51171875,174.8046875,-62.01171875,208.49609375,40.0390625
1771539346.1139376,248.53515625,26.3671875,-60.546875,213.37890625,19.53125
1771539346.1178439,253.90625,-46.38671875,-50.78125,219.7265625,0.0
1771539346.12175,238.76953125,95.703125,-52.24609375,221.6796875,17.578125
1771539346.1256564,243.65234375,110.3515625,-52.24609375,226.5625,45.8984375
1771539346.1295626,247.55859375,-60.546875,-49.31640625,199.21875,33.203125
1771539346.1334689,222.16796875,-292.48046875,-38.57421875,190.91796875,37.59765625
1771539346.137375,190.91796875,-85.9375,-38.0859375,186.03515625,15.625
1771539346.1412814,197.265625,203.61328125,-38.0859375,181.640625,-55.17578125
1771539346.1451876,207.03125,131.34765625,-22.4609375,181.640625,-6.34765625
1771539346.1490939,192.3828125,51.26953125,-13.671875,183.59375,7.32421875
1771539346.151125,171.38671875,145.5078125,-11.23046875,185.05859375,-1.46484375
1771539346.1550312,163.57421875,253.41796875,-10.25390625,163.0859375,81.54296875
1771539346.1589375,163.57421875,202.63671875,-7.32421875,155.76171875,98.14453125
1771539346.1628437,156.73828125,73.2421875,-5.859375,154.78515625,78.125
1771539346.16675,150.87890625,-29.78515625,-6.34765625,150.87890625,10.7421875
1771539346.1706562,141.6015625,29.78515625,-0.48828125,151.3671875,40.52734375
1771539346.1745625,141.6015625,-141.11328125,2.44140625,138.18359375,101.07421875
1771539346.1784687,127.9296875,-296.875,3.90625,125.9765625,42.48046875
1771539346.182375,120.1171875,44.43359375,8.7890625,118.65234375,-21.484375
1771539346.1862812,121.09375,176.26953125,14.6484375,121.58203125,0.48828125
1771539346.1901875,109.86328125,111.328125,12.6953125,129.8828125,20.01953125
1771539346.1940937,105.46875,161.1328125,13.18359375,125.0,2.44140625
1771539346.196125,104.98046875,201.171875,19.04296875,104.4921875,17.578125
1771539346.2000313,102.05078125,73.2421875,23.92578125,105.46875,9.27734375
1771539346.2039375,107.421875,32.71484375,23.92578125,106.4453125,18.06640625
1771539346.2078438,118.1640625,113.76953125,22.94921875,98.6328125,-12.6953125
1771539346.21175,115.72265625,114.74609375,27.83203125,111.328125,-33.203125
1771539346.2156563,106.93359375,-64.94140625,29.78515625,110.3515625,11.71875
1771539346.2195625,98.6328125,-450.68359375,28.3203125,98.6328125,4.39453125
1771539346.2234688,93.75,-207.03125,28.80859375,93.75,14.16015625
1771539346.227375,81.0546875,245.1171875,23.4375,88.8671875,34.66796875
1771539346.2312813,75.1953125,137.20703125,26.85546875,85.9375,35.64453125
1771539346.2351875,75.68359375,83.49609375,27.83203125,78.125,41.50390625
1771539346.2390938,86.9140625,163.57421875,27.83203125,79.1015625,-2.44140625
1771539346.256125,79.1015625,191.89453125,33.69140625,86.9140625,34.1796875
1771539346.2600312,66.89453125,78.125,29.296875,86.9140625,47.36328125
1771539346.2639375,70.80078125,47.36328125,29.296875,89.84375,54.19921875
1771539346.2678437,65.91796875,178.22265625,29.78515625,80.56640625,88.37890625
1771539346.27175,68.359375,140.625,30.2734375,64.453125,44.43359375
1771539346.2756562,63.96484375,-58.10546875,28.80859375,58.10546875,37.109375
1771539346.2795625,46.38671875,-91.796875,24.4140625,48.828125,57.12890625
1771539346.2834687,44.43359375,181.15234375,28.3203125,53.22265625,119.140625
1771539346.287375,62.5,115.72265625,31.73828125,60.546875,108.3984375
1771539346.2912812,52.734375,-209.9609375,34.66796875,56.15234375,49.8046875
1771539346.2951875,38.0859375,-90.8203125,36.62109375,44.921875,56.15234375
1771539346.2990937,44.921875,158.203125,37.109375,45.41015625,13.671875
1771539346.300125,49.31640625,144.53125,32.71484375,51.26953125,51.7578125
1771539346.3040311,40.52734375,-62.98828125,29.78515625,43.9453125,80.56640625
1771539346.3079374,34.66796875,18.06640625,35.15625,44.43359375,55.6640625
1771539346.3118436,33.203125,169.921875,33.203125,39.55078125,24.90234375
1771539346.31575,33.69140625,102.5390625,29.296875,33.203125,36.1328125
1771539346.3196561,42.48046875,-48.828125,34.66796875,44.43359375,78.61328125
1771539346.3235624,34.66796875,-41.015625,34.66796875,60.546875,62.98828125
1771539346.3274686,17.08984375,148.92578125,31.25,36.62109375,49.31640625
1771539346.331375,28.80859375,-11.71875,33.69140625,18.06640625,12.20703125
1771539346.3352811,32.71484375,-277.83203125,36.1328125,29.296875,-10.25390625
1771539346.3391874,28.80859375,-78.125,40.52734375,31.73828125,17.08984375
1771539346.3430936,34.66796875,49.8046875,41.9921875,30.2734375,15.13671875
1771539346.346125,27.83203125,0.9765625,35.64453125,30.76171875,34.1796875
1771539346.3500311,35.15625,16.11328125,35.15625,32.71484375,27.83203125
1771539346.3539374,41.50390625,167.48046875,37.59765625,30.76171875,6.8359375
1771539346.3578436,30.2734375,149.90234375,34.1796875,35.64453125,22.4609375
1771539346.36175,19.04296875,28.3203125,32.2265625,40.52734375,-11.71875
1771539346.3656561,23.4375,-26.85546875,26.85546875,27.83203125,9.27734375
1771539346.3695624,38.0859375,-32.71484375,24.4140625,33.69140625,44.921875
1771539346.3734686,28.3203125,12.6953125,31.25,35.64453125,2.9296875
1771539346.377375,24.4140625,-214.35546875,29.78515625,22.4609375,-12.6953125
1771539346.3812811,32.71484375,-180.6640625,30.76171875,10.7421875,25.87890625
1771539346.3851874,38.57421875,221.6796875,35.15625,17.08984375,26.3671875
1771539346.3890936,37.59765625,197.265625,33.69140625,47.36328125,59.08203125
1771539346.392125,26.3671875,77.1484375,35.64453125,30.76171875,73.2421875
1771539346.3960311,28.3203125,10.25390625,31.25,20.99609375,7.32421875
1771539346.3999374,23.4375,117.1875,23.92578125,26.85546875,6.34765625
1771539346.4038436,19.53125,59.08203125,22.4609375,24.90234375,-19.53125
1771539346.40775,31.73828125,-140.625,25.390625,26.3671875,17.08984375
1771539346.4116561,30.76171875,-24.4140625,27.34375,31.25,60.05859375
1771539346.4155624,36.1328125,92.28515625,30.76171875,41.9921875,50.78125
1771539346.4194686,39.0625,0.9765625,33.69140625,31.73828125,58.10546875
1771539346.423375,31.25,-193.84765625,33.69140625,22.4609375,24.90234375
1771539346.4272811,40.52734375,94.23828125,32.71484375,28.3203125,38.0859375
1771539346.4311874,44.921875,337.40234375,32.71484375,37.59765625,50.29296875
1771539346.4350936,33.203125,183.10546875,35.64453125,39.55078125,23.92578125
1771539346.436125,21.97265625,92.28515625,34.1796875,39.0625,-26.3671875
1771539346.4400313,20.5078125,189.94140625,36.62109375,36.1328125,6.34765625
1771539346.4439375,23.92578125,238.28125,36.1328125,49.8046875,39.55078125
1771539346.4478438,26.3671875,115.234375,28.3203125,41.9921875,43.9453125
1771539346.45175,36.62109375,78.125,24.4140625,33.203125,37.59765625
1771539346.4556563,41.9921875,43.9453125,24.90234375,26.85546875,20.99609375
1771539346.4595625,31.73828125,27.34375,30.76171875,14.6484375,30.2734375
1771539346.4634688,31.25,-150.390625,33.69140625,28.3203125,37.109375
1771539346.467375,29.78515625,-272.94921875,28.80859375,29.78515625,29.296875
1771539346.4712813,18.5546875,100.5859375,27.34375,25.390625,5.37109375
1771539346.4751875,28.80859375,226.5625,28.3203125,44.43359375,21.484375
1771539346.4790938,30.76171875,133.30078125,25.87890625,40.52734375,20.99609375
1771539346.481125,31.25,191.89453125,26.3671875,29.78515625,28.3203125
1771539346.4850314,34.66796875,229.00390625,31.73828125,30.76171875,43.9453125
1771539346.4889376,26.85546875,98.14453125,31.73828125,24.90234375,27.34375
1771539346.4928439,32.2265625,65.91796875,28.3203125,25.390625,28.3203125
1771539346.49675,32.2265625,168.45703125,32.71484375,35.64453125,41.015625
1771539346.5006564,25.390625,54.6875,29.296875,28.3203125,36.62109375
1771539346.5045626,24.90234375,-110.83984375,25.87890625,24.90234375,36.62109375
1771539346.5084689,17.08984375,-336.9140625,29.78515625,34.1796875,47.36328125
1771539346.512375,13.671875,-115.234375,29.296875,28.80859375,45.8984375
1771539346.5162814,22.94921875,294.921875,30.2734375,25.390625,66.40625
1771539346.5201876,29.296875,179.6875,34.66796875,20.01953125,76.171875
1771539346.5240939,30.2734375,85.44921875,36.1328125,25.87890625,-16.11328125
1771539346.526125,19.53125,207.03125,34.66796875,24.4140625,-17.08984375
1771539346.5300312,20.99609375,238.28125,36.62109375,21.484375,42.48046875
1771539346.5339375,20.5078125,56.640625,37.109375,29.78515625,-9.27734375
1771539346.5378437,14.16015625,54.6875,36.62109375,29.296875,-16.11328125
1771539346.54175,29.78515625,229.98046875,35.15625,20.99609375,68.84765625
1771539346.5456562,32.2265625,97.16796875,33.69140625,31.73828125,43.45703125
1771539346.5495625,20.5078125,-258.30078125,32.71484375,36.1328125,10.25390625
1771539346.5534687,14.16015625,-247.55859375,27.34375,23.4375,15.625
1771539346.557375,20.01953125,109.375,26.85546875,17.08984375,14.6484375
1771539346.5612812,23.92578125,211.42578125,29.78515625,29.78515625,50.29296875
1771539346.5651875,19.53125,28.80859375,24.90234375,36.62109375,10.25390625
1771539346.5690937,20.01953125,6.34765625,24.4140625,27.34375,-2.44140625
1771539346.571125,24.90234375,253.90625,32.2265625,21.97265625,53.7109375
1771539346.5750313,37.109375,199.70703125,34.66796875,22.4609375,52.24609375
1771539346.5789375,38.0859375,98.14453125,33.203125,21.484375,56.15234375
1771539346.5828438,19.04296875,169.43359375,30.76171875,24.90234375,54.19921875
1771539346.58675,29.78515625,228.02734375,29.78515625,31.25,44.921875
1771539346.5906563,35.64453125,-55.6640625,32.2265625,25.390625,-21.484375
1771539346.5945625,31.25,-189.453125,31.73828125,29.78515625,-36.1328125
1771539346.5984688,38.0859375,126.953125,29.78515625,33.203125,32.71484375
1771539346.602375,39.0625,286.62109375,32.2265625,23.4375,73.2421875
1771539346.6062813,41.015625,83.0078125,34.66796875,27.34375,44.921875
1771539346.6101875,42.96875,-194.82421875,32.71484375,39.55078125,-4.39453125
1771539346.6140938,26.85546875,28.80859375,32.71484375,24.90234375,30.76171875
1771539346.630125,20.01953125,248.53515625,34.66796875,18.06640625,54.19921875
1771539346.6340313,31.25,74.21875,29.78515625,24.4140625,14.6484375
1771539346.6379375,25.390625,9.765625,29.78515625,13.671875,-6.8359375
1771539346.6418438,27.34375,182.12890625,35.64453125,26.3671875,-8.30078125
1771539346.64575,43.9453125,203.125,38.57421875,53.7109375,-19.04296875
1771539346.6496563,60.546875,-67.87109375,36.1328125,62.98828125,11.23046875
1771539346.6535625,44.43359375,-116.2109375,26.85546875,39.55078125,27.83203125
1771539346.6574688,18.5546875,245.60546875,24.90234375,15.13671875,26.3671875
1771539346.661375,32.71484375,258.30078125,25.87890625,19.04296875,62.98828125
1771539346.6652813,42.48046875,169.921875,33.69140625,25.390625,87.40234375
1771539346.6691875,45.8984375,228.515625,39.0625,29.296875,73.73046875
1771539346.6730938,49.8046875,279.78515625,47.36328125,46.875,58.10546875
1771539346.676125,9.765625,96.19140625,52.734375,24.90234375,18.5546875
1771539346.6800313,18.5546875,-44.921875,47.36328125,29.78515625,-6.34765625
1771539346.6839375,21.97265625,130.37109375,53.7109375,32.2265625,20.5078125
1771539346.6878438,2.9296875,194.82421875,51.26953125,18.5546875,7.32421875
1771539346.69175,11.71875,18.06640625,56.640625,27.83203125,-13.18359375
1771539346.6956563,6.34765625,-189.453125,59.5703125,27.34375,-1.953125
1771539346.6995625,1.46484375,-54.6875,59.08203125,23.4375,20.01953125
1771539346.7034688,9.27734375,180.17578125,60.05859375,20.99609375,35.15625
1771539346.707375,7.32421875,-24.90234375,53.22265625,24.4140625,11.71875
1771539346.7112813,-3.41796875,-279.78515625,51.7578125,10.7421875,73.2421875
1771539346.7151875,6.34765625,22.4609375,49.8046875,4.8828125,80.56640625
1771539346.7190938,21.97265625,222.16796875,45.41015625,14.16015625,43.9453125
1771539346.721125,12.20703125,111.81640625,45.8984375,23.92578125,62.5
1771539346.7250311,6.34765625,57.12890625,46.875,20.5078125,41.015625
1771539346.7289374,4.8828125,148.92578125,43.45703125,19.53125,56.15234375
1771539346.7328436,7.8125,82.51953125,44.921875,26.85546875,46.875
1771539346.73675,2.9296875,-119.62890625,46.38671875,21.97265625,-2.9296875
1771539346.7406561,6.8359375,-145.5078125,45.41015625,19.04296875,37.109375
1771539346.7445624,7.8125,8.7890625,41.9921875,23.4375,38.57421875
1771539346.7484686,2.9296875,193.84765625,38.0859375,22.94921875,45.41015625
1771539346.752375,8.30078125,-36.1328125,41.9921875,26.85546875,40.52734375
1771539346.7562811,14.16015625,-32.71484375,43.9453125,30.76171875,62.5
1771539346.7601874,14.16015625,278.3203125,39.55078125,32.2265625,106.4453125
1771539346.7640936,19.53125,208.984375,39.55078125,34.1796875,66.40625
1771539346.765125,26.85546875,-36.62109375,43.45703125,23.92578125,39.0625
1771539346.7690313,19.53125,49.31640625,43.45703125,25.87890625,36.1328125
1771539346.7729375,19.53125,256.34765625,41.9921875,29.78515625,70.3125
1771539346.7768438,30.76171875,147.94921875,33.69140625,28.80859375,50.78125
1771539346.78075,41.015625,59.08203125,30.76171875,26.3671875,2.9296875
1771539346.7846563,36.62109375,29.296875,34.66796875,26.3671875,8.30078125
1771539346.7885625,21.484375,13.671875,31.25,24.4140625,52.24609375
1771539346.7924688,36.1328125,-12.6953125,30.2734375,34.1796875,62.01171875
1771539346.796375,40.52734375,-272.94921875,31.73828125,29.78515625,47.36328125
1771539346.8002813,17.578125,-64.453125,33.69140625,14.6484375,62.98828125
1771539346.8041875,13.18359375,297.8515625,36.62109375,25.390625,65.4296875
1771539346.8080938,19.53125,177.24609375,39.55078125,34.1796875,41.9921875
1771539346.810125,27.83203125,151.3671875,38.57421875,27.34375,6.8359375
1771539346.8140314,33.69140625,258.30078125,35.64453125,27.83203125,30.2734375
1771539346.8179376,31.73828125,211.42578125,36.1328125,26.85546875,31.25
1771539346.8218439,20.5078125,101.07421875,39.55078125,27.83203125,30.76171875
1771539346.82575,28.80859375,130.859375,41.9921875,38.0859375,35.64453125
1771539346.8296564,41.50390625,91.30859375,37.59765625,32.2265625,36.62109375
1771539346.8335626,41.9921875,28.80859375,33.69140625,41.015625,53.22265625
1771539346.8374689,60.546875,-227.5390625,30.2734375,61.5234375,22.94921875
1771539346.841375,33.69140625,-241.2109375,34.1796875,29.296875,-5.859375
1771539346.8452814,2.9296875,210.44921875,43.9453125,-4.39453125,-6.34765625
1771539346.8491876,4.39453125,254.8828125,50.29296875,3.90625,28.80859375
1771539346.8530939,-23.92578125,43.9453125,42.48046875,-0.9765625,49.8046875
1771539346.871125,-24.90234375,139.6484375,46.38671875,-1.46484375,81.54296875
1771539346.8750312,-41.50390625,277.83203125,56.15234375,-23.92578125,49.31640625
1771539346.8789375,-60.05859375,112.3046875,42.48046875,-51.7578125,-3.90625
1771539346.8828437,-49.31640625,20.01953125,49.8046875,-43.9453125,-1.953125
1771539346.88675,-61.03515625,115.72265625,50.78125,-50.29296875,19.53125
1771539346.8906562,-58.10546875,113.28125,45.41015625,-45.41015625,48.828125
1771539346.8945625,-31.73828125,-58.10546875,52.24609375,-24.90234375,43.9453125
1771539346.8984687,-17.578125,-271.97265625,48.33984375,-6.8359375,16.11328125
1771539346.902375,-27.83203125,-36.1328125,45.41015625,-11.71875,5.859375
1771539346.9062812,-23.92578125,245.60546875,44.43359375,-16.11328125,18.06640625
1771539346.9101875,-17.08984375,133.7890625,44.921875,-5.37109375,28.3203125
1771539346.9140937,-7.8125,67.87109375,41.015625,6.34765625,50.29296875
1771539346.902125,-6.8359375,145.99609375,39.55078125,6.8359375,22.94921875
1771539346.9060311,-3.41796875,172.36328125,39.0625,5.37109375,-16.11328125
1771539346.9099374,11.71875,52.24609375,37.109375,7.32421875,3.41796875
1771539346.9138436,11.71875,48.33984375,40.0390625,9.765625,29.78515625
1771539346.91775,-0.9765625,181.15234375,41.015625,4.39453125,39.0625
1771539346.9216561,4.39453125,92.7734375,37.59765625,-2.9296875,104.4921875
1771539346.9255624,14.16015625,-16.6015625,40.0390625,2.9296875,104.00390625
1771539346.9294686,19.04296875,62.01171875,39.55078125,8.7890625,43.9453125
1771539346.933375,18.06640625,161.1328125,35.15625,19.04296875,41.015625
1771539346.9372811,9.765625,155.76171875,37.109375,18.5546875,39.0625
1771539346.9411874,16.6015625,-173.828125,37.109375,16.11328125,41.015625
1771539346.9450936,26.85546875,-208.984375,39.0625,23.92578125,19.53125
1771539346.947125,31.25,112.3046875,37.59765625,20.01953125,24.90234375
1771539346.9510312,25.87890625,-8.30078125,37.59765625,20.99609375,1.953125
1771539346.9549375,31.73828125,-56.15234375,38.0859375,36.1328125,-20.01953125
1771539346.9588437,41.015625,169.43359375,33.203125,36.1328125,53.7109375
1771539346.96275,29.78515625,222.65625,37.59765625,34.1796875,62.5
1771539346.9666562,29.78515625,-6.34765625,41.9921875,27.34375,41.015625
1771539346.9705625,46.38671875,-382.8125,38.0859375,26.85546875,37.59765625
1771539346.9744687,40.0390625,-270.01953125,36.62109375,27.34375,-2.44140625
1771539346.978375,33.203125,141.6015625,35.64453125,35.64453125,-42.96875
1771539346.9822812,28.3203125,137.6953125,32.2265625,38.0859375,12.6953125
1771539346.9861875,22.4609375,98.14453125,33.203125,27.34375,51.26953125
1771539346.9900937,43.45703125,148.92578125,37.109375,32.71484375,5.859375
1771539347.006125,49.31640625,170.8984375,35.64453125,33.203125,-8.30078125
1771539347.0100312,38.0859375,129.8828125,36.62109375,30.76171875,48.828125
1771539347.0139375,44.43359375,115.234375,40.52734375,32.71484375,89.84375
1771539347.0178437,41.9921875,58.59375,40.52734375,37.109375,19.04296875
1771539347.02175,28.3203125,145.01953125,41.9921875,36.1328125,30.76171875
1771539347.0256562,31.73828125,-102.5390625,40.0390625,33.203125,55.17578125
1771539347.0295625,40.0390625,-285.64453125,37.59765625,40.0390625,0.9765625
1771539347.0334687,40.0390625,125.48828125,39.0625,50.29296875,3.41796875
1771539347.037375,56.15234375,209.9609375,41.015625,65.4296875,21.484375
1771539347.0412812,67.3828125,-62.01171875,39.0625,71.77734375,17.578125
1771539347.0451875,37.109375,1.46484375,33.69140625,27.34375,73.2421875
1771539347.0490937,30.2734375,245.1171875,27.83203125,6.8359375,82.51953125
1771539347.051125,50.29296875,111.328125,27.83203125,27.83203125,0.0
1771539347.0550313,47.8515625,5.37109375,29.78515625,49.8046875,-19.53125
1771539347.0589375,40.0390625,99.609375,28.80859375,46.875,16.6015625
1771539347.0628438,46.875,140.13671875,26.85546875,36.62109375,13.671875
1771539347.06675,61.03515625,41.9921875,30.2734375,39.55078125,-11.71875
1771539347.0706563,62.01171875,-127.44140625,27.83203125,41.9921875,-10.25390625
1771539347.0745625,46.875,-99.12109375,25.390625,51.26953125,24.90234375
1771539347.0784688,31.25,119.62890625,25.87890625,36.62109375,55.6640625
1771539347.082375,36.1328125,73.73046875,26.85546875,43.45703125,27.83203125
1771539347.0862813,47.36328125,-323.2421875,29.296875,41.9921875,46.875
1771539347.0901875,41.015625,-124.51171875,27.34375,30.2734375,69.3359375
1771539347.0940938,30.76171875,210.44921875,26.85546875,30.2734375,23.4375
1771539347.096125,41.015625,124.51171875,27.83203125,33.69140625,8.7890625
1771539347.1000311,48.828125,132.32421875,25.87890625,41.9921875,17.578125
1771539347.1039374,53.22265625,174.8046875,26.85546875,39.0625,2.9296875
1771539347.1078436,58.10546875,153.80859375,31.25,45.41015625,14.6484375
1771539347.11175,55.17578125,68.84765625,31.25,51.7578125,12.20703125
1771539347.1156561,37.109375,-20.01953125,31.73828125,39.55078125,21.484375
1771539347.1195624,21.97265625,13.671875,29.296875,30.2734375,43.45703125
1771539347.1234686,20.5078125,67.3828125,25.390625,20.01953125,14.16015625
1771539347.127375,32.2265625,-178.22265625,28.3203125,20.99609375,63.96484375
1771539347.1312811,41.015625,-273.4375,27.34375,38.0859375,47.8515625
1771539347.1351874,42.96875,134.27734375,23.4375,26.85546875,-0.48828125
1771539347.1390936,51.7578125,211.9140625,24.4140625,21.484375,21.97265625
1771539347.141125,44.43359375,89.84375,24.4140625,20.01953125,41.50390625
1771539347.1450312,26.3671875,165.0390625,27.34375,23.92578125,5.37109375
1771539347.1489375,28.80859375,208.0078125,33.203125,36.1328125,-24.90234375
1771539347.1528437,31.73828125,103.515625,32.2265625,40.52734375,5.859375
1771539347.15675,25.87890625,25.87890625,34.1796875,33.203125,22.4609375
1771539347.1606562,23.4375,3.41796875,32.71484375,26.3671875,35.15625
1771539347.1645625,29.296875,101.07421875,26.3671875,32.2265625,60.546875
1771539347.1684687,35.15625,39.0625,26.85546875,43.45703125,9.765625
1771539347.172375,23.92578125,-233.88671875,27.83203125,26.85546875,9.27734375
1771539347.1762812,25.87890625,-16.11328125,28.3203125,7.8125,-2.9296875
1771539347.1801875,34.66796875,196.2890625,35.64453125,31.73828125,-4.39453125
1771539347.1840937,20.5078125,40.0390625,38.0859375,35.15625,27.83203125
1771539347.186125,24.4140625,9.765625,31.25,18.06640625,11.23046875
1771539347.1900313,34.1796875,209.47265625,31.73828125,17.578125,16.11328125
1771539347.1939375,30.76171875,253.90625,29.296875,23.4375,33.69140625
1771539347.1978438,33.203125,150.87890625,26.85546875,24.90234375,15.13671875
1771539347.20175,30.76171875,128.90625,31.73828125,20.99609375,15.13671875
1771539347.2056563,28.3203125,35.15625,32.71484375,30.76171875,23.92578125
1771539347.2095625,37.109375,112.3046875,30.76171875,39.0625,67.87109375
1771539347.2134688,36.1328125,-40.52734375,30.2734375,25.390625,76.171875
1771539347.217375,33.69140625,-135.25390625,31.25,19.53125,82.51953125
1771539347.2212813,35.64453125,238.76953125,34.1796875,23.92578125,81.0546875
1771539347.2251875,30.76171875,229.4921875,32.71484375,25.390625,56.15234375
1771539347.2290938,26.85546875,132.8125,29.296875,20.5078125,28.80859375
1771539347.231125,40.0390625,94.7265625,30.76171875,28.3203125,23.92578125
1771539347.2350314,43.45703125,187.5,31.25,22.94921875,72.265625
1771539347.2389376,35.15625,163.0859375,31.25,17.08984375,70.3125
1771539347.2428439,37.109375,60.546875,33.203125,23.92578125,101.5625
1771539347.24675,37.59765625,151.85546875,27.34375,14.6484375,40.0390625
1771539347.2506564,36.1328125,87.890625,27.34375,19.04296875,-5.859375
1771539347.2545626,32.2265625,-134.765625,33.69140625,34.66796875,-7.8125
1771539347.2584689,28.3203125,-193.84765625,30.76171875,37.59765625,-1.46484375
1771539347.262375,30.76171875,133.30078125,35.64453125,21.484375,61.5234375
1771539347.2662814,25.87890625,313.4765625,34.66796875,12.20703125,33.69140625
1771539347.2701876,16.6015625,21.97265625,28.3203125,8.7890625,0.48828125
1771539347.2740939,25.390625,-104.00390625,32.71484375,20.99609375,-2.44140625
1771539347.276125,25.390625,200.1953125,31.25,27.83203125,7.8125
1771539347.2800312,23.92578125,252.44140625,27.83203125,24.90234375,14.6484375
1771539347.2839375,33.203125,92.7734375,37.59765625,19.53125,12.20703125
1771539347.2878437,27.34375,-22.4609375,36.1328125,19.04296875,0.48828125
1771539347.29175,21.484375,123.53515625,24.90234375,11.71875,18.06640625
1771539347.2956562,27.34375,123.53515625,26.85546875,12.6953125,30.76171875
1771539347.2995625,27.83203125,-209.9609375,27.34375,25.390625,28.3203125
1771539347.3034687,23.92578125,-323.2421875,24.4140625,17.578125,24.4140625
1771539347.307375,31.25,136.23046875,30.2734375,14.6484375,30.76171875
1771539347.3112812,44.43359375,288.0859375,30.76171875,17.08984375,30.2734375
1771539347.3151875,27.34375,148.92578125,30.2734375,15.625,37.109375
1771539347.3190937,22.94921875,149.90234375,32.2265625,15.625,10.7421875
1771539347.321125,31.25,203.125,28.80859375,21.484375,-21.484375
1771539347.3250313,25.87890625,195.80078125,27.34375,27.83203125,61.03515625
1771539347.3289375,41.9921875,95.21484375,22.94921875,39.0625,72.75390625
1771539347.3328438,47.8515625,112.79296875,23.92578125,38.0859375,28.80859375
1771539347.33675,31.25,179.19921875,24.90234375,11.23046875,39.0625
1771539347.3406563,27.34375,-10.25390625,28.80859375,7.32421875,-20.99609375
1771539347.3445625,18.5546875,-408.203125,32.71484375,15.625,2.9296875
1771539347.3484688,11.23046875,-255.37109375,35.64453125,2.44140625,13.18359375
1771539347.352375,16.11328125,166.50390625,39.55078125,10.25390625,-24.90234375
1771539347.3562813,13.671875,146.97265625,35.15625,12.20703125,6.8359375
1771539347.3601875,18.06640625,110.83984375,35.15625,13.671875,13.18359375
1771539347.3640938,28.3203125,231.93359375,38.57421875,29.78515625,62.5
1771539347.380125,20.01953125,231.93359375,36.1328125,30.76171875,77.63671875
1771539347.3840313,23.92578125,118.1640625,37.109375,32.2265625,33.69140625
1771539347.3879375,30.2734375,101.07421875,37.59765625,20.01953125,40.52734375
1771539347.3918438,26.85546875,197.75390625,32.71484375,16.11328125,78.61328125
1771539347.39575,31.25,151.3671875,33.69140625,20.99609375,54.6875
1771539347.3996563,30.2734375,-27.34375,34.66796875,30.76171875,25.390625
1771539347.4035625,33.203125,-62.01171875,37.59765625,41.50390625,42.96875
1771539347.4074688,40.0390625,44.921875,38.57421875,38.0859375,67.3828125
1771539347.411375,24.4140625,68.84765625,37.109375,25.390625,36.62109375
1771539347.4152813,26.3671875,-144.53125,33.69140625,22.94921875,52.24609375
1771539347.4191875,35.64453125,-235.3515625,30.76171875,21.97265625,36.62109375
1771539347.4230938,26.85546875,116.69921875,32.71484375,13.671875,30.2734375
1771539347.426125,22.94921875,152.34375,32.2265625,12.20703125,29.78515625
1771539347.4300313,32.71484375,96.19140625,31.25,23.4375,35.15625
1771539347.4339375,39.0625,212.890625,29.296875,21.97265625,46.38671875
1771539347.4378438,30.76171875,213.8671875,34.66796875,24.90234375,3.41796875
1771539347.44175,40.0390625,133.7890625,34.66796875,26.85546875,61.5234375
1771539347.4456563,46.875,-4.8828125,26.3671875,17.578125,106.4453125
1771539347.4495625,31.25,-34.66796875,29.78515625,17.578125,40.52734375
1771539347.4534688,25.87890625,134.27734375,28.80859375,19.04296875,4.39453125
1771539347.457375,24.90234375,72.75390625,29.78515625,24.90234375,27.83203125
1771539347.4612813,16.6015625,-286.62109375,28.80859375,16.6015625,-12.20703125
1771539347.4651875,16.11328125,-78.61328125,24.4140625,18.06640625,6.8359375
1771539347.4690938,19.04296875,268.5546875,22.4609375,19.53125,48.33984375
1771539347.471125,23.92578125,77.1484375,16.11328125,17.578125,16.11328125
1771539347.4750311,22.4609375,-22.4609375,22.4609375,20.99609375,12.20703125
1771539347.4789374,23.4375,233.88671875,27.83203125,18.5546875,55.17578125
1771539347.4828436,29.78515625,243.1640625,20.99609375,14.6484375,22.4609375
1771539347.48675,33.203125,126.46484375,21.484375,25.87890625,18.06640625
1771539347.4906561,34.1796875,1.953125,23.92578125,38.0859375,34.66796875
1771539347.4945624,33.203125,-80.56640625,20.01953125,23.4375,-9.27734375
1771539347.4984686,33.69140625,111.328125,20.5078125,20.5078125,37.59765625
1771539347.502375,32.2265625,-67.87109375,23.92578125,37.59765625,43.45703125
1771539347.5062811,33.203125,-145.99609375,28.80859375,39.0625,44.921875
1771539347.5101874,20.99609375,254.39453125,28.80859375,28.80859375,64.453125
1771539347.5140936,27.83203125,250.9765625,23.4375,38.57421875,42.48046875
1771539347.516125,36.1328125,57.12890625,26.3671875,48.828125,13.671875
1771539347.5200312,30.2734375,86.42578125,28.80859375,54.19921875,0.9765625
1771539347.5239375,33.69140625,195.80078125,27.83203125,54.6875,-1.953125
1771539347.5278437,44.43359375,99.609375,24.90234375,49.8046875,16.6015625
1771539347.53175,58.10546875,-15.13671875,29.296875,43.45703125,32.71484375
1771539347.5356562,58.59375,-5.37109375,31.73828125,47.8515625,20.5078125
1771539347.5395625,57.6171875,64.94140625,26.3671875,46.38671875,53.7109375
1771539347.5434687,61.5234375,16.6015625,27.83203125,39.0625,21.97265625
1771539347.547375,55.17578125,-196.77734375,26.3671875,43.9453125,-7.32421875
1771539347.5512812,51.26953125,45.41015625,22.94921875,44.921875,6.8359375
1771539347.5551875,42.96875,257.8125,30.2734375,41.50390625,0.9765625
1771539347.5590937,40.52734375,128.90625,30.2734375,41.50390625,6.8359375
1771539347.561125,48.33984375,125.48828125,26.85546875,49.31640625,2.9296875
1771539347.5650313,44.921875,267.578125,31.73828125,45.8984375,54.19921875
1771539347.5689375,41.015625,131.8359375,27.34375,50.29296875,27.34375
1771539347.5728438,38.0859375,-122.55859375,24.4140625,46.38671875,2.44140625
1771539347.57675,37.59765625,14.16015625,30.76171875,38.57421875,27.83203125
1771539347.5806563,36.62109375,81.54296875,25.390625,38.0859375,4.8828125
1771539347.5845625,32.2265625,50.29296875,24.4140625,27.83203125,41.50390625
1771539347.5884688,31.73828125,-105.46875,26.85546875,23.92578125,100.09765625
1771539347.592375,37.59765625,-182.12890625,26.3671875,33.69140625,56.15234375
1771539347.5962813,33.69140625,251.46484375,30.2734375,30.76171875,51.7578125
1771539347.6001875,27.34375,317.3828125,30.2734375,33.69140625,71.77734375
1771539347.6040938,30.76171875,144.04296875,28.3203125,41.9921875,41.50390625
1771539347.620125,36.1328125,190.91796875,27.34375,37.59765625,31.25
1771539347.6240313,38.57421875,287.109375,24.90234375,37.109375,33.69140625
1771539347.6279376,29.78515625,151.3671875,24.4140625,27.34375,4.8828125
1771539347.6318438,20.5078125,77.63671875,29.296875,14.16015625,27.34375
1771539347.63575,21.484375,166.9921875,25.87890625,19.04296875,80.078125
1771539347.6396563,28.80859375,88.8671875,21.97265625,19.53125,54.19921875
1771539347.6435626,33.69140625,-55.17578125,20.01953125,13.671875,15.13671875
1771539347.6474688,33.203125,-328.61328125,19.53125,15.625,36.62109375
1771539347.651375,22.94921875,-162.109375,25.390625,2.9296875,36.62109375
1771539347.6552813,23.4375,263.671875,30.2734375,8.30078125,15.13671875
1771539347.6591876,25.87890625,219.7265625,28.3203125,27.83203125,30.2734375
1771539347.6630938,25.87890625,190.91796875,24.90234375,24.4140625,58.59375
1771539347.651125,24.90234375,249.51171875,22.4609375,0.9765625,53.7109375
1771539347.6550312,26.3671875,238.76953125,27.34375,8.7890625,44.921875
1771539347.6589375,27.83203125,145.99609375,30.2734375,20.99609375,32.71484375
1771539347.6628437,25.390625,120.1171875,28.3203125,16.11328125,23.92578125
1771539347.66675,24.90234375,197.265625,31.25,19.53125,45.8984375
1771539347.6706562,25.87890625,55.6640625,32.2265625,15.625,49.8046875
1771539347.6745625,21.484375,-29.296875,28.3203125,20.99609375,53.22265625
1771539347.6784687,19.04296875,12.6953125,25.87890625,27.83203125,38.57421875
1771539347.682375,13.18359375,122.55859375,26.3671875,18.5546875,35.64453125
1771539347.6862812,10.7421875,207.51953125,26.3671875,14.16015625,4.39453125
1771539347.6901875,29.78515625,-121.58203125,28.80859375,19.04296875,7.8125
1771539347.6940937,32.71484375,-241.2109375,30.76171875,20.01953125,58.59375
1771539347.696125,11.23046875,185.546875,30.76171875,18.06640625,52.734375
1771539347.7000313,11.71875,227.05078125,31.73828125,13.18359375,45.41015625
1771539347.7039375,20.99609375,124.51171875,32.2265625,15.13671875,29.78515625
1771539347.7078438,19.53125,217.28515625,31.73828125,15.13671875,12.6953125
1771539347.71175,20.01953125,229.4921875,32.2265625,20.01953125,9.27734375
1771539347.7156563,18.5546875,-41.9921875,26.3671875,26.3671875,4.8828125
1771539347.7195625,15.13671875,-90.8203125,28.3203125,26.85546875,76.66015625
1771539347.7234688,28.80859375,207.03125,32.2265625,38.57421875,94.7265625
1771539347.727375,40.0390625,261.23046875,32.2265625,27.83203125,25.390625
1771539347.7312813,32.71484375,-9.27734375,34.1796875,4.39453125,-3.90625
1771539347.7351875,26.3671875,-239.74609375,31.73828125,5.859375,41.9921875
1771539347.7390938,24.4140625,109.86328125,30.76171875,16.11328125,68.359375
1771539347.756125,27.34375,278.3203125,26.85546875,19.53125,25.87890625
1771539347.7600312,26.3671875,124.51171875,23.4375,21.484375,17.08984375
1771539347.7639375,17.08984375,124.51171875,26.3671875,12.6953125,57.12890625
1771539347.7678437,20.5078125,238.76953125,26.85546875,3.41796875,60.05859375
1771539347.77175,20.99609375,206.54296875,22.94921875,3.41796875,21.97265625
1771539347.7756562,19.04296875,-13.671875,23.92578125,6.34765625,-0.9765625
1771539347.7795625,18.06640625,-17.08984375,25.87890625,3.90625,62.5
1771539347.7834687,23.92578125,142.08984375,22.94921875,4.8828125,15.13671875
1771539347.787375,20.99609375,211.9140625,26.85546875,19.04296875,-9.27734375
1771539347.7912812,17.08984375,-92.7734375,27.34375,16.6015625,11.23046875
1771539347.7951875,8.30078125,-134.765625,26.85546875,-2.9296875,7.8125
1771539347.7990937,7.32421875,220.703125,34.66796875,-8.30078125,26.85546875
1771539347.800125,25.390625,116.69921875,37.109375,10.7421875,39.0625
1771539347.8040311,15.625,3.41796875,32.2265625,17.08984375,72.265625
1771539347.8079374,5.37109375,131.8359375,30.2734375,6.34765625,31.25
1771539347.8118436,2.9296875,209.9609375,29.296875,5.37109375,0.48828125
1771539347.81575,6.34765625,145.99609375,30.76171875,8.30078125,17.08984375
1771539347.8196561,17.578125,-7.32421875,36.62109375,15.625,28.3203125
1771539347.8235624,9.765625,2.9296875,34.66796875,9.765625,-2.9296875
1771539347.8274686,1.953125,165.52734375,33.203125,2.9296875,-24.90234375
1771539347.831375,12.6953125,83.984375,27.83203125,3.41796875,12.6953125
1771539347.8352811,24.90234375,-176.7578125,24.90234375,5.859375,19.53125
1771539347.8391874,20.5078125,62.5,31.73828125,5.37109375,41.015625
1771539347.8430936,5.37109375,207.03125,31.73828125,2.9296875,34.66796875
1771539347.861125,5.37109375,137.20703125,31.25,10.25390625,35.64453125
1771539347.8650312,20.5078125,197.75390625,33.203125,20.01953125,49.8046875
1771539347.8689375,26.3671875,201.171875,31.73828125,20.01953125,83.49609375
1771539347.8728437,14.6484375,133.7890625,28.80859375,12.6953125,86.9140625
1771539347.87675,6.34765625,23.4375,26.3671875,11.23046875,43.45703125
1771539347.8806562,12.6953125,-57.6171875,25.87890625,19.53125,35.64453125
1771539347.8845625,9.27734375,108.88671875,29.296875,18.5546875,71.2890625
1771539347.8884687,3.90625,260.7421875,32.2265625,14.6484375,61.5234375
1771539347.892375,13.18359375,-68.359375,30.76171875,14.16015625,34.1796875
1771539347.8962812,35.15625,-112.3046875,36.62109375,40.52734375,73.2421875
1771539347.9001875,74.70703125,293.45703125,47.36328125,72.75390625,70.80078125
1771539347.9040937,55.17578125,222.16796875,31.25,33.203125,33.69140625
1771539347.891125,7.8125,96.19140625,17.578125,-9.27734375,29.296875
1771539347.8950312,-3.41796875,194.82421875,12.6953125,-15.625,20.99609375
1771539347.8989375,12.20703125,236.328125,6.8359375,-11.71875,-18.06640625
1771539347.9028437,29.296875,120.60546875,1.953125,4.8828125,-23.92578125
1771539347.90675,9.765625,21.97265625,-4.39453125,-17.578125,13.671875
1771539347.9106562,13.18359375,61.5234375,-12.6953125,-25.390625,31.73828125
1771539347.9145625,46.875,106.4453125,-16.6015625,-4.39453125,33.69140625
1771539347.9184687,22.4609375,19.53125,-18.06640625,-25.87890625,49.8046875
1771539347.922375,12.20703125,37.59765625,-25.390625,-34.66796875,40.52734375
1771539347.9262812,20.99609375,217.28515625,-27.34375,-18.5546875,22.4609375
1771539347.9301875,23.4375,304.6875,-16.6015625,-5.37109375,-0.48828125
1771539347.9340937,35.64453125,123.53515625,-14.16015625,3.90625,36.1328125
1771539347.936125,35.64453125,-239.2578125,-12.6953125,2.9296875,20.01953125
1771539347.9400313,23.4375,-1.46484375,-2.9296875,-8.30078125,-24.4140625
1771539347.9439375,32.2265625,305.17578125,-3.41796875,3.90625,9.27734375
1771539347.9478438,36.1328125,238.28125,-4.8828125,10.7421875,28.80859375
1771539347.95175,31.73828125,175.29296875,-5.37109375,3.90625,-15.625
1771539347.9556563,29.78515625,37.109375,-3.41796875,0.0,-38.57421875
1771539347.9595625,33.69140625,93.26171875,-3.41796875,6.34765625,-23.4375
1771539347.9634688,40.52734375,9.765625,-5.37109375,-0.48828125,40.52734375
1771539347.967375,32.71484375,-202.1484375,-2.9296875,-4.8828125,61.03515625
1771539347.9712813,19.53125,166.50390625,2.44140625,-8.7890625,39.55078125
1771539347.9751875,26.3671875,319.3359375,4.39453125,0.0,62.98828125
1771539347.9790938,42.96875,181.15234375,2.44140625,13.671875,15.625
1771539347.981125,40.0390625,179.6875,2.9296875,12.6953125,-45.41015625
1771539347.9850314,33.69140625,256.8359375,6.34765625,11.71875,-2.9296875
1771539347.9889376,33.203125,199.70703125,8.30078125,7.32421875,62.5
1771539347.9928439,35.64453125,147.94921875,11.71875,16.11328125,65.4296875
1771539347.99675,34.66796875,218.26171875,11.71875,23.92578125,62.98828125
1771539348.0006564,31.25,133.30078125,6.34765625,16.6015625,71.2890625
1771539348.0045626,36.62109375,-54.6875,10.25390625,27.83203125,69.82421875
1771539348.0084689,44.921875,-215.8203125,11.23046875,32.2265625,46.875
1771539348.012375,44.921875,37.109375,8.30078125,20.99609375,33.69140625
1771539348.0162814,35.64453125,202.1484375,11.71875,19.53125,-5.37109375
1771539348.0201876,27.34375,-13.671875,12.6953125,29.78515625,-8.30078125
1771539348.0240939,37.109375,21.97265625,13.671875,32.71484375,31.73828125
1771539348.026125,39.0625,277.34375,15.625,24.90234375,48.33984375
1771539348.0300312,32.71484375,293.9453125,16.6015625,28.3203125,64.453125
1771539348.0339375,30.2734375,148.92578125,19.04296875,17.578125,57.12890625
1771539348.0378437,22.4609375,92.7734375,19.53125,11.71875,-6.8359375
1771539348.04175,25.390625,182.6171875,23.92578125,25.87890625,-19.53125
1771539348.0456562,31.73828125,121.09375,25.390625,25.390625,21.97265625
1771539348.0495625,27.83203125,-149.90234375,20.99609375,18.06640625,91.796875
1771539348.0534687,17.578125,-156.73828125,23.4375,11.71875,98.6328125
1771539348.057375,19.53125,276.85546875,25.87890625,16.6015625,87.890625
1771539348.0612812,32.71484375,350.5859375,25.87890625,31.73828125,123.046875
1771539348.0651875,28.3203125,197.75390625,26.85546875,24.4140625,84.47265625
1771539348.0690937,11.23046875,81.0546875,27.34375,9.765625,30.76171875
1771539348.079125,11.71875,83.49609375,21.97265625,19.04296875,-8.7890625
1771539348.0830312,20.5078125,155.2734375,23.4375,26.85546875,10.7421875
1771539348.0869374,20.01953125,34.1796875,27.83203125,25.87890625,48.828125
1771539348.0908437,20.01953125,85.44921875,27.83203125,17.578125,7.8125
1771539348.09475,20.01953125,222.65625,27.34375,18.06640625,11.23046875
1771539348.0986562,34.1796875,30.76171875,26.85546875,31.25,-3.90625
1771539348.1025624,35.64453125,-275.390625,25.87890625,22.4609375,-18.06640625
1771539348.1064687,20.5078125,-34.66796875,28.3203125,19.53125,0.48828125
1771539348.110375,28.3203125,279.296875,34.1796875,22.4609375,46.875
1771539348.1142812,49.31640625,184.08203125,33.203125,23.4375,43.9453125
1771539348.1181874,49.31640625,144.53125,29.296875,28.3203125,31.73828125
1771539348.1220937,23.4375,199.70703125,24.90234375,22.4609375,17.08984375
1771539348.131125,8.30078125,170.41015625,24.90234375,13.671875,-1.46484375
1771539348.1350312,21.97265625,114.2578125,26.85546875,23.4375,30.2734375
1771539348.1389375,30.76171875,6.34765625,27.34375,32.2265625,7.32421875
1771539348.1428437,22.4609375,121.09375,27.83203125,20.01953125,49.8046875
1771539348.14675,33.203125,248.046875,29.296875,33.203125,93.26171875
1771539348.1506562,59.08203125,-103.02734375,29.78515625,56.640625,38.0859375
1771539348.1545625,48.828125,-365.72265625,21.484375,44.921875,26.3671875
1771539348.1584687,28.80859375,33.69140625,27.34375,27.34375,18.5546875
1771539348.162375,29.78515625,224.609375,31.25,22.94921875,24.90234375
1771539348.1662812,19.53125,129.8828125,30.76171875,22.4609375,38.57421875
1771539348.1701875,30.76171875,174.31640625,40.0390625,37.109375,22.4609375
1771539348.1740937,46.875,220.703125,37.109375,52.24609375,15.13671875
1771539348.176125,45.8984375,120.1171875,36.62109375,48.828125,16.6015625
1771539348.1800313,51.26953125,-11.23046875,24.4140625,40.52734375,-28.3203125
1771539348.1839375,53.7109375,113.76953125,19.53125,49.8046875,0.0
1771539348.1878438,45.8984375,225.09765625,27.83203125,54.6875,52.734375
1771539348.19175,38.0859375,47.36328125,25.87890625,34.66796875,41.015625
1771539348.1956563,36.62109375,-227.05078125,28.80859375,29.296875,22.94921875
1771539348.1995625,42.96875,-109.375,30.76171875,44.43359375,23.92578125
1771539348.2034688,34.66796875,168.45703125,27.34375,37.109375,36.1328125
1771539348.207375,28.80859375,31.73828125,28.80859375,32.2265625,21.484375
1771539348.2112813,37.109375,-296.875,28.80859375,39.55078125,14.6484375
1771539348.2151875,40.0390625,-52.24609375,30.76171875,35.64453125,-23.92578125
1771539348.2190938,41.50390625,209.47265625,29.296875,35.15625,-24.90234375
1771539348.221125,43.45703125,115.234375,29.296875,34.1796875,11.23046875
1771539348.2250311,36.1328125,70.80078125,30.2734375,29.296875,12.20703125
1771539348.2289374,25.390625,155.2734375,27.83203125,23.92578125,10.25390625
1771539348.2328436,35.15625,196.77734375,28.80859375,37.59765625,20.01953125
1771539348.23675,48.828125,123.046875,16.6015625,36.62109375,48.828125
1771539348.2406561,44.921875,-37.109375,9.27734375,24.90234375,32.2265625
1771539348.2445624,38.0859375,-35.64453125,12.6953125,26.3671875,62.01171875
1771539348.2484686,33.203125,102.05078125,17.08984375,31.25,136.23046875
1771539348.252375,36.1328125,-151.85546875,22.4609375,35.64453125,71.77734375
1771539348.2562811,30.2734375,-151.85546875,26.3671875,33.203125,28.3203125
1771539348.2601874,22.4609375,210.9375,22.4609375,20.5078125,65.91796875
1771539348.2640936,33.203125,231.4453125,20.5078125,24.90234375,72.75390625
1771539348.266125,40.52734375,-71.77734375,26.3671875,40.0390625,76.171875
1771539348.2700312,34.1796875,-92.7734375,27.34375,27.34375,50.29296875
1771539348.2739375,20.99609375,178.7109375,29.78515625,20.5078125,-34.66796875
1771539348.2778437,25.390625,140.13671875,30.2734375,30.2734375,-1.46484375
1771539348.28175,35.15625,92.7734375,26.3671875,29.296875,12.6953125
1771539348.2856562,36.1328125,48.828125,28.80859375,28.80859375,4.39453125
1771539348.2895625,35.64453125,83.0078125,30.2734375,16.11328125,20.99609375
1771539348.2934687,20.99609375,50.78125,24.90234375,9.27734375,-7.8125
1771539348.297375,21.484375,-174.8046875,24.90234375,12.6953125,20.99609375
1771539348.3012812,21.484375,-39.0625,29.78515625,16.11328125,31.73828125
1771539348.3051875,12.20703125,257.32421875,26.3671875,16.11328125,38.0859375
1771539348.3090937,21.484375,108.3984375,23.4375,15.13671875,44.43359375
1771539348.311125,28.3203125,60.546875,27.83203125,18.5546875,69.82421875
1771539348.3150313,33.69140625,294.43359375,27.83203125,19.04296875,83.984375
1771539348.3189375,34.66796875,235.3515625,30.2734375,20.01953125,25.87890625
1771539348.3228438,24.4140625,106.4453125,30.76171875,17.578125,11.23046875
1771539348.32675,31.25,149.90234375,25.87890625,23.92578125,41.9921875
1771539348.3306563,30.2734375,121.09375,23.92578125,28.80859375,65.4296875
1771539348.3345625,22.94921875,70.80078125,25.87890625,28.3203125,10.25390625
1771539348.3384688,21.484375,-141.11328125,26.85546875,20.5078125,-10.7421875
1771539348.342375,21.484375,-179.19921875,23.4375,15.625,35.15625
1771539348.3462813,41.50390625,231.93359375,21.97265625,28.80859375,25.390625
1771539348.3501875,41.015625,241.2109375,23.92578125,39.0625,0.0
1771539348.3540938,10.7421875,43.9453125,20.5078125,25.87890625,15.13671875
1771539348.355125,13.18359375,59.5703125,20.99609375,17.578125,24.4140625
1771539348.3590312,27.83203125,276.3671875,24.90234375,27.34375,31.25
1771539348.3629375,27.83203125,172.36328125,21.484375,30.76171875,4.8828125
1771539348.3668437,20.5078125,-35.15625,19.04296875,20.5078125,-1.953125
1771539348.37075,23.4375,138.671875,25.390625,4.8828125,68.359375
1771539348.3746562,27.83203125,173.828125,24.90234375,18.5546875,85.44921875
1771539348.3785625,25.87890625,30.76171875,18.5546875,36.62109375,71.2890625
1771539348.3824687,24.4140625,-216.796875,21.97265625,33.203125,73.2421875
1771539348.386375,27.34375,-78.125,28.3203125,5.37109375,47.36328125
1771539348.3902812,26.85546875,334.47265625,29.78515625,10.7421875,87.40234375
1771539348.3941875,21.97265625,236.81640625,25.87890625,25.87890625,65.91796875
1771539348.3980937,23.4375,116.2109375,26.85546875,21.484375,-0.9765625
1771539348.401125,20.01953125,206.0546875,28.80859375,23.4375,31.73828125
1771539348.4050312,20.99609375,204.58984375,25.390625,19.04296875,26.3671875
1771539348.4089375,35.64453125,-13.18359375,26.3671875,31.73828125,28.80859375
1771539348.4128437,46.875,-48.33984375,29.296875,30.76171875,5.37109375
1771539348.41675,40.52734375,171.875,29.296875,19.53125,23.4375
1771539348.4206562,32.2265625,107.421875,27.83203125,31.25,69.3359375
1771539348.4245625,37.109375,-204.58984375,26.3671875,35.64453125,21.484375
1771539348.4284687,38.57421875,-187.01171875,30.2734375,29.296875,34.1796875
1771539348.432375,31.73828125,219.23828125,28.80859375,20.01953125,70.80078125
1771539348.4362812,29.78515625,225.09765625,27.83203125,22.94921875,44.43359375
1771539348.4401875,38.57421875,63.96484375,30.76171875,39.55078125,-28.3203125
1771539348.4440937,42.48046875,95.21484375,28.80859375,34.66796875,-50.78125
1771539348.446125,55.6640625,174.8046875,31.73828125,44.921875,-24.90234375
1771539348.4500313,60.05859375,96.6796875,28.80859375,57.6171875,0.0
1771539348.4539375,58.59375,22.4609375,25.87890625,48.828125,-9.765625
1771539348.4578438,44.921875,135.7421875,40.0390625,45.8984375,2.44140625
1771539348.46175,12.6953125,60.546875,42.96875,36.62109375,-8.30078125
1771539348.4656563,25.87890625,-56.15234375,38.0859375,36.1328125,43.45703125
1771539348.4695625,47.36328125,-305.6640625,41.9921875,45.41015625,104.4921875
1771539348.4734688,36.1328125,-162.109375,40.0390625,44.921875,79.1015625
1771539348.477375,35.15625,254.8828125,40.52734375,40.0390625,57.12890625
1771539348.4812813,35.64453125,162.109375,40.0390625,29.296875,52.24609375
1771539348.4851875,26.3671875,143.06640625,40.52734375,25.390625,83.984375
1771539348.4890938,34.66796875,285.15625,41.9921875,44.921875,99.609375
1771539348.506125,36.62109375,256.8359375,35.15625,49.8046875,75.1953125
1771539348.5100312,40.0390625,83.984375,37.109375,52.24609375,36.1328125
1771539348.5139375,42.48046875,46.38671875,40.52734375,42.96875,38.57421875
1771539348.5178437,40.52734375,112.3046875,38.57421875,33.69140625,-8.30078125
1771539348.52175,40.52734375,136.23046875,33.69140625,32.71484375,-45.41015625
1771539348.5256562,31.73828125,-102.05078125,32.71484375,33.69140625,46.38671875
1771539348.5295625,31.73828125,-298.33984375,38.0859375,24.90234375,63.96484375
1771539348.5334687,35.64453125,-41.015625,38.57421875,35.15625,-12.6953125
1771539348.537375,41.9921875,136.23046875,38.57421875,52.24609375,-43.9453125
1771539348.5412812,43.9453125,-25.87890625,37.59765625,46.875,16.6015625
1771539348.5451875,37.59765625,-49.8046875,35.15625,44.921875,6.34765625
1771539348.5490937,36.62109375,183.59375,37.59765625,38.0859375,-17.08984375
1771539348.550125,43.9453125,171.875,36.62109375,43.45703125,2.44140625
1771539348.5540311,44.43359375,55.6640625,36.1328125,51.7578125,-17.08984375
1771539348.5579374,46.875,141.11328125,33.69140625,38.0859375,29.296875
1771539348.5618436,44.921875,157.2265625,35.64453125,24.4140625,3.41796875
1771539348.56575,21.484375,79.1015625,39.0625,32.2265625,-5.859375
1771539348.5696561,29.296875,-4.8828125,33.203125,39.0625,65.91796875
1771539348.5735624,40.52734375,27.34375,26.3671875,26.3671875,102.05078125
1771539348.5774686,36.62109375,125.9765625,24.4140625,14.6484375,32.71484375
1771539348.581375,43.45703125,83.984375,19.53125,15.13671875,32.2265625
1771539348.5852811,44.43359375,-341.30859375,13.671875,26.85546875,26.3671875
1771539348.5891874,38.57421875,-214.84375,17.578125,24.90234375,-20.5078125
1771539348.5930936,29.296875,249.0234375,20.99609375,8.7890625,41.9921875
1771539348.595125,17.578125,219.7265625,21.97265625,8.7890625,93.26171875
1771539348.5990312,23.92578125,191.89453125,21.484375,20.01953125,69.82421875
1771539348.6029375,30.76171875,249.0234375,24.4140625,22.94921875,50.78125
1771539348.6068437,20.99609375,206.0546875,22.94921875,10.25390625,36.1328125
1771539348.61075,31.73828125,107.91015625,24.4140625,5.37109375,41.9921875
1771539348.6146562,39.0625,32.2265625,29.296875,20.01953125,76.171875
1771539348.6185625,34.1796875,-38.57421875,31.25,35.64453125,33.69140625
1771539348.6224687,36.62109375,123.53515625,30.76171875,34.1796875,33.69140625
1771539348.626375,36.1328125,-83.984375,28.3203125,22.94921875,60.546875
1771539348.6302812,41.9921875,-187.01171875,36.1328125,25.87890625,53.22265625
1771539348.6341875,37.109375,245.60546875,39.0625,20.01953125,56.15234375
1771539348.6380937,44.43359375,142.08984375,38.0859375,20.5078125,52.24609375
1771539348.641125,34.66796875,-58.10546875,36.1328125,23.4375,41.9921875
1771539348.6450312,24.4140625,122.55859375,35.64453125,28.3203125,31.73828125
1771539348.6489375,43.9453125,254.8828125,39.55078125,33.69140625,13.671875
1771539348.6528437,41.015625,139.16015625,37.109375,30.76171875,25.87890625
1771539348.65675,33.69140625,95.703125,37.59765625,20.5078125,85.44921875
1771539348.6606562,39.55078125,-8.30078125,40.52734375,25.390625,19.53125
1771539348.6645625,38.0859375,65.91796875,37.109375,36.62109375,23.92578125
1771539348.6684687,32.71484375,128.41796875,36.1328125,26.85546875,81.0546875
1771539348.672375,14.6484375,-195.80078125,38.0859375,24.4140625,70.80078125
1771539348.6762812,6.34765625,30.2734375,36.1328125,27.34375,79.58984375
1771539348.6801875,9.765625,272.4609375,31.73828125,21.97265625,38.57421875
1771539348.6840937,7.32421875,47.8515625,37.59765625,26.85546875,-10.7421875
1771539348.687125,8.30078125,89.84375,45.8984375,24.90234375,9.27734375
1771539348.6910312,13.18359375,115.72265625,41.015625,6.8359375,11.23046875
1771539348.6949375,18.06640625,112.79296875,43.45703125,6.34765625,31.25
1771539348.6988437,17.08984375,85.9375,42.96875,17.578125,69.82421875
1771539348.70275,18.06640625,-2.44140625,34.66796875,14.16015625,5.859375
1771539348.7066562,13.671875,-18.06640625,40.52734375,9.765625,-21.484375
1771539348.7105625,9.27734375,77.63671875,39.0625,15.625,31.25
1771539348.7144687,18.5546875,-70.80078125,40.52734375,30.76171875,13.18359375
1771539348.718375,21.97265625,-197.75390625,44.921875,31.25,6.34765625
1771539348.7222812,17.08984375,180.17578125,34.66796875,14.16015625,9.27734375
1771539348.7261875,22.4609375,243.1640625,36.1328125,17.08984375,43.45703125
1771539348.7300937,32.2265625,168.9453125,39.55078125,40.0390625,63.4765625
1771539348.731125,38.0859375,170.41015625,34.1796875,42.48046875,10.7421875
1771539348.7350314,32.2265625,190.91796875,39.55078125,26.85546875,-10.25390625
1771539348.7389376,46.875,117.1875,41.9921875,34.1796875,21.97265625
1771539348.7428439,50.29296875,81.0546875,35.15625,42.48046875,50.78125
1771539348.74675,48.828125,57.12890625,33.69140625,40.0390625,15.13671875
1771539348.7506564,49.31640625,-29.78515625,32.71484375,34.66796875,-11.71875
1771539348.7545626,39.0625,-86.42578125,28.80859375,22.4609375,6.8359375
1771539348.7584689,31.73828125,-369.140625,28.3203125,29.78515625,-2.9296875
1771539348.762375,21.484375,-175.29296875,28.3203125,33.203125,25.390625
1771539348.7662814,17.08984375,285.15625,30.2734375,41.015625,47.8515625
1771539348.7701876,19.04296875,204.58984375,33.203125,32.71484375,64.94140625
1771539348.7740939,31.73828125,134.27734375,34.1796875,14.16015625,27.83203125
1771539348.776125,32.71484375,239.2578125,31.73828125,24.90234375,7.8125
1771539348.7800312,39.55078125,254.8828125,32.2265625,20.5078125,41.50390625
1771539348.7839375,30.2734375,113.76953125,24.90234375,11.23046875,30.2734375
1771539348.7878437,11.71875,45.8984375,13.671875,20.99609375,-22.94921875
1771539348.79175,20.99609375,166.015625,20.5078125,34.1796875,6.8359375
1771539348.7956562,30.76171875,59.08203125,26.3671875,37.59765625,18.06640625
1771539348.7995625,39.55078125,-285.64453125,23.92578125,30.76171875,-16.11328125
1771539348.8034687,38.0859375,-381.8359375,24.90234375,24.4140625,12.6953125
1771539348.807375,28.80859375,66.40625,26.3671875,30.2734375,13.671875
1771539348.8112812,44.921875,304.6875,24.90234375,48.828125,56.15234375
1771539348.8151875,43.45703125,146.97265625,26.3671875,43.9453125,34.66796875
1771539348.8190937,26.3671875,161.1328125,28.80859375,25.87890625,34.1796875
1771539348.821125,37.109375,249.51171875,29.78515625,45.41015625,37.59765625
1771539348.8250313,42.96875,171.38671875,29.78515625,42.48046875,25.390625
1771539348.8289375,38.0859375,59.08203125,31.25,32.71484375,34.1796875
1771539348.8328438,27.83203125,91.796875,28.3203125,21.484375,26.85546875
1771539348.83675,32.71484375,156.73828125,27.34375,19.53125,26.3671875
1771539348.8406563,36.62109375,-20.99609375,30.2734375,41.9921875,15.625
1771539348.8445625,37.59765625,-359.375,25.390625,24.90234375,-1.953125
1771539348.8484688,20.5078125,-125.48828125,24.90234375,10.7421875,-4.39453125
1771539348.852375,9.27734375,143.5546875,31.25,23.92578125,22.4609375
1771539348.8562813,25.390625,-51.7578125,34.66796875,26.85546875,56.640625
1771539348.8601875,35.64453125,-75.68359375,34.1796875,23.92578125,22.4609375
1771539348.8640938,24.4140625,133.7890625,30.2734375,19.04296875,-8.7890625
1771539348.866125,21.484375,199.70703125,33.69140625,17.578125,40.0390625
1771539348.8700314,36.1328125,115.234375,30.76171875,30.2734375,47.36328125
1771539348.8739376,40.0390625,85.44921875,25.390625,38.57421875,33.69140625
1771539348.8778439,31.25,156.25,28.80859375,33.69140625,42.96875
1771539348.88175,29.296875,172.8515625,28.3203125,23.92578125,93.75
1771539348.8856564,34.1796875,12.20703125,30.76171875,29.78515625,88.37890625
1771539348.8895626,40.52734375,-169.921875,30.2734375,35.64453125,1.46484375
1771539348.8934689,33.203125,-53.22265625,29.78515625,32.2265625,4.39453125
1771539348.897375,26.3671875,154.296875,30.2734375,25.87890625,63.4765625
1771539348.9012814,33.203125,-135.25390625,28.3203125,22.94921875,42.48046875
1771539348.9051876,35.64453125,-180.17578125,26.85546875,30.76171875,29.296875
1771539348.9090939,42.48046875,79.58984375,26.3671875,37.109375,13.671875
1771539348.925125,40.0390625,67.87109375,28.3203125,33.203125,27.34375
1771539348.9290311,21.97265625,-48.33984375,27.83203125,21.484375,53.7109375
1771539348.9329374,25.87890625,65.91796875,25.87890625,22.94921875,67.87109375
1771539348.9368436,44.43359375,218.75,31.73828125,38.0859375,52.734375
1771539348.94075,36.62109375,47.36328125,33.203125,33.203125,1.953125
1771539348.9446561,35.15625,-255.859375,24.90234375,26.85546875,29.78515625
1771539348.9485624,40.52734375,-91.796875,25.390625,37.59765625,77.1484375
1771539348.9524686,50.29296875,209.9609375,28.80859375,49.8046875,28.80859375
1771539348.956375,60.546875,18.5546875,30.2734375,46.38671875,8.30078125
1771539348.9602811,41.50390625,-166.9921875,32.2265625,42.96875,45.41015625
1771539348.9641874,37.109375,127.9296875,31.73828125,55.17578125,79.58984375
1771539348.9680936,44.43359375,259.765625,29.296875,47.36328125,83.0078125
1771539348.971125,44.43359375,92.28515625,27.34375,33.203125,44.921875
1771539348.9750311,44.921875,-27.34375,28.80859375,31.73828125,65.91796875
1771539348.9789374,44.921875,-9.765625,32.2265625,41.9921875,0.0
1771539348.9828436,49.8046875,156.73828125,35.15625,45.8984375,5.37109375
1771539348.98675,49.8046875,1.46484375,34.66796875,41.9921875,57.6171875
1771539348.9906561,38.0859375,-214.84375,31.25,37.59765625,17.578125
1771539348.9945624,26.3671875,-106.93359375,29.78515625,27.34375,25.390625
1771539348.9984686,27.83203125,75.68359375,32.71484375,33.69140625,-13.18359375
1771539349.002375,43.9453125,-83.49609375,33.69140625,38.0859375,50.78125
1771539349.0062811,41.015625,-226.5625,35.15625,37.109375,69.3359375
1771539349.0101874,18.5546875,94.7265625,36.62109375,30.76171875,-2.9296875
1771539349.0140936,26.85546875,169.43359375,38.0859375,28.3203125,35.64453125
1771539349.015125,33.203125,91.30859375,36.62109375,32.2265625,45.8984375
1771539349.0190313,35.15625,149.90234375,35.15625,25.87890625,59.5703125
1771539349.0229375,39.55078125,235.83984375,37.59765625,15.625,113.76953125
1771539349.0268438,34.66796875,63.4765625,33.69140625,21.97265625,64.94140625
1771539349.03075,38.0859375,-83.984375,33.69140625,33.203125,4.39453125
1771539349.0346563,39.55078125,-99.609375,35.15625,29.78515625,1.953125
1771539349.0385625,27.34375,-16.6015625,31.73828125,30.76171875,66.89453125
1771539349.0424688,36.62109375,5.859375,30.76171875,38.0859375,52.734375
1771539349.046375,47.8515625,-335.9375,30.2734375,35.15625,3.90625
1771539349.0502813,45.8984375,-158.69140625,35.15625,40.0390625,5.859375
1771539349.0541875,50.78125,229.98046875,37.109375,42.48046875,46.38671875
1771539349.0580938,43.9453125,121.09375,35.15625,36.1328125,61.5234375
1771539349.060125,38.0859375,41.015625,34.66796875,36.62109375,-11.71875
1771539349.0640314,41.015625,190.4296875,32.71484375,28.80859375,45.41015625
1771539349.0679376,32.71484375,225.09765625,31.25,31.25,107.91015625
1771539349.0718439,25.390625,38.57421875,31.25,27.83203125,29.78515625
1771539349.07575,31.25,2.9296875,33.203125,30.76171875,-0.9765625
1771539349.0796564,36.1328125,4.39453125,32.2265625,38.0859375,33.203125
1771539349.0835626,30.76171875,-27.34375,25.87890625,28.3203125,69.3359375
1771539349.0874689,37.109375,-253.90625,25.87890625,17.578125,51.7578125
1771539349.091375,45.41015625,-392.578125,33.69140625,16.11328125,21.484375
1771539349.0952814,29.78515625,110.3515625,36.1328125,30.76171875,75.68359375
1771539349.0991876,37.109375,238.76953125,30.2734375,31.73828125,50.29296875
1771539349.1030939,41.50390625,55.17578125,33.69140625,24.90234375,7.32421875
1771539349.106125,30.2734375,141.11328125,39.0625,28.80859375,43.9453125
1771539349.1100314,35.15625,275.390625,34.1796875,31.73828125,84.47265625
1771539349.1139376,44.43359375,116.69921875,34.66796875,41.9921875,23.4375
1771539349.1178439,35.15625,-3.90625,36.62109375,29.296875,16.11328125
1771539349.12175,29.296875,117.67578125,32.2265625,9.765625,78.125
1771539349.1256564,35.64453125,29.296875,34.1796875,27.83203125,1.953125
1771539349.1295626,33.69140625,-172.8515625,39.0625,38.0859375,-49.31640625
1771539349.1334689,28.80859375,-302.24609375,37.109375,35.64453125,27.83203125
1771539349.137375,22.4609375,-152.83203125,34.66796875,32.2265625,53.22265625
1771539349.1412814,29.78515625,130.37109375,34.1796875,31.73828125,42.96875
1771539349.1451876,42.96875,43.9453125,30.76171875,40.0390625,17.08984375
1771539349.1490939,29.78515625,-51.7578125,33.203125,37.109375,18.5546875
