timestamps,TP9,AF7,AF8,TP10,Right AUX
1771539131.724125,27.34375,-619.140625,28.3203125,21.97265625,69.3359375
1771539131.7280312,41.50390625,-371.09375,34.1796875,28.80859375,55.17578125
1771539131.7319374,11.23046875,-303.7109375,32.2265625,24.90234375,12.6953125
1771539131.7358437,10.25390625,-373.53515625,27.83203125,27.34375,52.734375
1771539131.73975,25.390625,-333.984375,25.87890625,21.97265625,100.5859375
1771539131.7436562,32.71484375,-502.9296875,33.203125,34.1796875,31.25
1771539131.7475624,30.2734375,-599.609375,34.1796875,33.69140625,-3.90625
1771539131.7514687,31.73828125,-740.72265625,30.2734375,27.34375,28.80859375
1771539131.755375,37.109375,-909.1796875,31.25,31.73828125,41.50390625
1771539131.7592812,35.64453125,-662.59765625,30.2734375,33.203125,-22.94921875
1771539131.7631874,35.64453125,-502.9296875,27.83203125,32.2265625,-19.53125
1771539131.7670937,24.4140625,-608.88671875,31.25,31.73828125,42.96875
1771539131.768125,32.2265625,-575.68359375,33.203125,32.71484375,17.08984375
1771539131.7720313,44.921875,-448.73046875,31.73828125,32.2265625,6.34765625
1771539131.7759376,38.0859375,-551.7578125,34.66796875,28.80859375,22.4609375
1771539131.7798438,13.671875,-648.92578125,37.59765625,32.71484375,22.4609375
1771539131.78375,11.23046875,-508.30078125,34.1796875,43.45703125,56.15234375
1771539131.7876563,34.1796875,-599.12109375,32.71484375,26.3671875,59.08203125
1771539131.7915626,33.69140625,-837.40234375,33.203125,24.4140625,28.80859375
1771539131.7954688,21.97265625,-965.8203125,36.1328125,30.76171875,15.625
1771539131.799375,21.484375,-780.2734375,30.76171875,28.3203125,-2.44140625
1771539131.8032813,29.78515625,-531.73828125,23.4375,21.97265625,29.296875
1771539131.8071876,45.41015625,-631.8359375,32.71484375,38.0859375,51.7578125
1771539131.8110938,25.390625,-748.53515625,33.203125,40.0390625,93.26171875
1771539131.813125,-0.9765625,-638.18359375,29.296875,24.4140625,91.796875
1771539131.8170311,10.7421875,-495.1171875,31.25,19.53125,74.70703125
1771539131.8209374,30.76171875,-715.33203125,30.76171875,23.4375,86.42578125
1771539131.8248436,48.33984375,-836.42578125,31.25,40.52734375,60.546875
1771539131.82875,45.41015625,-657.2265625,33.69140625,50.78125,23.4375
1771539131.8326561,44.921875,-757.32421875,31.25,68.84765625,14.16015625
1771539131.8365624,91.30859375,-929.6875,27.83203125,90.33203125,48.33984375
1771539131.8404686,79.58984375,-927.24609375,27.34375,59.08203125,25.87890625
1771539131.844375,6.8359375,-716.30859375,21.484375,-1.953125,44.921875
1771539131.8482811,43.45703125,-604.4921875,26.85546875,47.8515625,75.1953125
1771539131.8521874,103.515625,-729.00390625,32.71484375,96.6796875,60.05859375
1771539131.8560936,106.93359375,-800.78125,26.85546875,82.03125,39.0625
1771539131.859125,108.3984375,-696.2890625,22.4609375,95.21484375,57.12890625
1771539131.8630311,99.609375,-781.25,20.99609375,91.796875,69.3359375
1771539131.8669374,88.8671875,-961.9140625,16.11328125,67.3828125,32.71484375
1771539131.8708436,88.37890625,-893.5546875,18.06640625,86.42578125,3.41796875
1771539131.87475,85.44921875,-828.61328125,23.92578125,102.5390625,36.1328125
1771539131.8786561,91.30859375,-926.7578125,23.92578125,74.70703125,69.3359375
1771539131.8825624,97.16796875,-982.421875,25.87890625,76.66015625,32.71484375
1771539131.8864686,76.66015625,-958.984375,24.90234375,83.984375,-8.30078125
1771539131.890375,66.40625,-898.4375,20.01953125,73.2421875,8.7890625
1771539131.8942811,70.80078125,-909.1796875,25.390625,77.1484375,31.25
1771539131.8981874,78.61328125,-966.796875,28.3203125,78.61328125,6.34765625
1771539131.9020936,82.51953125,-965.8203125,22.94921875,71.77734375,-1.46484375
1771539131.918125,73.73046875,-969.7265625,16.6015625,68.359375,-23.92578125
1771539131.9220312,62.98828125,-969.7265625,18.5546875,53.7109375,1.46484375
1771539131.9259374,65.4296875,-970.21484375,20.99609375,57.6171875,45.41015625
1771539131.9298437,73.73046875,-970.21484375,19.53125,65.4296875,-14.16015625
1771539131.93375,57.6171875,-970.21484375,20.99609375,53.7109375,-33.203125
1771539131.9376562,37.109375,-969.7265625,17.578125,42.96875,32.71484375
1771539131.9415624,51.26953125,-969.7265625,13.671875,48.33984375,33.203125
1771539131.9454687,65.4296875,-974.12109375,19.04296875,48.828125,11.71875
1771539131.949375,66.40625,-942.87109375,21.484375,62.98828125,72.75390625
1771539131.9532812,69.3359375,-954.58984375,19.04296875,54.19921875,66.89453125
1771539131.9571874,49.8046875,-963.37890625,18.06640625,50.78125,41.50390625
1771539131.9610937,48.33984375,-941.89453125,21.97265625,58.59375,13.671875
1771539131.964125,72.265625,-969.7265625,28.80859375,51.7578125,-58.10546875
1771539131.9680312,53.22265625,-970.703125,28.80859375,62.98828125,14.6484375
1771539131.9719374,41.9921875,-971.19140625,23.92578125,55.17578125,-7.32421875
1771539131.9758437,57.12890625,-960.44921875,26.85546875,45.41015625,-16.11328125
1771539131.97975,57.6171875,-955.078125,26.3671875,49.31640625,38.0859375
1771539131.9836562,54.6875,-969.23828125,22.4609375,50.78125,48.33984375
1771539131.9875624,58.10546875,-973.14453125,23.92578125,47.8515625,6.34765625
1771539131.9914687,51.7578125,-963.8671875,23.92578125,37.109375,-26.85546875
1771539131.995375,39.55078125,-952.1484375,21.97265625,47.36328125,33.203125
1771539131.9992812,48.828125,-973.6328125,23.4375,60.546875,33.69140625
1771539132.0031874,53.7109375,-953.125,22.4609375,41.9921875,44.921875
1771539132.0070937,65.4296875,-870.1171875,27.34375,59.5703125,25.390625
1771539132.008125,80.56640625,-906.73828125,23.92578125,73.73046875,6.8359375
1771539132.0120313,42.48046875,-941.40625,21.484375,46.38671875,34.66796875
1771539132.0159376,3.90625,-859.86328125,28.80859375,11.71875,36.62109375
1771539132.0198438,19.53125,-783.203125,22.4609375,21.484375,80.078125
1771539132.02375,58.59375,-860.83984375,23.4375,67.3828125,48.828125
1771539132.0276563,66.40625,-981.93359375,33.203125,63.96484375,21.484375
1771539132.0315626,48.33984375,-967.28515625,31.25,69.3359375,36.1328125
1771539132.0354688,50.29296875,-965.8203125,23.4375,74.70703125,2.9296875
1771539132.039375,43.9453125,-972.65625,23.92578125,46.38671875,1.953125
1771539132.0432813,37.109375,-961.9140625,21.484375,40.0390625,48.33984375
1771539132.0471876,41.015625,-904.78515625,20.99609375,51.26953125,30.2734375
1771539132.0510938,37.109375,-873.046875,23.92578125,45.41015625,9.27734375
1771539132.053125,39.55078125,-938.96484375,27.34375,52.24609375,10.25390625
1771539132.0570312,63.4765625,-900.390625,27.83203125,58.59375,3.41796875
1771539132.0609374,70.3125,-810.546875,25.390625,50.29296875,27.83203125
1771539132.0648437,42.96875,-876.953125,25.87890625,44.921875,47.36328125
1771539132.06875,40.52734375,-886.23046875,26.85546875,46.38671875,122.55859375
1771539132.0726562,43.9453125,-909.1796875,31.25,46.875,71.2890625
1771539132.0765624,29.78515625,-979.4921875,32.71484375,42.48046875,-3.41796875
1771539132.0804687,42.96875,-958.49609375,29.78515625,47.8515625,10.7421875
1771539132.084375,55.17578125,-989.74609375,28.3203125,49.8046875,-29.296875
1771539132.0882812,37.109375,-875.0,22.4609375,36.1328125,7.32421875
1771539132.0921874,39.55078125,-734.86328125,20.5078125,30.2734375,102.05078125
1771539132.0960937,44.43359375,-904.296875,20.5078125,35.15625,68.84765625
1771539132.098125,27.83203125,-950.1953125,24.4140625,36.1328125,41.9921875
1771539132.1020312,29.78515625,-790.52734375,27.34375,38.57421875,25.87890625
1771539132.1059375,46.875,-743.1640625,21.97265625,40.52734375,36.62109375
1771539132.1098437,48.33984375,-854.4921875,21.484375,41.50390625,35.64453125
1771539132.11375,23.4375,-861.81640625,23.92578125,36.1328125,39.55078125
1771539132.1176562,30.76171875,-819.82421875,22.94921875,39.55078125,82.51953125
1771539132.1215625,30.2734375,-935.546875,25.390625,47.8515625,43.45703125
1771539132.1254687,25.87890625,-966.30859375,23.92578125,42.96875,38.57421875
1771539132.129375,28.80859375,-808.10546875,20.01953125,28.80859375,82.51953125
1771539132.1332812,25.390625,-624.51171875,24.90234375,34.1796875,91.796875
1771539132.1371875,37.109375,-605.46875,23.4375,32.71484375,71.77734375
1771539132.1410937,39.55078125,-842.7734375,25.87890625,20.99609375,78.61328125
1771539132.144125,26.85546875,-901.3671875,33.69140625,26.3671875,49.8046875
1771539132.1480312,19.53125,-785.15625,31.73828125,34.66796875,-8.30078125
1771539132.1519375,29.78515625,-757.32421875,23.4375,25.87890625,23.4375
1771539132.1558437,33.69140625,-831.54296875,29.296875,24.90234375,38.0859375
1771539132.15975,34.66796875,-742.67578125,36.1328125,36.1328125,18.5546875
1771539132.1636562,50.78125,-702.63671875,27.83203125,46.38671875,50.78125
1771539132.1675625,83.984375,-826.171875,17.578125,69.82421875,18.06640625
1771539132.1714687,73.2421875,-969.23828125,27.83203125,68.359375,-55.17578125
1771539132.175375,15.625,-767.08984375,45.41015625,38.57421875,4.39453125
1771539132.1792812,19.04296875,-489.74609375,40.0390625,31.25,37.109375
1771539132.1831875,29.296875,-549.31640625,35.15625,34.66796875,27.83203125
1771539132.1870937,-2.44140625,-551.26953125,35.64453125,2.44140625,29.296875
1771539132.189125,11.23046875,-416.50390625,39.55078125,8.7890625,66.89453125
1771539132.1930313,14.16015625,-402.34375,46.875,20.5078125,69.3359375
1771539132.1969376,-22.4609375,-472.65625,44.43359375,-0.9765625,57.12890625
1771539132.2008438,-15.13671875,-512.20703125,33.69140625,-2.44140625,89.84375
1771539132.20475,17.578125,-521.97265625,34.1796875,16.6015625,90.33203125
1771539132.2086563,9.27734375,-583.0078125,32.71484375,27.34375,13.18359375
1771539132.2125626,-14.16015625,-810.05859375,27.34375,17.578125,36.1328125
1771539132.2164688,-1.953125,-926.26953125,29.78515625,8.30078125,65.4296875
1771539132.220375,-0.9765625,-573.73046875,32.2265625,-2.44140625,22.4609375
1771539132.2242813,-9.765625,-361.328125,35.15625,10.7421875,15.625
1771539132.2281876,-2.44140625,-412.109375,32.2265625,23.92578125,51.26953125
1771539132.2320938,12.6953125,-287.109375,31.73828125,27.34375,89.84375
1771539132.234125,6.8359375,-180.6640625,33.203125,20.5078125,97.16796875
1771539132.2380311,5.859375,-310.546875,34.1796875,24.4140625,55.17578125
1771539132.2419374,14.16015625,-464.84375,35.64453125,34.66796875,0.48828125
1771539132.2458436,14.6484375,-363.28125,31.73828125,26.85546875,1.953125
1771539132.24975,27.34375,-285.64453125,27.83203125,26.85546875,7.32421875
1771539132.2536561,34.66796875,-462.890625,30.76171875,35.64453125,20.99609375
1771539132.2575624,20.5078125,-884.765625,34.1796875,30.2734375,53.7109375
1771539132.2614686,20.5078125,-768.5546875,35.64453125,22.94921875,78.61328125
1771539132.265375,24.90234375,-301.26953125,32.2265625,24.90234375,31.73828125
1771539132.2692811,18.06640625,-323.2421875,31.25,25.390625,24.90234375
1771539132.2731874,23.92578125,-431.15234375,35.15625,29.296875,-5.859375
1771539132.2770936,29.296875,-393.06640625,34.1796875,32.2265625,-26.85546875
1771539132.293125,27.83203125,-231.4453125,33.69140625,32.2265625,29.296875
1771539132.2970312,24.4140625,-254.39453125,33.69140625,19.53125,48.33984375
1771539132.3009374,23.4375,-317.87109375,34.66796875,21.484375,32.2265625
1771539132.3048437,16.11328125,-190.91796875,29.296875,12.20703125,60.05859375
1771539132.30875,6.8359375,-135.25390625,27.34375,20.99609375,63.96484375
1771539132.3126562,12.6953125,-355.95703125,31.25,35.15625,7.8125
1771539132.3165624,20.5078125,-467.28515625,30.2734375,27.83203125,20.5078125
1771539132.3204687,20.01953125,-294.43359375,26.85546875,29.296875,37.109375
1771539132.324375,11.71875,-275.87890625,27.34375,30.2734375,19.53125
1771539132.3282812,14.6484375,-601.5625,30.76171875,29.78515625,22.94921875
1771539132.3321874,21.484375,-702.1484375,29.78515625,20.99609375,19.04296875
1771539132.3360937,19.53125,-268.06640625,27.83203125,32.2265625,20.99609375
1771539132.338125,23.92578125,-144.53125,32.71484375,42.96875,51.26953125
1771539132.3420312,29.296875,-172.8515625,29.78515625,34.1796875,83.984375
1771539132.3459375,34.66796875,-89.35546875,30.2734375,42.48046875,79.58984375
1771539132.3498437,32.2265625,-56.15234375,34.1796875,45.8984375,52.734375
1771539132.35375,41.50390625,-153.80859375,29.296875,42.96875,44.921875
1771539132.3576562,54.19921875,-313.4765625,33.203125,59.5703125,68.359375
1771539132.3615625,29.296875,-301.7578125,34.66796875,51.26953125,52.734375
1771539132.3654687,11.71875,-114.74609375,29.78515625,40.52734375,35.15625
1771539132.369375,28.3203125,-229.00390625,34.66796875,41.50390625,28.3203125
1771539132.3732812,35.15625,-524.90234375,36.1328125,38.57421875,41.9921875
1771539132.3771875,30.2734375,-418.45703125,30.76171875,31.73828125,7.32421875
1771539132.3810937,27.34375,-147.94921875,32.2265625,38.57421875,23.92578125
1771539132.384125,25.390625,-216.30859375,36.62109375,32.71484375,85.9375
1771539132.3880312,26.85546875,-297.36328125,34.66796875,31.25,68.359375
1771539132.3919375,34.66796875,-92.7734375,30.76171875,37.59765625,19.53125
1771539132.3958437,39.55078125,-123.53515625,33.69140625,31.73828125,-34.66796875
1771539132.39975,24.90234375,-185.05859375,34.66796875,32.2265625,5.859375
1771539132.4036562,10.7421875,-301.7578125,33.69140625,29.78515625,26.3671875
1771539132.4075625,16.11328125,-270.99609375,32.71484375,44.43359375,45.41015625
1771539132.4114687,24.4140625,-83.984375,33.69140625,31.25,52.24609375
1771539132.415375,32.71484375,-422.36328125,30.76171875,22.94921875,0.0
1771539132.4192812,27.83203125,-572.75390625,30.76171875,40.0390625,29.78515625
1771539132.4231875,24.90234375,-57.6171875,33.69140625,39.55078125,93.26171875
1771539132.4270937,25.87890625,-3.41796875,29.296875,20.99609375,84.47265625
1771539132.429125,28.3203125,-172.36328125,24.4140625,11.71875,47.8515625
1771539132.4330313,30.2734375,-264.6484375,25.390625,33.69140625,14.6484375
1771539132.4369376,34.1796875,-211.9140625,18.5546875,39.55078125,-42.48046875
1771539132.4408438,68.359375,-173.33984375,20.01953125,42.48046875,-19.53125
1771539132.44475,80.078125,-376.46484375,38.57421875,67.3828125,-15.625
1771539132.4486563,34.1796875,-348.14453125,41.9921875,58.10546875,36.1328125
1771539132.4525626,17.08984375,-280.2734375,33.69140625,34.66796875,52.24609375
1771539132.4564688,22.94921875,-423.33984375,38.0859375,23.4375,-35.64453125
1771539132.460375,16.11328125,-587.890625,37.109375,11.71875,40.52734375
1771539132.4642813,4.8828125,-297.36328125,28.80859375,5.859375,115.72265625
1771539132.4681876,-1.46484375,-38.0859375,35.15625,1.46484375,79.1015625
1771539132.4720938,-20.01953125,-153.3203125,35.64453125,-13.18359375,32.71484375
1771539132.473125,-32.2265625,-187.01171875,31.73828125,-35.64453125,31.73828125
1771539132.4770312,-21.97265625,-99.609375,35.64453125,-31.73828125,37.59765625
1771539132.4809375,-17.578125,-49.8046875,36.1328125,-18.06640625,78.61328125
1771539132.4848437,-12.6953125,-159.66796875,29.78515625,-24.4140625,82.51953125
1771539132.48875,-15.625,-202.1484375,22.4609375,-22.4609375,60.546875
1771539132.4926562,-6.34765625,-221.19140625,26.3671875,-12.20703125,78.61328125
1771539132.4965625,9.765625,-286.1328125,32.2265625,9.765625,88.37890625
1771539132.5004687,8.7890625,-451.66015625,28.3203125,6.34765625,106.4453125
1771539132.504375,10.7421875,-574.70703125,31.25,-2.9296875,77.1484375
1771539132.5082812,21.97265625,-275.390625,30.76171875,12.6953125,-30.2734375
1771539132.5121875,-1.953125,-147.4609375,27.83203125,12.6953125,-26.3671875
1771539132.5160937,-0.9765625,-214.35546875,35.64453125,19.04296875,0.0
1771539132.519125,23.4375,-109.86328125,31.25,13.18359375,23.4375
1771539132.5230312,13.671875,-11.71875,25.87890625,-4.8828125,49.31640625
1771539132.5269375,7.8125,-95.703125,23.4375,2.9296875,58.10546875
1771539132.5308437,19.04296875,-214.35546875,20.99609375,15.13671875,22.4609375
1771539132.53475,28.3203125,-102.05078125,23.4375,12.6953125,29.296875
1771539132.5386562,11.23046875,-119.140625,33.203125,25.390625,94.7265625
1771539132.5425625,14.6484375,-391.11328125,36.62109375,35.15625,66.40625
1771539132.5464687,38.0859375,-518.06640625,23.4375,19.04296875,61.5234375
1771539132.550375,23.4375,-251.953125,29.296875,40.52734375,63.96484375
1771539132.5542812,9.765625,-69.3359375,31.25,18.5546875,21.97265625
1771539132.5581875,16.11328125,-303.22265625,27.83203125,-4.8828125,36.1328125
1771539132.5620937,16.6015625,-576.171875,31.73828125,17.578125,39.0625
1771539132.563125,3.41796875,-295.41015625,30.76171875,17.578125,34.66796875
1771539132.5670311,2.9296875,-84.9609375,27.34375,11.23046875,59.5703125
1771539132.5709374,-3.90625,-220.703125,25.87890625,-0.9765625,75.1953125
1771539132.5748436,-3.90625,-258.30078125,29.78515625,-1.46484375,73.2421875
1771539132.57875,16.6015625,-180.17578125,29.78515625,13.671875,61.03515625
1771539132.5826561,35.64453125,-277.83203125,29.296875,11.23046875,49.31640625
1771539132.5865624,24.90234375,-663.57421875,24.90234375,8.7890625,24.90234375
1771539132.5904686,0.9765625,-752.9296875,25.87890625,15.625,24.4140625
1771539132.594375,13.18359375,-481.4453125,27.83203125,9.765625,4.39453125
1771539132.5982811,28.3203125,-371.09375,28.80859375,14.6484375,-31.73828125
1771539132.6021874,20.01953125,-450.1953125,34.66796875,27.83203125,-11.71875
1771539132.6060936,21.484375,-445.3125,34.66796875,16.6015625,3.90625
1771539132.609125,17.578125,-320.3125,37.109375,30.2734375,-24.90234375
1771539132.6130311,4.8828125,-361.328125,39.0625,35.15625,-20.01953125
1771539132.6169374,12.20703125,-411.62109375,34.1796875,14.6484375,22.94921875
1771539132.6208436,12.6953125,-393.06640625,33.69140625,24.4140625,1.953125
1771539132.62475,6.8359375,-345.703125,38.57421875,27.34375,15.13671875
1771539132.6286561,24.90234375,-524.90234375,40.0390625,36.62109375,35.64453125
1771539132.6325624,40.0390625,-838.8671875,37.109375,40.52734375,65.91796875
1771539132.6364686,15.13671875,-665.52734375,32.71484375,27.34375,82.03125
1771539132.640375,1.46484375,-360.83984375,34.1796875,22.4609375,69.3359375
1771539132.6442811,21.97265625,-462.890625,42.48046875,36.1328125,92.7734375
1771539132.6481874,32.71484375,-644.04296875,37.59765625,26.85546875,59.08203125
1771539132.6520936,44.921875,-611.328125,38.0859375,18.06640625,-12.6953125
1771539132.654125,34.1796875,-484.86328125,41.50390625,29.78515625,4.39453125
1771539132.6580312,2.44140625,-645.01953125,35.15625,26.85546875,65.4296875
1771539132.6619375,1.953125,-728.515625,36.1328125,22.94921875,61.5234375
1771539132.6658437,5.859375,-570.80078125,39.55078125,5.859375,10.25390625
1771539132.66975,10.7421875,-583.984375,37.59765625,12.20703125,2.44140625
1771539132.6736562,5.859375,-769.53125,36.62109375,18.5546875,23.92578125
1771539132.6775625,2.44140625,-749.51171875,41.015625,21.484375,77.1484375
1771539132.6814687,26.85546875,-567.3828125,43.9453125,28.80859375,64.453125
1771539132.685375,26.85546875,-597.16796875,40.0390625,8.30078125,14.16015625
1771539132.6892812,23.4375,-832.03125,40.0390625,10.25390625,14.6484375
1771539132.6931875,32.71484375,-898.92578125,41.015625,13.671875,4.8828125
1771539132.6970937,6.8359375,-751.953125,39.0625,11.71875,-27.83203125
1771539132.713125,-4.39453125,-735.3515625,42.48046875,14.16015625,6.34765625
1771539132.7170312,-7.8125,-864.2578125,48.33984375,0.9765625,-0.9765625
1771539132.7209375,-13.671875,-784.66796875,50.29296875,-7.8125,13.18359375
1771539132.7248437,-20.5078125,-604.00390625,40.52734375,-23.4375,40.0390625
1771539132.72875,-47.8515625,-742.67578125,38.0859375,-52.24609375,-2.9296875
1771539132.7326562,-62.5,-963.37890625,51.7578125,-57.12890625,19.53125
1771539132.7365625,-79.1015625,-899.4140625,58.10546875,-63.96484375,54.19921875
1771539132.7404687,-96.6796875,-687.98828125,58.10546875,-75.1953125,30.76171875
1771539132.744375,-109.86328125,-770.99609375,58.10546875,-88.8671875,20.99609375
1771539132.7482812,-74.70703125,-967.7734375,59.5703125,-115.72265625,-6.8359375
1771539132.7521875,-93.75,-894.04296875,63.96484375,-119.140625,-12.20703125
1771539132.7560937,-171.38671875,-832.03125,63.96484375,-123.046875,1.46484375
1771539132.759125,-192.3828125,-891.11328125,57.12890625,-181.640625,-4.39453125
1771539132.7630312,-178.22265625,-975.5859375,54.6875,-187.01171875,-68.84765625
1771539132.7669375,-187.98828125,-969.23828125,59.08203125,-177.734375,-15.13671875
1771539132.7708437,-199.21875,-968.26171875,64.94140625,-190.91796875,31.73828125
1771539132.77475,-183.10546875,-970.703125,66.40625,-175.29296875,37.59765625
1771539132.7786562,-194.82421875,-970.21484375,56.15234375,-194.3359375,61.03515625
1771539132.7825625,-201.66015625,-970.21484375,57.6171875,-198.73046875,39.55078125
1771539132.7864687,-192.87109375,-970.21484375,67.87109375,-182.6171875,-4.8828125
1771539132.790375,-173.33984375,-970.21484375,62.5,-167.96875,-3.90625
1771539132.7942812,-168.9453125,-970.21484375,55.17578125,-169.43359375,58.10546875
1771539132.7981875,-167.48046875,-970.21484375,49.8046875,-181.640625,31.73828125
1771539132.8020937,-164.55078125,-970.21484375,45.41015625,-153.3203125,2.9296875
1771539132.804125,-155.2734375,-970.21484375,50.29296875,-129.8828125,14.6484375
1771539132.8080313,-140.13671875,-970.21484375,48.828125,-157.71484375,36.1328125
1771539132.8119376,-144.53125,-970.21484375,38.57421875,-158.203125,54.6875
1771539132.8158438,-129.8828125,-970.21484375,39.55078125,-130.37109375,78.125
1771539132.81975,-119.62890625,-970.21484375,41.015625,-108.3984375,63.96484375
1771539132.8236563,-115.234375,-970.21484375,37.109375,-99.12109375,2.44140625
1771539132.8275626,-95.703125,-970.21484375,36.62109375,-92.7734375,25.390625
1771539132.8314688,-74.70703125,-970.21484375,33.203125,-82.51953125,14.16015625
1771539132.835375,-45.8984375,-970.21484375,28.3203125,-66.89453125,49.8046875
1771539132.8392813,-20.5078125,-970.21484375,29.296875,-42.48046875,79.58984375
1771539132.8431876,-25.390625,-970.21484375,23.4375,-33.69140625,-10.7421875
1771539132.8470938,-25.87890625,-970.21484375,25.87890625,-7.32421875,-22.94921875
1771539132.849125,6.34765625,-970.21484375,32.2265625,27.34375,-15.13671875
1771539132.8530312,39.0625,-970.21484375,31.73828125,52.734375,43.45703125
1771539132.8569374,53.7109375,-970.21484375,31.73828125,74.21875,80.56640625
1771539132.8608437,62.5,-970.21484375,32.2265625,87.40234375,52.24609375
1771539132.86475,57.6171875,-970.21484375,22.4609375,70.3125,16.11328125
1771539132.8686562,76.171875,-970.21484375,18.06640625,80.078125,11.71875
1771539132.8725624,104.98046875,-970.21484375,20.01953125,97.65625,-10.25390625
1771539132.8764687,105.46875,-970.21484375,16.6015625,92.7734375,5.37109375
1771539132.880375,94.7265625,-970.21484375,17.08984375,95.21484375,31.25
1771539132.8842812,94.7265625,-970.21484375,17.08984375,107.421875,12.6953125
1771539132.8881874,116.2109375,-970.21484375,10.7421875,106.4453125,50.29296875
1771539132.8920937,106.93359375,-970.21484375,10.25390625,101.5625,37.59765625
1771539132.893125,104.4921875,-970.21484375,7.8125,106.4453125,79.58984375
1771539132.8970313,114.2578125,-970.21484375,8.7890625,112.3046875,91.30859375
1771539132.9009376,113.76953125,-970.21484375,10.7421875,117.1875,31.25
1771539132.9048438,119.140625,-970.21484375,10.7421875,110.83984375,62.01171875
1771539132.90875,122.55859375,-970.21484375,10.25390625,109.375,84.9609375
1771539132.9126563,116.2109375,-970.21484375,12.6953125,111.81640625,56.640625
1771539132.9165626,107.421875,-970.21484375,17.578125,118.1640625,71.77734375
1771539132.9204688,112.79296875,-970.21484375,12.20703125,103.02734375,65.4296875
1771539132.924375,112.79296875,-970.21484375,15.13671875,106.4453125,-5.859375
1771539132.9282813,116.2109375,-970.21484375,16.6015625,113.28125,-7.32421875
1771539132.9321876,103.515625,-970.21484375,14.6484375,118.65234375,10.25390625
1771539132.9360938,100.09765625,-970.21484375,16.11328125,117.1875,60.05859375
1771539132.938125,112.79296875,-970.21484375,12.20703125,111.328125,57.6171875
1771539132.9420311,90.33203125,-970.21484375,15.13671875,113.28125,56.640625
1771539132.9459374,94.23828125,-970.21484375,21.484375,125.48828125,82.03125
1771539132.9498436,93.75,-970.21484375,20.99609375,114.74609375,56.640625
1771539132.95375,88.8671875,-970.21484375,20.01953125,83.984375,28.80859375
1771539132.9576561,97.65625,-970.21484375,19.53125,105.46875,55.17578125
1771539132.9615624,85.9375,-970.21484375,20.99609375,105.46875,28.3203125
1771539132.9654686,98.14453125,-970.21484375,21.484375,91.796875,57.6171875
1771539132.969375,97.65625,-970.21484375,19.04296875,84.47265625,38.57421875
1771539132.9732811,83.49609375,-970.21484375,19.04296875,87.890625,-9.765625
1771539132.9771874,94.23828125,-970.21484375,18.5546875,103.515625,41.015625
1771539132.9810936,104.4921875,-970.21484375,19.04296875,101.5625,16.6015625
1771539132.984125,102.5390625,-970.21484375,18.5546875,82.51953125,-6.34765625
1771539132.9880311,89.35546875,-970.21484375,20.99609375,83.984375,28.80859375
1771539132.9919374,70.80078125,-970.21484375,22.94921875,92.7734375,-23.92578125
1771539132.9958436,76.66015625,-970.21484375,18.06640625,88.8671875,-41.50390625
1771539132.99975,82.03125,-970.21484375,18.06640625,79.1015625,79.1015625
1771539133.0036561,75.68359375,-970.21484375,20.01953125,73.2421875,29.78515625
1771539133.0075624,55.6640625,-970.21484375,18.06640625,78.125,0.0
1771539133.0114686,55.6640625,-970.21484375,18.5546875,79.1015625,32.2265625
1771539133.015375,63.4765625,-970.21484375,20.99609375,73.73046875,29.78515625
1771539133.0192811,59.08203125,-970.21484375,17.578125,55.17578125,90.33203125
1771539133.0231874,58.10546875,-970.21484375,20.5078125,64.94140625,46.875
1771539133.0270936,49.8046875,-970.21484375,25.87890625,76.171875,-24.90234375
1771539133.044125,45.41015625,-970.21484375,22.4609375,63.96484375,61.5234375
1771539133.0480313,51.7578125,-970.21484375,20.5078125,57.12890625,39.55078125
1771539133.0519376,57.6171875,-970.21484375,21.484375,58.10546875,-20.99609375
1771539133.0558438,46.875,-970.21484375,18.5546875,53.7109375,18.06640625
1771539133.05975,43.9453125,-970.21484375,21.97265625,64.453125,36.62109375
1771539133.0636563,54.19921875,-970.21484375,22.94921875,67.3828125,81.0546875
1771539133.0675626,65.4296875,-970.21484375,21.97265625,45.41015625,56.15234375
1771539133.0714688,61.5234375,-970.21484375,20.01953125,43.9453125,-5.859375
1771539133.075375,58.10546875,-970.21484375,20.01953125,70.3125,17.08984375
1771539133.0792813,60.05859375,-970.21484375,20.99609375,51.26953125,13.18359375
1771539133.0831876,46.38671875,-970.21484375,20.99609375,42.96875,30.2734375
1771539133.0870938,43.45703125,-970.21484375,24.4140625,62.98828125,88.37890625
1771539133.088125,41.50390625,-970.21484375,28.80859375,64.453125,65.4296875
1771539133.0920312,58.10546875,-970.21484375,28.80859375,85.9375,36.1328125
1771539133.0959375,66.89453125,-970.21484375,29.78515625,61.03515625,18.06640625
1771539133.0998437,41.9921875,-970.21484375,28.3203125,44.921875,1.46484375
1771539133.10375,40.0390625,-970.21484375,23.92578125,62.98828125,35.15625
1771539133.1076562,50.78125,-970.21484375,26.85546875,62.01171875,70.3125
1771539133.1115625,42.96875,-970.21484375,25.390625,49.8046875,75.68359375
1771539133.1154687,49.8046875,-970.21484375,24.4140625,47.8515625,41.9921875
1771539133.119375,49.31640625,-970.21484375,29.296875,59.08203125,54.6875
1771539133.1232812,52.24609375,-970.21484375,30.76171875,68.84765625,50.78125
1771539133.1271875,55.6640625,-970.21484375,23.92578125,49.8046875,45.8984375
1771539133.1310937,38.57421875,-970.21484375,24.90234375,29.296875,11.71875
1771539133.133125,41.50390625,-970.21484375,30.2734375,35.64453125,-22.4609375
1771539133.1370313,45.8984375,-970.21484375,34.1796875,49.31640625,5.859375
1771539133.1409376,41.50390625,-970.21484375,33.203125,50.78125,-19.04296875
1771539133.1448438,42.48046875,-970.21484375,28.80859375,38.0859375,38.57421875
1771539133.14875,44.43359375,-970.21484375,32.2265625,45.41015625,43.9453125
1771539133.1526563,48.828125,-970.21484375,32.2265625,56.15234375,3.90625
1771539133.1565626,45.8984375,-970.21484375,32.2265625,59.5703125,33.69140625
1771539133.1604688,39.0625,-970.21484375,34.66796875,49.31640625,39.0625
1771539133.164375,42.96875,-970.21484375,35.64453125,45.8984375,7.8125
1771539133.1682813,34.1796875,-970.21484375,40.0390625,61.5234375,13.671875
1771539133.1721876,31.25,-970.21484375,36.1328125,56.640625,29.296875
1771539133.1760938,41.9921875,-970.21484375,33.203125,35.64453125,37.109375
1771539133.178125,33.69140625,-970.21484375,35.15625,38.0859375,48.828125
1771539133.1820312,23.4375,-970.21484375,36.1328125,45.41015625,32.71484375
1771539133.1859374,24.4140625,-970.21484375,35.15625,40.52734375,20.5078125
1771539133.1898437,36.1328125,-970.21484375,34.66796875,41.50390625,-15.13671875
1771539133.19375,50.29296875,-970.21484375,34.66796875,41.015625,27.34375
1771539133.1976562,48.33984375,-970.21484375,30.76171875,32.2265625,74.21875
1771539133.2015624,38.0859375,-970.21484375,31.73828125,56.640625,73.2421875
1771539133.2054687,42.48046875,-970.21484375,32.71484375,54.19921875,38.57421875
1771539133.209375,46.38671875,-970.21484375,26.3671875,18.5546875,-18.5546875
1771539133.2132812,43.45703125,-970.21484375,25.390625,24.90234375,22.4609375
1771539133.2171874,44.921875,-970.21484375,23.4375,30.76171875,31.73828125
1771539133.2210937,46.38671875,-970.21484375,27.34375,33.69140625,27.83203125
1771539133.224125,40.52734375,-970.21484375,30.76171875,22.4609375,78.125
1771539133.2280312,30.2734375,-970.21484375,26.3671875,27.34375,56.15234375
1771539133.2319374,44.43359375,-970.21484375,25.87890625,51.26953125,58.59375
1771539133.2358437,54.19921875,-970.21484375,23.4375,66.40625,65.91796875
1771539133.23975,36.62109375,-970.21484375,29.296875,31.73828125,3.90625
1771539133.2436562,41.015625,-970.21484375,29.78515625,10.7421875,22.94921875
1771539133.2475624,39.0625,-970.21484375,29.78515625,28.80859375,59.08203125
1771539133.2514687,31.73828125,-970.21484375,41.9921875,39.55078125,-13.671875
1771539133.255375,53.7109375,-970.21484375,37.109375,68.84765625,-12.20703125
1771539133.2592812,58.10546875,-970.21484375,30.76171875,66.89453125,22.4609375
1771539133.2631874,51.26953125,-970.21484375,36.62109375,69.82421875,31.25
1771539133.2670937,43.9453125,-970.21484375,30.76171875,65.4296875,76.66015625
1771539133.269125,55.17578125,-970.21484375,30.2734375,61.5234375,27.34375
1771539133.2730312,54.6875,-970.21484375,36.62109375,53.7109375,2.9296875
1771539133.2769375,61.5234375,-970.21484375,37.109375,59.08203125,35.64453125
1771539133.2808437,69.3359375,-970.21484375,36.62109375,75.68359375,70.3125
1771539133.28475,46.875,-970.21484375,35.64453125,67.87109375,100.5859375
1771539133.2886562,51.26953125,-970.21484375,30.76171875,52.734375,45.41015625
1771539133.2925625,71.2890625,-970.21484375,30.2734375,64.94140625,-3.41796875
1771539133.2964687,62.5,-970.21484375,34.66796875,63.4765625,-18.5546875
1771539133.300375,60.05859375,-970.21484375,29.78515625,65.91796875,-2.9296875
1771539133.3042812,65.91796875,-970.21484375,33.69140625,64.453125,39.55078125
1771539133.3081875,56.15234375,-970.21484375,37.59765625,53.7109375,-9.27734375
1771539133.3120937,50.78125,-970.21484375,34.1796875,63.96484375,26.3671875
1771539133.313125,52.24609375,-970.21484375,35.64453125,59.5703125,41.50390625
1771539133.3170311,54.19921875,-970.21484375,35.64453125,53.22265625,42.48046875
1771539133.3209374,58.59375,-970.21484375,35.64453125,61.5234375,41.9921875
1771539133.3248436,56.15234375,-970.21484375,31.25,46.875,59.5703125
1771539133.32875,50.78125,-970.21484375,32.2265625,44.43359375,75.1953125
1771539133.3326561,50.29296875,-970.21484375,38.0859375,58.10546875,58.10546875
1771539133.3365624,51.26953125,-970.21484375,32.71484375,44.43359375,35.15625
1771539133.3404686,41.015625,-970.21484375,32.71484375,33.203125,20.99609375
1771539133.344375,34.1796875,-970.21484375,37.109375,41.9921875,28.3203125
1771539133.3482811,35.15625,-970.21484375,35.64453125,49.31640625,31.73828125
1771539133.3521874,33.69140625,-970.21484375,35.15625,41.9921875,23.4375
1771539133.3560936,33.203125,-970.21484375,39.0625,36.1328125,48.828125
1771539133.358125,32.71484375,-970.21484375,42.96875,57.6171875,28.3203125
1771539133.3620312,34.1796875,-970.21484375,43.45703125,46.38671875,-23.4375
1771539133.3659375,34.66796875,-970.21484375,38.0859375,12.20703125,12.6953125
1771539133.3698437,31.73828125,-970.21484375,40.52734375,19.04296875,34.66796875
1771539133.37375,30.76171875,-970.21484375,42.48046875,34.1796875,9.765625
1771539133.3776562,33.203125,-970.21484375,40.0390625,47.36328125,15.13671875
1771539133.3815625,26.85546875,-970.21484375,43.45703125,43.45703125,20.99609375
1771539133.3854687,34.1796875,-970.21484375,41.015625,31.73828125,73.2421875
1771539133.389375,45.41015625,-970.21484375,38.57421875,48.828125,75.1953125
1771539133.3932812,62.5,-970.21484375,48.828125,78.125,56.640625
1771539133.3971875,55.6640625,-970.21484375,45.8984375,64.94140625,58.59375
1771539133.4010937,27.34375,-970.21484375,30.2734375,12.6953125,4.39453125
1771539133.419125,40.52734375,-970.21484375,29.296875,13.671875,-10.7421875
1771539133.4230313,52.24609375,-970.21484375,27.83203125,44.43359375,38.0859375
1771539133.4269376,55.6640625,-970.21484375,30.76171875,53.22265625,36.62109375
1771539133.4308438,39.55078125,-970.21484375,32.2265625,28.3203125,21.97265625
1771539133.43475,43.45703125,-970.21484375,30.76171875,25.87890625,37.109375
1771539133.4386563,50.29296875,-970.21484375,44.43359375,50.29296875,-19.53125
1771539133.4425626,32.71484375,-970.21484375,46.875,59.5703125,30.2734375
1771539133.4464688,49.31640625,-970.21484375,40.0390625,52.24609375,48.33984375
1771539133.450375,60.05859375,-970.21484375,38.57421875,47.8515625,27.83203125
1771539133.4542813,57.12890625,-970.21484375,38.57421875,62.01171875,13.18359375
1771539133.4581876,56.640625,-970.21484375,42.48046875,63.96484375,24.4140625
1771539133.4620938,39.55078125,-970.21484375,44.43359375,45.41015625,78.125
1771539133.463125,44.43359375,-970.21484375,41.50390625,50.78125,70.80078125
1771539133.4670312,52.24609375,-970.21484375,41.015625,44.921875,47.8515625
1771539133.4709375,47.36328125,-970.21484375,39.55078125,35.64453125,33.69140625
1771539133.4748437,41.50390625,-970.21484375,33.203125,38.57421875,-12.20703125
1771539133.47875,37.59765625,-970.21484375,32.71484375,26.85546875,-6.34765625
1771539133.4826562,50.78125,-970.21484375,35.64453125,44.43359375,3.41796875
1771539133.4865625,56.640625,-970.21484375,38.0859375,54.19921875,26.3671875
1771539133.4904687,51.26953125,-970.21484375,35.64453125,48.33984375,60.05859375
1771539133.494375,53.22265625,-970.21484375,39.55078125,36.62109375,50.78125
1771539133.4982812,44.43359375,-970.21484375,41.9921875,42.48046875,68.359375
1771539133.5021875,43.9453125,-970.21484375,41.9921875,49.31640625,76.66015625
1771539133.5060937,45.8984375,-970.21484375,40.52734375,43.45703125,88.37890625
1771539133.508125,50.29296875,-970.21484375,38.0859375,34.1796875,70.80078125
1771539133.5120313,63.4765625,-970.21484375,43.45703125,23.92578125,94.7265625
1771539133.5159376,51.7578125,-970.21484375,40.52734375,33.69140625,18.5546875
1771539133.5198438,36.1328125,-970.21484375,37.109375,43.45703125,-35.15625
1771539133.52375,35.15625,-970.21484375,38.0859375,38.57421875,-8.30078125
1771539133.5276563,41.50390625,-970.21484375,41.50390625,35.64453125,-43.45703125
1771539133.5315626,40.0390625,-970.21484375,41.50390625,38.0859375,12.20703125
1771539133.5354688,33.69140625,-970.21484375,40.0390625,44.921875,61.5234375
1771539133.539375,42.48046875,-970.21484375,41.015625,49.31640625,39.55078125
1771539133.5432813,39.55078125,-970.21484375,38.0859375,26.85546875,69.3359375
1771539133.5471876,35.64453125,-970.21484375,38.0859375,30.2734375,22.94921875
1771539133.5510938,34.66796875,-970.21484375,39.0625,37.59765625,0.0
1771539133.553125,38.57421875,-970.21484375,37.109375,32.2265625,23.92578125
1771539133.5570312,38.57421875,-970.21484375,37.109375,27.34375,62.98828125
1771539133.5609374,40.52734375,-970.21484375,34.66796875,24.4140625,58.10546875
1771539133.5648437,45.41015625,-970.21484375,33.69140625,37.59765625,33.69140625
1771539133.56875,38.0859375,-970.21484375,36.1328125,43.9453125,35.15625
1771539133.5726562,50.78125,-970.21484375,38.0859375,40.0390625,47.8515625
1771539133.5765624,48.828125,-970.21484375,36.62109375,29.296875,70.80078125
1771539133.5804687,19.53125,-970.21484375,38.0859375,18.5546875,40.52734375
1771539133.584375,27.34375,-970.21484375,41.50390625,27.83203125,31.25
1771539133.5882812,34.66796875,-970.21484375,36.62109375,35.15625,42.48046875
1771539133.5921874,26.3671875,-970.21484375,32.2265625,21.484375,37.109375
1771539133.5960937,32.71484375,-970.21484375,39.0625,24.90234375,62.98828125
1771539133.599125,30.76171875,-970.21484375,39.55078125,37.59765625,25.390625
1771539133.6030312,21.97265625,-970.21484375,40.0390625,37.109375,37.109375
1771539133.6069374,38.0859375,-970.21484375,40.0390625,36.1328125,60.546875
1771539133.6108437,35.15625,-970.21484375,38.57421875,33.69140625,1.46484375
1771539133.61475,15.13671875,-970.21484375,40.52734375,31.73828125,30.76171875
1771539133.6186562,29.78515625,-970.21484375,39.55078125,36.62109375,82.51953125
1771539133.6225624,33.69140625,-970.21484375,40.0390625,27.34375,24.4140625
1771539133.6264687,16.6015625,-970.21484375,40.52734375,20.01953125,-4.8828125
1771539133.630375,20.5078125,-970.21484375,44.43359375,28.3203125,27.34375
1771539133.6342812,17.578125,-970.21484375,41.9921875,32.71484375,-3.41796875
1771539133.6381874,17.08984375,-970.21484375,40.52734375,27.83203125,26.85546875
1771539133.6420937,29.296875,-970.21484375,44.43359375,29.296875,17.578125
1771539133.643125,23.92578125,-970.21484375,39.0625,34.1796875,5.37109375
1771539133.6470313,23.4375,-970.21484375,37.59765625,45.8984375,20.99609375
1771539133.6509376,29.78515625,-970.21484375,40.52734375,45.8984375,12.20703125
1771539133.6548438,31.25,-970.21484375,39.0625,33.203125,23.4375
1771539133.65875,32.71484375,-970.21484375,39.0625,38.0859375,-13.18359375
1771539133.6626563,24.4140625,-970.21484375,41.015625,37.109375,17.08984375
1771539133.6665626,30.2734375,-970.21484375,43.45703125,51.26953125,63.4765625
1771539133.6704688,40.0390625,-970.21484375,39.0625,41.50390625,30.76171875
1771539133.674375,26.85546875,-970.21484375,35.15625,30.2734375,41.50390625
1771539133.6782813,17.08984375,-970.21484375,31.73828125,25.390625,83.49609375
1771539133.6821876,34.1796875,-970.21484375,33.69140625,35.15625,19.04296875
1771539133.6860938,37.59765625,-970.21484375,38.57421875,41.015625,16.11328125
1771539133.688125,32.71484375,-970.21484375,36.1328125,15.625,50.78125
1771539133.6920311,27.83203125,-970.21484375,33.69140625,26.85546875,2.44140625
1771539133.6959374,28.3203125,-970.21484375,34.1796875,44.921875,43.9453125
1771539133.6998436,31.25,-970.21484375,31.73828125,28.3203125,32.2265625
1771539133.70375,23.4375,-970.21484375,31.73828125,13.671875,24.90234375
1771539133.7076561,22.94921875,-970.21484375,36.1328125,39.55078125,61.03515625
1771539133.7115624,26.3671875,-970.21484375,32.2265625,37.109375,38.0859375
1771539133.7154686,27.83203125,-970.21484375,29.78515625,22.4609375,24.4140625
1771539133.719375,29.296875,-970.21484375,34.1796875,18.06640625,33.203125
1771539133.7232811,34.1796875,-970.21484375,32.2265625,23.92578125,32.71484375
1771539133.7271874,37.109375,-970.21484375,32.2265625,34.1796875,67.87109375
1771539133.7310936,26.85546875,-970.21484375,29.78515625,23.92578125,65.4296875
1771539133.734125,24.90234375,-970.21484375,26.85546875,4.39453125,13.18359375
1771539133.7380311,31.73828125,-970.21484375,33.203125,16.6015625,30.76171875
1771539133.7419374,19.53125,-970.21484375,32.2265625,32.71484375,51.26953125
1771539133.7458436,20.01953125,-970.21484375,31.73828125,32.71484375,0.9765625
1771539133.74975,27.34375,-970.21484375,35.64453125,20.5078125,15.625
1771539133.7536561,20.99609375,-970.21484375,33.69140625,19.04296875,22.4609375
1771539133.7575624,18.5546875,-970.21484375,33.203125,15.625,43.9453125
1771539133.7614686,14.16015625,-970.21484375,31.73828125,11.23046875,60.546875
1771539133.765375,17.08984375,-970.21484375,32.71484375,12.6953125,35.64453125
1771539133.7692811,26.3671875,-970.21484375,31.73828125,19.53125,43.45703125
1771539133.7731874,31.25,-970.21484375,26.3671875,38.57421875,41.015625
1771539133.7770936,24.90234375,-970.21484375,28.80859375,16.11328125,9.27734375
1771539133.793125,10.7421875,-970.21484375,32.71484375,7.32421875,5.37109375
1771539133.7970312,14.6484375,-970.21484375,32.2265625,10.7421875,30.2734375
1771539133.8009374,31.25,-970.21484375,34.1796875,14.16015625,6.34765625
1771539133.8048437,32.2265625,-970.21484375,32.71484375,24.90234375,-2.44140625
1771539133.80875,16.11328125,-970.21484375,27.83203125,21.484375,17.578125
1771539133.8126562,19.53125,-970.21484375,30.76171875,8.30078125,19.04296875
1771539133.8165624,25.87890625,-970.21484375,31.73828125,1.46484375,33.69140625
1771539133.8204687,3.41796875,-970.21484375,27.34375,14.16015625,6.8359375
1771539133.824375,7.32421875,-970.21484375,26.85546875,20.99609375,17.08984375
1771539133.8282812,26.3671875,-970.21484375,36.62109375,14.6484375,20.99609375
1771539133.8321874,15.13671875,-970.21484375,21.97265625,12.20703125,29.78515625
1771539133.8360937,8.30078125,-970.21484375,23.4375,12.6953125,26.85546875
1771539133.839125,25.87890625,-970.21484375,48.828125,29.78515625,39.55078125
1771539133.8430312,35.15625,-970.21484375,32.2265625,33.203125,5.859375
1771539133.8469374,2.9296875,-970.21484375,23.92578125,-0.48828125,2.44140625
1771539133.8508437,0.9765625,-970.21484375,37.59765625,7.32421875,61.03515625
1771539133.85475,25.390625,-970.21484375,43.45703125,26.3671875,86.42578125
1771539133.8586562,0.48828125,-970.21484375,38.0859375,-4.39453125,71.2890625
1771539133.8625624,-15.625,-970.21484375,60.05859375,-34.1796875,27.83203125
1771539133.8664687,-3.41796875,-969.7265625,75.68359375,-18.06640625,65.91796875
1771539133.870375,-23.92578125,-965.33203125,70.3125,-25.87890625,84.47265625
1771539133.8742812,-89.35546875,-975.5859375,69.3359375,-87.40234375,31.25
1771539133.8781874,-86.42578125,-910.15625,84.47265625,-96.19140625,17.08984375
1771539133.8820937,-61.5234375,-679.6875,109.86328125,-70.80078125,72.75390625
1771539133.884125,-104.98046875,-629.39453125,107.91015625,-84.47265625,47.36328125
1771539133.8880312,-129.39453125,-482.421875,104.4921875,-121.58203125,21.484375
1771539133.8919375,-126.953125,-203.125,116.69921875,-145.01953125,66.89453125
1771539133.8958437,-151.85546875,114.74609375,104.4921875,-172.36328125,94.7265625
1771539133.89975,-181.640625,285.15625,113.76953125,-184.5703125,124.51171875
1771539133.9036562,-196.77734375,289.55078125,149.90234375,-192.87109375,86.42578125
1771539133.9075625,-217.28515625,622.0703125,146.97265625,-224.609375,107.421875
1771539133.9114687,-224.609375,964.35546875,151.85546875,-243.1640625,104.00390625
1771539133.915375,-239.2578125,711.42578125,180.6640625,-247.55859375,5.37109375
1771539133.9192812,-279.296875,606.4453125,182.6171875,-281.73828125,20.99609375
1771539133.9231875,-270.01953125,-995.60546875,199.70703125,-271.484375,50.78125
1771539133.9270937,-250.9765625,-994.62890625,236.81640625,-266.6015625,24.90234375
1771539133.928125,-268.5546875,957.51953125,251.46484375,-292.48046875,21.484375
1771539133.9320312,-274.90234375,982.91015625,261.23046875,-282.2265625,36.62109375
1771539133.9359374,-265.625,976.5625,270.5078125,-273.92578125,8.7890625
1771539133.9398437,-259.765625,854.00390625,277.83203125,-284.1796875,36.1328125
1771539133.94375,-255.859375,607.91015625,276.3671875,-280.2734375,78.61328125
1771539133.9476562,-246.58203125,354.00390625,283.69140625,-248.046875,41.50390625
1771539133.9515624,-231.93359375,283.203125,286.1328125,-229.4921875,56.15234375
1771539133.9554687,-207.03125,249.0234375,279.78515625,-214.35546875,44.43359375
1771539133.959375,-174.8046875,-265.13671875,284.66796875,-186.03515625,76.66015625
1771539133.9632812,-159.1796875,-408.203125,268.06640625,-171.875,47.36328125
1771539133.9671874,-143.06640625,-69.3359375,249.0234375,-125.0,16.6015625
1771539133.9710937,-111.328125,-202.63671875,237.3046875,-83.984375,64.94140625
1771539133.973125,-101.5625,-359.86328125,220.21484375,-99.609375,52.24609375
1771539133.9770312,-82.51953125,-415.52734375,195.3125,-84.9609375,22.4609375
1771539133.9809375,-57.6171875,-550.29296875,173.33984375,-47.36328125,26.3671875
1771539133.9848437,-33.69140625,-749.51171875,161.1328125,-14.16015625,67.3828125
1771539133.98875,-7.32421875,-939.94140625,149.90234375,5.37109375,76.66015625
1771539133.9926562,19.53125,-970.21484375,128.41796875,14.16015625,47.36328125
1771539133.9965625,34.66796875,-965.8203125,107.91015625,39.0625,30.2734375
1771539134.0004687,52.24609375,-970.21484375,91.796875,66.89453125,43.9453125
1771539134.004375,78.125,-970.21484375,70.3125,65.91796875,68.84765625
1771539134.0082812,90.33203125,-970.21484375,60.546875,69.3359375,72.75390625
1771539134.0121875,97.65625,-970.21484375,49.31640625,101.07421875,51.7578125
1771539134.0160937,91.30859375,-970.21484375,37.59765625,114.2578125,36.62109375
1771539134.019125,111.81640625,-970.21484375,25.87890625,115.72265625,20.5078125
1771539134.0230312,129.39453125,-970.21484375,14.16015625,142.08984375,-9.27734375
1771539134.0269375,121.09375,-970.21484375,2.44140625,144.04296875,50.29296875
1771539134.0308437,113.76953125,-970.21484375,-5.37109375,117.67578125,60.546875
1771539134.03475,119.140625,-970.21484375,-10.7421875,118.1640625,8.7890625
1771539134.0386562,133.30078125,-970.21484375,-17.578125,125.9765625,32.71484375
1771539134.0425625,140.625,-970.21484375,-21.97265625,127.9296875,3.90625
1771539134.0464687,137.20703125,-970.21484375,-27.34375,141.11328125,-34.1796875
1771539134.050375,129.39453125,-970.21484375,-31.73828125,138.671875,-1.953125
1771539134.0542812,128.90625,-970.21484375,-32.2265625,123.53515625,-26.3671875
1771539134.0581875,115.72265625,-970.21484375,-35.15625,122.0703125,34.66796875
1771539134.0620937,115.72265625,-970.21484375,-34.66796875,127.9296875,37.109375
1771539134.063125,125.0,-970.21484375,-40.0390625,132.8125,25.87890625
1771539134.0670311,123.046875,-970.21484375,-42.96875,122.0703125,69.3359375
1771539134.0709374,126.953125,-970.21484375,-33.69140625,115.72265625,32.71484375
1771539134.0748436,112.3046875,-970.21484375,-39.55078125,115.72265625,75.1953125
1771539134.07875,107.91015625,-970.21484375,-43.9453125,119.140625,64.453125
1771539134.0826561,114.74609375,-970.21484375,-38.0859375,108.3984375,19.53125
1771539134.0865624,110.83984375,-970.21484375,-40.52734375,94.7265625,14.16015625
1771539134.0904686,107.421875,-970.21484375,-39.0625,107.91015625,26.85546875
1771539134.094375,97.16796875,-970.21484375,-33.69140625,116.2109375,45.41015625
1771539134.0982811,104.98046875,-970.21484375,-36.62109375,101.5625,-10.25390625
1771539134.1021874,105.46875,-970.21484375,-40.0390625,87.890625,3.90625
1771539134.1060936,94.23828125,-970.21484375,-39.0625,100.09765625,49.8046875
1771539134.109125,84.47265625,-970.21484375,-40.0390625,112.79296875,53.22265625
1771539134.1130311,81.0546875,-970.21484375,-37.109375,110.3515625,59.5703125
1771539134.1169374,89.84375,-970.21484375,-36.1328125,94.23828125,22.94921875
1771539134.1208436,92.28515625,-970.21484375,-34.1796875,81.54296875,9.765625
1771539134.12475,89.35546875,-970.21484375,-32.71484375,94.23828125,78.125
1771539134.1286561,98.14453125,-970.21484375,-30.76171875,103.515625,62.01171875
1771539134.1325624,94.7265625,-970.21484375,-30.76171875,91.796875,15.13671875
1771539134.1364686,81.54296875,-970.21484375,-31.73828125,86.42578125,63.4765625
1771539134.140375,82.51953125,-970.21484375,-30.76171875,85.9375,80.078125
1771539134.1442811,72.75390625,-970.21484375,-27.83203125,93.75,24.90234375
1771539134.1481874,69.3359375,-970.21484375,-23.92578125,88.8671875,-44.921875
1771539134.1520936,76.171875,-970.21484375,-23.4375,68.84765625,-13.671875
1771539134.153125,68.359375,-970.21484375,-21.484375,66.89453125,17.08984375
1771539134.1570313,66.89453125,-970.21484375,-22.4609375,73.73046875,7.8125
1771539134.1609375,80.56640625,-970.21484375,-28.3203125,88.8671875,47.36328125
1771539134.1648438,83.0078125,-970.21484375,-19.53125,83.0078125,95.703125
1771539134.16875,72.75390625,-970.21484375,-19.53125,75.1953125,62.01171875
1771539134.1726563,79.1015625,-970.21484375,-22.4609375,94.23828125,16.11328125
1771539134.1765625,83.984375,-970.21484375,-18.5546875,95.21484375,35.15625
1771539134.1804688,69.3359375,-970.21484375,-19.04296875,70.80078125,5.37109375
1771539134.184375,64.453125,-970.21484375,-19.53125,59.08203125,-16.11328125
1771539134.1882813,68.84765625,-970.21484375,-21.97265625,70.80078125,30.76171875
1771539134.1921875,55.6640625,-970.21484375,-17.08984375,97.16796875,23.4375
1771539134.1960938,63.96484375,-970.21484375,-14.16015625,83.0078125,-11.71875
1771539134.213125,74.70703125,-970.21484375,-14.16015625,57.12890625,32.2265625
1771539134.2170312,58.10546875,-970.21484375,-10.25390625,64.453125,47.8515625
1771539134.2209375,63.4765625,-970.21484375,-7.8125,73.2421875,60.05859375
1771539134.2248437,64.453125,-970.21484375,-9.27734375,72.75390625,66.89453125
1771539134.22875,58.59375,-970.21484375,-11.23046875,60.546875,8.30078125
1771539134.2326562,62.5,-970.21484375,-7.8125,64.453125,-17.578125
1771539134.2365625,54.6875,-970.21484375,-8.30078125,58.59375,27.83203125
1771539134.2404687,58.59375,-970.21484375,-11.23046875,50.29296875,-0.9765625
1771539134.244375,58.10546875,-970.21484375,-8.30078125,51.26953125,29.78515625
1771539134.2482812,58.59375,-970.21484375,-3.90625,48.33984375,101.07421875
1771539134.2521875,53.22265625,-970.21484375,-5.859375,56.640625,52.24609375
1771539134.2560937,40.52734375,-970.21484375,-10.25390625,60.05859375,-2.9296875
1771539134.258125,47.8515625,-970.21484375,-7.32421875,49.8046875,-12.20703125
1771539134.2620313,51.7578125,-970.21484375,-4.8828125,41.015625,38.57421875
1771539134.2659376,51.7578125,-970.21484375,-2.9296875,41.015625,39.55078125
1771539134.2698438,55.17578125,-970.21484375,-6.8359375,48.828125,5.37109375
1771539134.27375,54.19921875,-970.21484375,-6.8359375,57.6171875,6.34765625
1771539134.2776563,54.6875,-970.21484375,-5.859375,49.31640625,33.69140625
1771539134.2815626,53.22265625,-970.21484375,-6.8359375,44.43359375,21.97265625
1771539134.2854688,38.0859375,-970.21484375,-0.9765625,52.734375,43.9453125
1771539134.289375,44.921875,-970.21484375,-0.9765625,61.5234375,54.19921875
1771539134.2932813,52.24609375,-970.21484375,-3.41796875,43.45703125,45.41015625
1771539134.2971876,46.38671875,-970.21484375,-0.9765625,32.2265625,72.265625
1771539134.3010938,55.6640625,-970.21484375,3.41796875,48.828125,36.62109375
1771539134.303125,52.734375,-970.21484375,3.90625,52.24609375,31.25
1771539134.3070312,41.015625,-970.21484375,4.39453125,41.9921875,60.05859375
1771539134.3109374,40.0390625,-970.21484375,7.32421875,33.69140625,44.921875
1771539134.3148437,47.8515625,-970.21484375,5.859375,32.71484375,52.24609375
1771539134.31875,53.7109375,-970.21484375,5.37109375,35.64453125,74.70703125
1771539134.3226562,55.17578125,-970.21484375,7.32421875,40.0390625,88.8671875
1771539134.3265624,42.96875,-970.21484375,8.30078125,42.96875,71.2890625
1771539134.3304687,39.55078125,-970.21484375,4.39453125,52.734375,41.015625
1771539134.334375,47.36328125,-970.21484375,6.8359375,46.875,11.71875
1771539134.3382812,37.109375,-970.21484375,7.32421875,29.78515625,-5.859375
1771539134.3421874,49.31640625,-970.21484375,9.27734375,44.43359375,19.53125
1771539134.3460937,55.6640625,-970.21484375,11.23046875,53.22265625,60.05859375
1771539134.348125,30.76171875,-970.21484375,6.8359375,53.7109375,52.734375
1771539134.3520312,36.62109375,-970.21484375,11.23046875,62.5,31.25
1771539134.3559375,43.45703125,-970.21484375,9.765625,27.34375,34.66796875
1771539134.3598437,46.38671875,-970.21484375,11.71875,24.90234375,45.8984375
1771539134.36375,48.33984375,-970.21484375,16.11328125,42.96875,20.99609375
1771539134.3676562,41.015625,-970.21484375,9.765625,45.8984375,24.90234375
1771539134.3715625,52.24609375,-970.21484375,8.30078125,47.36328125,41.015625
1771539134.3754687,62.98828125,-970.21484375,11.23046875,54.19921875,32.71484375
1771539134.379375,52.24609375,-970.21484375,10.25390625,47.8515625,24.4140625
1771539134.3832812,42.48046875,-970.21484375,10.25390625,42.96875,53.7109375
1771539134.3871875,48.33984375,-970.21484375,11.23046875,41.015625,88.37890625
1771539134.3910937,52.734375,-970.21484375,13.18359375,26.85546875,43.9453125
1771539134.393125,53.22265625,-970.21484375,13.671875,34.66796875,40.0390625
1771539134.3970313,36.62109375,-970.21484375,9.765625,38.57421875,27.34375
1771539134.4009376,26.85546875,-970.21484375,11.23046875,32.71484375,7.8125
1771539134.4048438,42.96875,-970.21484375,15.625,29.78515625,7.8125
1771539134.40875,37.59765625,-970.21484375,14.16015625,30.2734375,30.76171875
1771539134.4126563,32.71484375,-970.21484375,16.11328125,41.015625,22.94921875
1771539134.4165626,39.0625,-970.21484375,18.5546875,42.96875,14.16015625
1771539134.4204688,45.41015625,-970.21484375,13.18359375,44.921875,39.0625
1771539134.424375,50.29296875,-970.21484375,7.32421875,44.921875,1.953125
1771539134.4282813,44.43359375,-970.21484375,7.32421875,40.52734375,-44.921875
1771539134.4321876,39.55078125,-970.21484375,14.6484375,47.36328125,29.78515625
1771539134.4360938,24.90234375,-970.21484375,11.23046875,24.4140625,95.703125
1771539134.439125,33.69140625,-970.21484375,5.37109375,33.69140625,91.796875
1771539134.4430313,40.52734375,-970.21484375,13.18359375,49.31640625,52.734375
1771539134.4469376,43.45703125,-970.21484375,15.625,46.875,2.44140625
1771539134.4508438,49.31640625,-970.21484375,12.6953125,56.15234375,-16.6015625
1771539134.45475,42.96875,-970.21484375,13.671875,48.828125,14.16015625
1771539134.4586563,54.6875,-970.21484375,14.16015625,60.546875,34.1796875
1771539134.4625626,55.17578125,-970.21484375,10.7421875,74.21875,-16.11328125
1771539134.4664688,52.24609375,-970.21484375,6.8359375,64.94140625,0.48828125
1771539134.470375,54.6875,-970.21484375,8.30078125,32.2265625,7.8125
1771539134.4742813,49.31640625,-970.21484375,11.71875,30.2734375,38.0859375
1771539134.4781876,59.5703125,-970.21484375,12.6953125,52.734375,66.40625
1771539134.4820938,78.125,-970.21484375,17.08984375,61.5234375,38.0859375
1771539134.483125,59.08203125,-970.21484375,12.6953125,50.78125,12.6953125
1771539134.4870312,41.50390625,-970.21484375,14.16015625,57.6171875,2.44140625
1771539134.4909375,50.29296875,-970.21484375,20.5078125,54.6875,47.36328125
1771539134.4948437,60.546875,-970.21484375,17.578125,58.10546875,46.38671875
1771539134.49875,60.546875,-970.21484375,22.94921875,63.4765625,30.2734375
1771539134.5026562,54.19921875,-970.21484375,27.34375,46.38671875,32.2265625
1771539134.5065625,51.7578125,-970.21484375,24.90234375,53.7109375,-1.953125
1771539134.5104687,40.0390625,-970.21484375,20.01953125,50.78125,34.1796875
1771539134.514375,45.41015625,-970.21484375,19.53125,49.31640625,28.3203125
1771539134.5182812,43.45703125,-970.21484375,21.484375,36.62109375,17.578125
1771539134.5221875,37.59765625,-970.21484375,20.5078125,44.43359375,70.3125
1771539134.5260937,40.52734375,-970.21484375,18.06640625,63.4765625,44.921875
1771539134.543125,25.87890625,-970.21484375,19.53125,46.875,52.24609375
1771539134.5470312,35.15625,-970.21484375,22.94921875,34.66796875,54.6875
1771539134.5509374,39.0625,-970.21484375,27.83203125,42.48046875,27.83203125
1771539134.5548437,31.73828125,-970.21484375,27.83203125,64.453125,44.43359375
1771539134.55875,56.15234375,-970.21484375,23.92578125,63.96484375,55.6640625
1771539134.5626562,62.98828125,-970.21484375,21.484375,41.9921875,74.21875
1771539134.5665624,40.52734375,-970.21484375,22.94921875,41.9921875,62.98828125
1771539134.5704687,34.1796875,-970.21484375,23.4375,42.96875,31.25
1771539134.574375,36.62109375,-970.21484375,19.04296875,35.15625,44.921875
1771539134.5782812,38.0859375,-970.21484375,21.484375,30.2734375,9.765625
1771539134.5821874,41.015625,-970.21484375,23.92578125,19.04296875,-32.2265625
1771539134.5860937,43.45703125,-970.21484375,23.92578125,26.3671875,6.34765625
1771539134.589125,51.26953125,-970.21484375,22.94921875,45.41015625,9.765625
1771539134.5930312,56.640625,-970.21484375,17.578125,40.0390625,26.85546875
1771539134.5969374,40.52734375,-970.21484375,17.08984375,38.57421875,86.42578125
1771539134.6008437,18.5546875,-970.21484375,14.16015625,38.57421875,26.85546875
1771539134.60475,29.296875,-970.21484375,15.13671875,35.15625,25.87890625
1771539134.6086562,33.203125,-970.21484375,18.5546875,40.0390625,26.3671875
1771539134.6125624,25.390625,-970.21484375,16.11328125,22.94921875,-11.71875
1771539134.6164687,18.5546875,-970.21484375,20.5078125,16.6015625,14.16015625
1771539134.620375,29.296875,-970.21484375,22.4609375,23.4375,13.671875
1771539134.6242812,49.8046875,-970.21484375,28.3203125,40.52734375,14.6484375
1771539134.6281874,66.40625,-970.21484375,33.203125,66.89453125,11.23046875
1771539134.6320937,53.22265625,-970.21484375,27.34375,49.31640625,35.15625
1771539134.633125,5.37109375,-970.21484375,24.90234375,1.46484375,82.03125
1771539134.6370313,-12.20703125,-970.21484375,16.6015625,-6.34765625,53.22265625
1771539134.6409376,-16.6015625,-970.21484375,14.6484375,-4.39453125,17.08984375
1771539134.6448438,-20.99609375,-970.21484375,20.5078125,-16.11328125,13.671875
1771539134.64875,-29.78515625,-970.21484375,20.01953125,-40.0390625,42.96875
1771539134.6526563,-44.43359375,-970.21484375,20.01953125,-41.015625,54.19921875
1771539134.6565626,-38.57421875,-970.21484375,18.5546875,-31.25,-9.765625
1771539134.6604688,-40.0390625,-970.21484375,17.08984375,-41.50390625,-25.390625
1771539134.664375,-42.96875,-970.21484375,23.4375,-28.3203125,29.78515625
1771539134.6682813,-41.9921875,-970.21484375,23.92578125,-30.76171875,25.390625
1771539134.6721876,-33.69140625,-970.21484375,19.53125,-28.3203125,28.80859375
1771539134.6760938,-20.01953125,-970.21484375,22.94921875,-13.18359375,22.94921875
1771539134.679125,-7.8125,-970.21484375,30.2734375,-7.32421875,54.19921875
1771539134.6830313,3.41796875,-970.21484375,25.87890625,0.48828125,48.33984375
1771539134.6869376,1.46484375,-970.21484375,22.94921875,9.27734375,39.55078125
1771539134.6908438,7.32421875,-970.21484375,26.85546875,3.90625,83.0078125
1771539134.69475,3.41796875,-970.21484375,23.4375,1.46484375,29.296875
1771539134.6986563,-4.39453125,-970.21484375,23.92578125,1.953125,22.4609375
1771539134.7025626,-2.44140625,-970.21484375,22.94921875,5.859375,40.0390625
1771539134.7064688,10.7421875,-970.21484375,25.87890625,6.34765625,49.8046875
1771539134.710375,20.01953125,-970.21484375,25.87890625,0.0,34.66796875
1771539134.7142813,4.8828125,-970.21484375,18.06640625,-1.953125,28.80859375
1771539134.7181876,3.90625,-970.21484375,24.4140625,-0.9765625,67.3828125
1771539134.7220938,16.11328125,-970.21484375,24.90234375,14.6484375,33.69140625
1771539134.723125,28.3203125,-970.21484375,20.5078125,0.9765625,37.109375
1771539134.7270312,20.5078125,-970.21484375,23.92578125,-1.953125,33.203125
1771539134.7309375,4.8828125,-970.21484375,20.01953125,7.8125,26.85546875
1771539134.7348437,18.06640625,-970.21484375,17.578125,3.90625,37.59765625
1771539134.73875,33.69140625,-970.21484375,20.99609375,6.8359375,26.3671875
1771539134.7426562,20.01953125,-970.21484375,21.484375,13.18359375,68.359375
1771539134.7465625,5.37109375,-970.21484375,17.578125,20.5078125,119.140625
1771539134.7504687,14.16015625,-970.21484375,20.99609375,26.85546875,50.29296875
1771539134.754375,20.99609375,-970.21484375,23.4375,23.92578125,45.41015625
1771539134.7582812,26.3671875,-970.21484375,21.484375,10.7421875,58.59375
1771539134.7621875,22.4609375,-970.21484375,20.99609375,9.765625,-7.32421875
1771539134.7660937,20.5078125,-970.21484375,18.5546875,27.34375,-18.06640625
1771539134.769125,21.97265625,-970.21484375,17.578125,31.73828125,-19.04296875
1771539134.7730312,21.97265625,-970.21484375,16.6015625,20.5078125,5.859375
1771539134.7769375,16.6015625,-970.21484375,19.53125,21.97265625,36.62109375
1771539134.7808437,18.5546875,-970.21484375,20.99609375,17.578125,-8.7890625
1771539134.78475,20.99609375,-970.21484375,13.18359375,19.04296875,-63.4765625
1771539134.7886562,20.5078125,-970.21484375,13.18359375,19.04296875,-5.37109375
1771539134.7925625,26.3671875,-970.21484375,19.53125,11.23046875,18.5546875
1771539134.7964687,15.625,-970.21484375,16.11328125,14.6484375,-13.18359375
1771539134.800375,14.16015625,-970.21484375,17.578125,22.4609375,22.94921875
1771539134.8042812,30.2734375,-970.21484375,22.94921875,28.3203125,41.015625
1771539134.8081875,36.62109375,-970.21484375,25.390625,25.87890625,46.38671875
1771539134.8120937,30.2734375,-970.21484375,26.3671875,25.87890625,11.23046875
1771539134.814125,22.94921875,-970.21484375,22.4609375,31.25,13.18359375
1771539134.8180313,29.296875,-970.21484375,19.04296875,27.34375,57.12890625
1771539134.8219376,32.71484375,-970.21484375,20.01953125,24.4140625,82.03125
1771539134.8258438,24.4140625,-970.21484375,20.5078125,23.92578125,62.98828125
1771539134.82975,31.25,-970.21484375,18.5546875,33.203125,61.03515625
1771539134.8336563,39.0625,-970.21484375,23.4375,38.0859375,40.52734375
1771539134.8375626,41.015625,-970.21484375,22.94921875,29.78515625,47.36328125
1771539134.8414688,49.31640625,-970.21484375,22.94921875,32.2265625,86.9140625
1771539134.845375,31.25,-970.21484375,23.92578125,31.73828125,40.0390625
1771539134.8492813,29.296875,-970.21484375,20.99609375,35.64453125,3.90625
1771539134.8531876,35.64453125,-970.21484375,23.4375,20.99609375,23.92578125
1771539134.8570938,23.4375,-970.21484375,23.4375,23.92578125,73.2421875
1771539134.858125,22.94921875,-970.21484375,22.4609375,41.015625,111.328125
1771539134.8620312,29.78515625,-970.21484375,24.4140625,38.57421875,54.19921875
1771539134.8659375,37.59765625,-970.21484375,22.4609375,34.66796875,-20.01953125
1771539134.8698437,37.59765625,-970.21484375,21.484375,31.25,18.5546875
1771539134.87375,35.64453125,-970.21484375,24.4140625,26.85546875,45.41015625
1771539134.8776562,26.3671875,-970.21484375,24.4140625,22.4609375,45.41015625
1771539134.8815625,16.6015625,-970.21484375,24.4140625,16.11328125,67.87109375
1771539134.8854687,20.99609375,-970.21484375,30.76171875,16.6015625,51.26953125
1771539134.889375,25.87890625,-970.21484375,27.34375,30.76171875,101.5625
1771539134.8932812,20.99609375,-970.21484375,21.484375,39.55078125,125.9765625
1771539134.8971875,28.80859375,-970.21484375,28.3203125,27.83203125,26.3671875
1771539134.9010937,31.73828125,-970.21484375,27.34375,15.625,-10.25390625
1771539134.918125,34.66796875,-970.21484375,28.3203125,31.25,-30.76171875
1771539134.9220312,49.31640625,-970.21484375,27.83203125,55.17578125,-7.8125
1771539134.9259374,35.64453125,-970.21484375,26.3671875,45.41015625,62.01171875
1771539134.9298437,19.53125,-970.21484375,18.5546875,12.6953125,41.015625
1771539134.93375,43.9453125,-970.21484375,16.6015625,38.0859375,49.31640625
1771539134.9376562,51.7578125,-970.21484375,25.87890625,45.8984375,9.27734375
1771539134.9415624,39.0625,-970.21484375,23.4375,45.8984375,-22.4609375
1771539134.9454687,42.96875,-970.21484375,24.90234375,74.21875,9.27734375
1771539134.949375,57.12890625,-970.21484375,26.3671875,50.78125,44.921875
1771539134.9532812,48.828125,-970.21484375,22.4609375,37.109375,75.1953125
1771539134.9571874,44.43359375,-970.21484375,23.92578125,55.6640625,52.24609375
1771539134.9610937,47.8515625,-970.21484375,21.97265625,53.7109375,38.57421875
1771539134.963125,43.45703125,-970.21484375,22.94921875,38.57421875,35.64453125
1771539134.9670312,45.41015625,-970.21484375,24.90234375,35.64453125,27.83203125
1771539134.9709375,26.3671875,-970.21484375,21.97265625,40.52734375,41.9921875
1771539134.9748437,26.85546875,-970.21484375,24.4140625,48.828125,50.78125
1771539134.97875,44.921875,-970.21484375,23.92578125,40.0390625,69.3359375
1771539134.9826562,46.875,-970.21484375,21.97265625,39.55078125,72.75390625
1771539134.9865625,46.38671875,-970.21484375,23.92578125,42.48046875,24.90234375
1771539134.9904687,34.66796875,-970.21484375,25.390625,35.64453125,20.5078125
1771539134.994375,35.15625,-970.21484375,26.3671875,31.25,46.38671875
1771539134.9982812,44.921875,-970.21484375,26.3671875,28.80859375,-3.41796875
1771539135.0021875,46.875,-970.21484375,23.92578125,27.34375,52.24609375
1771539135.0060937,36.1328125,-970.21484375,23.4375,41.015625,93.26171875
1771539135.008125,30.76171875,-970.21484375,27.83203125,31.73828125,39.55078125
1771539135.0120313,25.87890625,-970.21484375,27.83203125,16.6015625,61.5234375
1771539135.0159376,23.92578125,-970.21484375,24.90234375,28.3203125,72.75390625
1771539135.0198438,37.59765625,-970.21484375,27.34375,50.29296875,12.20703125
1771539135.02375,44.921875,-970.21484375,25.390625,37.109375,-16.6015625
1771539135.0276563,49.31640625,-970.21484375,23.92578125,26.85546875,-2.44140625
1771539135.0315626,43.9453125,-970.21484375,25.87890625,32.2265625,34.1796875
1771539135.0354688,36.62109375,-970.21484375,28.80859375,36.62109375,66.89453125
1771539135.039375,34.1796875,-970.21484375,26.85546875,47.36328125,49.8046875
1771539135.0432813,34.66796875,-970.21484375,24.90234375,32.71484375,43.45703125
1771539135.0471876,35.15625,-970.21484375,30.76171875,28.80859375,22.4609375
1771539135.0510938,41.015625,-970.21484375,30.76171875,40.0390625,8.7890625
1771539135.053125,52.734375,-970.21484375,26.3671875,50.78125,-10.25390625
1771539135.0570312,53.7109375,-970.21484375,31.25,44.921875,-25.390625
1771539135.0609374,46.38671875,-970.21484375,33.69140625,33.69140625,-10.7421875
1771539135.0648437,38.57421875,-970.21484375,31.73828125,42.48046875,46.38671875
1771539135.06875,35.64453125,-970.21484375,32.2265625,51.26953125,84.9609375
1771539135.0726562,40.0390625,-970.21484375,32.2265625,34.1796875,94.7265625
1771539135.0765624,35.64453125,-970.21484375,30.2734375,29.296875,93.75
1771539135.0804687,38.0859375,-970.21484375,32.71484375,37.109375,53.22265625
1771539135.084375,42.48046875,-970.21484375,29.296875,45.8984375,43.9453125
1771539135.0882812,43.9453125,-970.21484375,23.4375,55.17578125,32.2265625
1771539135.0921874,50.78125,-970.21484375,28.80859375,36.62109375,-5.37109375
1771539135.0960937,28.80859375,-970.21484375,31.73828125,22.4609375,-10.25390625
1771539135.098125,20.99609375,-970.21484375,26.85546875,31.73828125,24.4140625
1771539135.1020312,32.2265625,-970.21484375,23.4375,30.2734375,30.76171875
1771539135.1059375,37.109375,-970.21484375,27.34375,23.4375,46.38671875
1771539135.1098437,34.1796875,-970.21484375,22.4609375,25.390625,33.69140625
1771539135.11375,31.73828125,-970.21484375,19.53125,37.59765625,2.44140625
1771539135.1176562,32.71484375,-970.21484375,26.3671875,49.31640625,8.30078125
1771539135.1215625,42.48046875,-970.21484375,26.3671875,25.390625,-13.671875
1771539135.1254687,42.96875,-970.21484375,23.4375,9.765625,-26.85546875
1771539135.129375,32.71484375,-970.21484375,26.3671875,14.6484375,-8.30078125
1771539135.1332812,35.15625,-970.21484375,27.34375,31.25,6.8359375
1771539135.1371875,21.97265625,-970.21484375,23.92578125,34.1796875,-7.32421875
1771539135.1410937,16.6015625,-970.21484375,24.90234375,25.87890625,51.7578125
1771539135.143125,28.80859375,-970.21484375,32.2265625,34.1796875,85.9375
1771539135.1470313,30.76171875,-970.21484375,37.109375,38.57421875,58.59375
1771539135.1509376,33.69140625,-970.21484375,34.1796875,39.55078125,21.97265625
1771539135.1548438,33.69140625,-970.21484375,33.203125,32.2265625,-0.48828125
1771539135.15875,38.57421875,-970.21484375,31.25,34.66796875,11.71875
1771539135.1626563,41.015625,-970.21484375,30.76171875,50.29296875,3.41796875
1771539135.1665626,39.55078125,-970.21484375,33.203125,41.50390625,46.875
1771539135.1704688,49.31640625,-970.21484375,31.25,14.6484375,58.59375
1771539135.174375,36.1328125,-970.21484375,30.76171875,16.6015625,20.01953125
1771539135.1782813,31.25,-970.21484375,31.25,33.203125,57.12890625
1771539135.1821876,41.9921875,-970.21484375,32.71484375,39.0625,68.359375
1771539135.1860938,35.15625,-970.21484375,33.203125,37.109375,31.25
1771539135.189125,30.76171875,-970.21484375,30.76171875,39.0625,53.7109375
1771539135.1930313,27.34375,-970.21484375,30.2734375,27.83203125,46.875
1771539135.1969376,24.4140625,-970.21484375,27.34375,21.484375,43.9453125
1771539135.2008438,38.57421875,-970.21484375,29.296875,19.53125,72.265625
1771539135.20475,39.55078125,-970.21484375,32.71484375,14.16015625,48.33984375
1771539135.2086563,33.69140625,-970.21484375,32.71484375,25.390625,40.52734375
1771539135.2125626,41.015625,-970.21484375,31.25,33.203125,21.97265625
1771539135.2164688,38.0859375,-970.21484375,26.3671875,30.2734375,10.25390625
1771539135.220375,25.87890625,-970.21484375,19.04296875,20.99609375,24.4140625
1771539135.2242813,31.25,-970.21484375,17.578125,31.73828125,40.0390625
1771539135.2281876,24.4140625,-970.21484375,23.92578125,39.55078125,71.2890625
1771539135.2320938,20.99609375,-970.21484375,27.83203125,36.62109375,50.29296875
1771539135.233125,32.2265625,-970.21484375,27.83203125,40.52734375,55.17578125
1771539135.2370312,32.2265625,-970.21484375,29.296875,33.203125,59.5703125
1771539135.2409375,20.01953125,-970.21484375,29.296875,18.5546875,24.4140625
1771539135.2448437,25.390625,-970.21484375,30.2734375,29.78515625,40.52734375
1771539135.24875,39.55078125,-970.21484375,29.78515625,24.90234375,33.69140625
1771539135.2526562,34.66796875,-970.21484375,29.78515625,25.87890625,42.96875
1771539135.2565625,27.34375,-970.21484375,33.69140625,41.50390625,62.5
1771539135.2604687,37.109375,-970.21484375,33.203125,25.390625,41.015625
1771539135.264375,48.33984375,-970.21484375,32.71484375,25.87890625,43.45703125
1771539135.2682812,44.43359375,-970.21484375,36.1328125,34.1796875,13.671875
1771539135.2721875,38.57421875,-970.21484375,36.1328125,38.0859375,-12.6953125
1771539135.2760937,40.0390625,-970.21484375,35.64453125,53.7109375,-10.7421875
1771539135.279125,38.57421875,-970.21484375,37.59765625,43.45703125,17.08984375
1771539135.2830312,33.203125,-970.21484375,35.15625,26.85546875,52.734375
1771539135.2869375,34.1796875,-970.21484375,31.73828125,24.90234375,21.97265625
1771539135.2908437,36.1328125,-970.21484375,33.203125,24.4140625,38.0859375
1771539135.29475,38.57421875,-970.21484375,34.1796875,37.109375,50.29296875
1771539135.2986562,41.9921875,-970.21484375,29.296875,24.90234375,69.3359375
1771539135.3025625,38.57421875,-970.21484375,29.296875,16.11328125,52.24609375
1771539135.3064687,30.76171875,-970.21484375,33.203125,43.45703125,-24.90234375
1771539135.310375,36.62109375,-970.21484375,29.78515625,49.8046875,6.8359375
1771539135.3142812,47.36328125,-970.21484375,31.25,29.78515625,85.9375
1771539135.3181875,57.12890625,-970.21484375,32.71484375,32.71484375,41.50390625
1771539135.3220937,46.38671875,-970.21484375,32.2265625,41.9921875,-21.484375
1771539135.339125,37.109375,-970.21484375,31.25,37.59765625,-20.5078125
1771539135.3430312,40.52734375,-970.21484375,29.296875,33.203125,21.97265625
1771539135.3469374,46.38671875,-970.21484375,31.25,24.90234375,41.015625
1771539135.3508437,44.43359375,-970.21484375,34.66796875,21.484375,43.9453125
1771539135.35475,33.69140625,-970.21484375,34.66796875,26.3671875,53.22265625
1771539135.3586562,44.921875,-970.21484375,34.66796875,28.3203125,28.80859375
1771539135.3625624,50.78125,-970.21484375,31.25,27.34375,12.20703125
1771539135.3664687,37.59765625,-970.21484375,29.296875,28.80859375,20.99609375
1771539135.370375,25.390625,-970.21484375,27.34375,23.4375,31.73828125
1771539135.3742812,31.73828125,-970.21484375,27.34375,24.90234375,45.8984375
1771539135.3781874,38.57421875,-970.21484375,30.76171875,25.87890625,55.6640625
1771539135.3820937,38.57421875,-970.21484375,31.25,17.08984375,38.0859375
1771539135.383125,37.59765625,-970.21484375,31.73828125,16.11328125,38.57421875
1771539135.3870313,25.390625,-970.21484375,29.78515625,12.20703125,44.921875
1771539135.3909376,23.92578125,-970.21484375,26.3671875,10.25390625,33.69140625
1771539135.3948438,34.1796875,-970.21484375,29.296875,20.01953125,8.30078125
1771539135.39875,35.64453125,-970.21484375,29.78515625,23.4375,11.23046875
1771539135.4026563,36.62109375,-970.21484375,31.73828125,31.73828125,52.734375
1771539135.4065626,35.64453125,-970.21484375,34.66796875,40.52734375,49.31640625
1771539135.4104688,34.66796875,-970.21484375,32.2265625,27.83203125,2.9296875
1771539135.414375,42.48046875,-970.21484375,31.73828125,22.4609375,36.62109375
1771539135.4182813,41.9921875,-970.21484375,29.296875,24.90234375,71.77734375
1771539135.4221876,40.52734375,-970.21484375,26.3671875,19.53125,41.015625
1771539135.4260938,35.15625,-970.21484375,26.3671875,10.25390625,54.19921875
1771539135.429125,28.80859375,-970.21484375,24.90234375,17.578125,27.83203125
1771539135.4330313,24.4140625,-970.21484375,20.01953125,20.5078125,-8.7890625
1771539135.4369376,26.85546875,-970.21484375,19.53125,31.73828125,26.85546875
1771539135.4408438,37.59765625,-970.21484375,25.390625,25.390625,15.13671875
1771539135.44475,46.875,-970.21484375,27.34375,18.5546875,46.875
1771539135.4486563,38.57421875,-970.21484375,28.80859375,22.4609375,20.5078125
1771539135.4525626,28.80859375,-970.21484375,28.3203125,25.87890625,6.34765625
1771539135.4564688,39.55078125,-970.21484375,28.80859375,24.90234375,117.1875
1771539135.460375,40.0390625,-970.21484375,32.71484375,22.94921875,110.3515625
1771539135.4642813,29.78515625,-970.21484375,34.1796875,32.71484375,29.296875
1771539135.4681876,38.0859375,-970.21484375,35.64453125,42.96875,-3.90625
1771539135.4720938,39.0625,-970.21484375,33.203125,43.9453125,-2.44140625
1771539135.473125,43.45703125,-970.21484375,34.1796875,26.85546875,-0.48828125
1771539135.4770312,41.9921875,-970.21484375,32.2265625,33.203125,44.921875
1771539135.4809375,39.55078125,-970.21484375,29.296875,34.1796875,68.84765625
1771539135.4848437,46.38671875,-970.21484375,29.296875,29.78515625,65.91796875
1771539135.48875,48.828125,-970.21484375,31.25,24.90234375,45.41015625
1771539135.4926562,40.52734375,-970.21484375,34.1796875,22.94921875,-6.34765625
1771539135.4965625,23.4375,-970.21484375,30.2734375,24.4140625,41.015625
1771539135.5004687,29.296875,-970.21484375,32.71484375,27.83203125,79.58984375
1771539135.504375,34.1796875,-970.21484375,31.25,26.3671875,72.75390625
1771539135.5082812,25.390625,-970.21484375,29.78515625,25.87890625,67.3828125
1771539135.5121875,29.296875,-970.21484375,31.25,29.78515625,45.41015625
1771539135.5160937,39.55078125,-970.21484375,28.3203125,21.484375,89.35546875
1771539135.518125,37.109375,-970.21484375,28.80859375,18.5546875,46.875
1771539135.5220313,19.04296875,-970.21484375,29.296875,9.27734375,-30.76171875
1771539135.5259376,11.71875,-970.21484375,34.66796875,22.94921875,9.27734375
1771539135.5298438,19.53125,-970.21484375,36.1328125,44.921875,47.36328125
1771539135.53375,23.92578125,-970.21484375,32.2265625,32.2265625,7.32421875
1771539135.5376563,30.2734375,-970.21484375,39.0625,15.625,6.34765625
1771539135.5415626,26.85546875,-970.21484375,34.66796875,17.578125,46.875
1771539135.5454688,27.34375,-970.21484375,31.25,21.484375,83.984375
1771539135.549375,30.2734375,-970.21484375,36.62109375,29.296875,80.56640625
1771539135.5532813,26.3671875,-970.21484375,33.203125,25.390625,-5.859375
1771539135.5571876,25.390625,-970.21484375,34.66796875,30.76171875,19.53125
1771539135.5610938,31.25,-970.21484375,37.109375,40.0390625,67.3828125
1771539135.564125,44.921875,-970.21484375,34.1796875,33.69140625,72.265625
1771539135.5680313,44.921875,-970.21484375,37.109375,27.34375,68.359375
1771539135.5719376,38.0859375,-970.21484375,40.0390625,23.4375,55.6640625
1771539135.5758438,33.69140625,-970.21484375,38.0859375,31.73828125,44.921875
1771539135.57975,27.34375,-970.21484375,35.64453125,40.52734375,15.625
1771539135.5836563,28.80859375,-970.21484375,35.15625,39.0625,31.25
1771539135.5875626,27.83203125,-970.21484375,36.62109375,27.34375,15.13671875
1771539135.5914688,23.4375,-970.21484375,37.59765625,32.71484375,-28.80859375
1771539135.595375,23.4375,-970.21484375,34.66796875,41.015625,-20.01953125
1771539135.5992813,19.53125,-970.21484375,31.25,30.2734375,-9.27734375
1771539135.6031876,24.4140625,-970.21484375,33.69140625,20.99609375,-34.1796875
1771539135.6070938,27.83203125,-970.21484375,35.15625,21.97265625,-20.01953125
1771539135.608125,20.5078125,-970.21484375,27.83203125,16.11328125,28.80859375
1771539135.6120312,32.2265625,-970.21484375,30.2734375,22.94921875,-12.20703125
1771539135.6159375,42.48046875,-970.21484375,38.0859375,24.90234375,-18.5546875
1771539135.6198437,36.1328125,-970.21484375,35.15625,21.97265625,41.50390625
1771539135.62375,33.203125,-970.21484375,31.25,22.4609375,3.41796875
1771539135.6276562,28.3203125,-970.21484375,30.2734375,23.4375,-38.0859375
1771539135.6315625,33.69140625,-970.21484375,29.78515625,21.484375,-12.6953125
1771539135.6354687,31.25,-970.21484375,25.87890625,15.13671875,25.87890625
1771539135.639375,26.85546875,-970.21484375,27.34375,13.18359375,48.33984375
1771539135.6432812,37.109375,-970.21484375,30.2734375,23.4375,21.484375
1771539135.6471875,33.69140625,-970.21484375,29.296875,27.34375,-19.04296875
1771539135.6510937,32.71484375,-970.21484375,27.83203125,19.04296875,34.1796875
1771539135.669125,25.390625,-970.21484375,28.3203125,16.11328125,78.125
1771539135.6730313,20.01953125,-970.21484375,23.92578125,22.4609375,45.41015625
1771539135.6769376,31.25,-970.21484375,24.4140625,33.203125,55.17578125
1771539135.6808438,30.2734375,-970.21484375,25.87890625,16.11328125,28.80859375
1771539135.68475,25.390625,-970.21484375,26.3671875,8.30078125,20.5078125
1771539135.6886563,21.484375,-970.21484375,29.296875,19.53125,32.71484375
1771539135.6925626,22.94921875,-970.21484375,23.4375,17.08984375,8.30078125
1771539135.6964688,26.85546875,-970.21484375,23.92578125,2.9296875,27.83203125
1771539135.700375,28.3203125,-970.21484375,26.3671875,5.37109375,23.92578125
1771539135.7042813,35.15625,-970.21484375,26.85546875,9.27734375,17.578125
1771539135.7081876,27.83203125,-970.21484375,28.80859375,1.953125,35.64453125
1771539135.7120938,21.484375,-970.21484375,22.94921875,20.01953125,28.3203125
1771539135.713125,40.0390625,-970.21484375,23.92578125,33.69140625,21.484375
1771539135.7170312,49.31640625,-970.21484375,25.87890625,24.90234375,11.23046875
1771539135.7209375,32.71484375,-970.21484375,21.97265625,12.6953125,21.97265625
1771539135.7248437,28.80859375,-970.21484375,24.90234375,20.5078125,62.98828125
1771539135.72875,35.15625,-970.21484375,24.90234375,22.94921875,106.93359375
1771539135.7326562,28.80859375,-970.21484375,24.4140625,22.94921875,90.8203125
1771539135.7365625,26.85546875,-970.21484375,25.390625,31.25,39.0625
1771539135.7404687,31.25,-970.21484375,21.97265625,41.015625,70.3125
1771539135.744375,38.57421875,-970.21484375,25.390625,33.69140625,30.2734375
1771539135.7482812,39.55078125,-970.21484375,27.83203125,26.85546875,-13.671875
1771539135.7521875,34.66796875,-970.21484375,22.4609375,35.15625,-20.5078125
1771539135.7560937,36.1328125,-970.21484375,21.484375,44.43359375,-17.578125
1771539135.758125,48.828125,-970.21484375,21.97265625,25.390625,-5.859375
1771539135.7620313,41.015625,-970.21484375,21.484375,11.71875,16.11328125
1771539135.7659376,28.3203125,-970.21484375,20.99609375,24.4140625,43.9453125
1771539135.7698438,29.296875,-970.21484375,24.4140625,31.25,-12.6953125
1771539135.77375,30.2734375,-970.21484375,25.390625,20.5078125,-0.48828125
1771539135.7776563,40.52734375,-970.21484375,26.85546875,17.08984375,16.6015625
1771539135.7815626,39.55078125,-970.21484375,27.34375,28.3203125,-4.39453125
1771539135.7854688,18.5546875,-970.21484375,26.3671875,28.80859375,46.38671875
1771539135.789375,16.6015625,-970.21484375,27.83203125,36.1328125,40.52734375
1771539135.7932813,38.0859375,-970.21484375,27.34375,20.5078125,7.8125
1771539135.7971876,36.62109375,-970.21484375,29.296875,20.5078125,39.0625
1771539135.8010938,18.5546875,-970.21484375,29.78515625,38.0859375,62.98828125
1771539135.803125,11.23046875,-970.21484375,25.87890625,27.83203125,36.62109375
1771539135.8070312,14.6484375,-970.21484375,26.85546875,23.4375,51.26953125
1771539135.8109374,15.13671875,-970.21484375,27.83203125,13.671875,74.70703125
1771539135.8148437,24.90234375,-970.21484375,28.80859375,15.13671875,102.5390625
1771539135.81875,36.1328125,-970.21484375,27.83203125,31.73828125,27.83203125
1771539135.8226562,41.015625,-970.21484375,24.4140625,21.484375,-12.6953125
1771539135.8265624,61.5234375,-970.21484375,24.4140625,36.1328125,30.2734375
1771539135.8304687,46.875,-970.21484375,34.66796875,46.38671875,28.3203125
1771539135.834375,23.4375,-970.21484375,41.50390625,23.4375,41.50390625
1771539135.8382812,27.83203125,-970.21484375,45.8984375,28.80859375,40.0390625
1771539135.8421874,27.34375,-970.21484375,45.41015625,17.578125,52.734375
1771539135.8460937,33.69140625,-970.21484375,41.9921875,20.01953125,84.9609375
1771539135.849125,35.64453125,-970.21484375,46.875,40.52734375,53.22265625
1771539135.8530312,23.4375,-970.21484375,44.43359375,33.69140625,22.94921875
1771539135.8569374,17.578125,-970.21484375,40.52734375,4.8828125,57.6171875
1771539135.8608437,24.90234375,-970.21484375,41.015625,11.71875,59.08203125
1771539135.86475,35.64453125,-970.21484375,40.52734375,35.64453125,26.85546875
1771539135.8686562,41.50390625,-970.21484375,38.0859375,36.1328125,56.15234375
1771539135.8725624,43.9453125,-970.21484375,32.71484375,32.2265625,27.34375
1771539135.8764687,45.8984375,-970.21484375,33.69140625,36.62109375,-17.08984375
1771539135.880375,37.59765625,-970.21484375,31.25,27.83203125,49.8046875
1771539135.8842812,30.2734375,-970.21484375,31.25,33.203125,70.80078125
1771539135.8881874,41.9921875,-970.21484375,37.109375,38.0859375,13.671875
1771539135.8920937,41.9921875,-970.21484375,34.66796875,25.87890625,42.48046875
1771539135.893125,41.50390625,-970.21484375,34.1796875,39.55078125,43.45703125
1771539135.8970313,40.0390625,-970.21484375,35.64453125,53.7109375,6.8359375
1771539135.9009376,36.1328125,-970.21484375,36.1328125,41.50390625,25.390625
1771539135.9048438,41.50390625,-970.21484375,36.62109375,33.203125,17.08984375
1771539135.90875,42.96875,-970.21484375,35.15625,36.62109375,8.7890625
1771539135.9126563,35.15625,-970.21484375,36.1328125,52.24609375,48.33984375
1771539135.9165626,36.62109375,-970.21484375,33.69140625,46.38671875,128.41796875
1771539135.9204688,49.31640625,-970.21484375,34.1796875,30.76171875,100.5859375
1771539135.924375,44.43359375,-970.21484375,36.1328125,34.1796875,55.6640625
1771539135.9282813,28.80859375,-970.21484375,32.2265625,19.04296875,31.73828125
1771539135.9321876,30.2734375,-970.21484375,35.15625,28.3203125,47.36328125
1771539135.9360938,36.1328125,-970.21484375,31.25,11.71875,39.0625
1771539135.939125,19.53125,-970.21484375,29.78515625,5.37109375,9.765625
1771539135.9430313,14.6484375,-970.21484375,33.203125,27.34375,24.90234375
1771539135.9469376,27.34375,-970.21484375,29.296875,25.390625,42.48046875
1771539135.9508438,27.83203125,-970.21484375,30.2734375,30.2734375,71.77734375
1771539135.95475,22.4609375,-970.21484375,35.15625,22.94921875,63.4765625
1771539135.9586563,27.34375,-970.21484375,33.69140625,26.85546875,72.265625
1771539135.9625626,27.83203125,-970.21484375,28.80859375,29.296875,48.33984375
1771539135.9664688,26.3671875,-970.21484375,27.83203125,2.9296875,17.578125
1771539135.970375,35.15625,-970.21484375,27.83203125,-1.953125,38.0859375
1771539135.9742813,36.62109375,-970.21484375,29.296875,5.859375,51.7578125
1771539135.9781876,27.83203125,-970.21484375,33.203125,13.18359375,40.0390625
1771539135.9820938,37.59765625,-970.21484375,31.25,27.83203125,12.6953125
1771539135.983125,43.9453125,-970.21484375,26.85546875,26.3671875,8.7890625
1771539135.9870312,31.25,-970.21484375,26.3671875,27.83203125,37.109375
1771539135.9909375,39.0625,-970.21484375,30.2734375,29.78515625,21.484375
1771539135.9948437,48.33984375,-970.21484375,31.25,35.64453125,3.90625
1771539135.99875,43.45703125,-970.21484375,30.2734375,31.25,5.859375
1771539136.0026562,41.9921875,-970.21484375,31.73828125,30.76171875,4.8828125
1771539136.0065625,37.109375,-970.21484375,38.0859375,36.62109375,42.48046875
1771539136.0104687,34.1796875,-970.21484375,37.59765625,41.9921875,39.55078125
1771539136.014375,47.36328125,-970.21484375,34.1796875,50.78125,14.6484375
1771539136.0182812,57.12890625,-970.21484375,32.2265625,30.76171875,24.90234375
1771539136.0221875,49.8046875,-970.21484375,32.2265625,27.34375,75.68359375
1771539136.0260937,39.55078125,-970.21484375,34.1796875,34.66796875,46.875
1771539136.043125,46.875,-970.21484375,36.62109375,42.96875,19.53125
1771539136.0470312,49.8046875,-970.21484375,35.64453125,47.8515625,25.390625
1771539136.0509374,44.921875,-970.21484375,32.71484375,31.25,45.8984375
1771539136.0548437,49.31640625,-970.21484375,34.1796875,26.3671875,46.875
1771539136.05875,43.45703125,-970.21484375,30.76171875,34.66796875,38.0859375
1771539136.0626562,41.015625,-970.21484375,30.76171875,24.90234375,45.41015625
1771539136.0665624,40.52734375,-970.21484375,30.76171875,23.92578125,1.953125
1771539136.0704687,41.9921875,-970.21484375,26.85546875,30.2734375,38.0859375
1771539136.074375,41.9921875,-970.21484375,27.83203125,38.57421875,72.75390625
1771539136.0782812,39.55078125,-970.21484375,29.296875,31.73828125,-18.06640625
1771539136.0821874,48.828125,-970.21484375,27.34375,25.390625,-20.5078125
1771539136.0860937,25.87890625,-970.21484375,30.76171875,44.921875,69.82421875
1771539136.088125,15.625,-970.21484375,31.25,41.015625,109.86328125
1771539136.0920312,30.76171875,-970.21484375,28.80859375,24.90234375,86.9140625
1771539136.0959375,26.85546875,-970.21484375,33.69140625,19.53125,40.52734375
1771539136.0998437,21.484375,-970.21484375,31.73828125,28.80859375,9.27734375
1771539136.10375,16.6015625,-970.21484375,30.2734375,27.34375,37.59765625
1771539136.1076562,25.390625,-970.21484375,34.66796875,21.97265625,90.8203125
1771539136.1115625,32.2265625,-970.21484375,29.296875,25.390625,52.734375
1771539136.1154687,27.34375,-970.21484375,26.3671875,20.01953125,-37.59765625
1771539136.119375,21.484375,-970.21484375,33.203125,24.4140625,-28.80859375
1771539136.1232812,21.484375,-970.21484375,31.25,44.921875,40.0390625
1771539136.1271875,26.85546875,-970.21484375,29.78515625,31.25,69.3359375
1771539136.1310937,23.4375,-970.21484375,33.203125,23.4375,73.73046875
1771539136.133125,22.4609375,-970.21484375,35.64453125,34.1796875,20.5078125
1771539136.1370313,27.83203125,-970.21484375,33.69140625,30.2734375,38.0859375
1771539136.1409376,33.203125,-970.21484375,33.69140625,18.5546875,50.29296875
1771539136.1448438,31.25,-970.21484375,33.69140625,12.6953125,-0.48828125
1771539136.14875,17.578125,-970.21484375,30.76171875,9.27734375,18.5546875
1771539136.1526563,17.578125,-970.21484375,32.2265625,21.484375,35.64453125
1771539136.1565626,25.390625,-970.21484375,32.2265625,29.78515625,20.5078125
1771539136.1604688,27.34375,-970.21484375,32.2265625,18.5546875,-2.9296875
1771539136.164375,32.71484375,-967.7734375,35.15625,24.4140625,0.0
1771539136.1682813,29.296875,-978.02734375,34.66796875,23.92578125,62.5
1771539136.1721876,26.85546875,-928.7109375,33.203125,29.296875,118.65234375
1771539136.1760938,38.57421875,-923.33984375,37.109375,29.296875,82.03125
1771539136.178125,43.45703125,-976.5625,39.0625,26.3671875,57.6171875
1771539136.1820312,37.59765625,-969.23828125,38.0859375,30.76171875,81.0546875
1771539136.1859374,35.64453125,-969.23828125,33.69140625,40.52734375,10.25390625
1771539136.1898437,47.36328125,-970.21484375,30.76171875,35.15625,33.69140625
1771539136.19375,49.8046875,-970.21484375,29.296875,26.3671875,30.76171875
1771539136.1976562,31.25,-970.21484375,31.25,28.80859375,31.73828125
1771539136.2015624,23.92578125,-970.21484375,31.73828125,27.34375,64.94140625
1771539136.2054687,32.71484375,-970.703125,29.296875,29.296875,86.9140625
1771539136.209375,35.64453125,-968.75,31.73828125,29.296875,81.0546875
1771539136.2132812,28.3203125,-973.14453125,34.66796875,21.97265625,4.39453125
1771539136.2171874,21.484375,-963.37890625,32.2265625,20.99609375,54.19921875
1771539136.2210937,24.90234375,-947.75390625,31.25,30.2734375,71.2890625
1771539136.223125,33.69140625,-967.7734375,33.203125,19.04296875,18.06640625
1771539136.2270312,33.69140625,-973.14453125,28.80859375,5.859375,32.71484375
1771539136.2309375,33.203125,-963.37890625,24.4140625,9.27734375,86.42578125
1771539136.2348437,29.296875,-963.8671875,23.4375,20.5078125,56.15234375
1771539136.23875,25.390625,-971.19140625,24.4140625,19.04296875,28.3203125
1771539136.2426562,26.85546875,-970.21484375,27.34375,16.11328125,27.83203125
1771539136.2465625,17.578125,-970.21484375,27.83203125,20.99609375,-13.18359375
1771539136.2504687,22.4609375,-970.21484375,24.90234375,23.92578125,-18.5546875
1771539136.254375,26.85546875,-970.21484375,24.4140625,16.11328125,64.453125
1771539136.2582812,26.85546875,-970.21484375,25.87890625,11.23046875,74.70703125
1771539136.2621875,30.2734375,-970.21484375,26.85546875,16.6015625,-38.0859375
1771539136.2660937,25.390625,-970.21484375,27.34375,31.73828125,-59.5703125
1771539136.268125,25.87890625,-970.21484375,24.90234375,29.78515625,-0.9765625
1771539136.2720313,24.4140625,-970.21484375,29.296875,9.27734375,7.8125
1771539136.2759376,20.01953125,-970.21484375,28.3203125,8.30078125,17.578125
1771539136.2798438,21.484375,-970.21484375,28.80859375,20.5078125,10.25390625
1771539136.28375,29.296875,-970.21484375,29.78515625,25.390625,-10.25390625
1771539136.2876563,33.203125,-970.21484375,27.34375,14.6484375,7.32421875
1771539136.2915626,29.78515625,-968.75,34.1796875,22.94921875,45.8984375
1771539136.2954688,36.62109375,-973.14453125,31.73828125,22.4609375,80.56640625
1771539136.299375,36.1328125,-962.40234375,26.85546875,23.92578125,80.56640625
1771539136.3032813,24.90234375,-948.73046875,25.87890625,13.671875,58.10546875
1771539136.3071876,34.1796875,-965.8203125,26.85546875,9.27734375,53.7109375
1771539136.3110938,30.76171875,-967.28515625,30.2734375,17.08984375,103.515625
1771539136.313125,18.5546875,-958.49609375,32.71484375,12.6953125,63.4765625
1771539136.3170311,20.99609375,-958.0078125,34.66796875,19.04296875,18.5546875
1771539136.3209374,27.34375,-966.30859375,34.1796875,20.99609375,16.6015625
1771539136.3248436,33.203125,-971.19140625,29.78515625,15.625,-1.46484375
1771539136.32875,26.85546875,-969.7265625,33.203125,13.671875,41.9921875
1771539136.3326561,34.1796875,-970.21484375,34.1796875,28.3203125,30.2734375
1771539136.3365624,37.109375,-970.21484375,31.25,21.97265625,14.6484375
1771539136.3404686,34.1796875,-970.21484375,31.25,24.4140625,32.2265625
1771539136.344375,40.0390625,-970.21484375,29.78515625,32.2265625,44.921875
1771539136.3482811,46.38671875,-969.7265625,36.1328125,29.78515625,71.2890625
1771539136.3521874,47.36328125,-969.23828125,39.55078125,29.78515625,38.0859375
1771539136.3560936,29.296875,-971.6796875,33.203125,12.20703125,4.8828125
1771539136.358125,22.4609375,-963.8671875,23.4375,9.765625,41.9921875
1771539136.3620312,34.1796875,-955.56640625,21.97265625,16.6015625,60.05859375
1771539136.3659375,39.55078125,-967.7734375,30.2734375,22.94921875,36.62109375
1771539136.3698437,46.38671875,-971.19140625,26.85546875,35.15625,0.9765625
1771539136.37375,44.43359375,-969.7265625,26.85546875,27.83203125,-4.39453125
1771539136.3776562,44.921875,-970.21484375,30.2734375,27.34375,7.32421875
1771539136.3815625,49.31640625,-970.21484375,25.87890625,28.80859375,33.69140625
1771539136.3854687,37.59765625,-970.21484375,23.92578125,20.99609375,62.5
1771539136.389375,23.92578125,-970.21484375,25.87890625,29.296875,43.9453125
1771539136.3932812,29.296875,-970.21484375,26.85546875,37.109375,44.43359375
1771539136.3971875,41.9921875,-970.21484375,26.3671875,30.76171875,19.53125
1771539136.4010937,43.45703125,-970.21484375,28.3203125,16.6015625,17.578125
1771539136.404125,43.9453125,-970.21484375,28.3203125,20.01953125,57.12890625
1771539136.4080312,40.52734375,-970.21484375,23.4375,21.97265625,32.2265625
1771539136.4119375,41.015625,-970.21484375,23.92578125,34.66796875,-33.69140625
1771539136.4158437,47.8515625,-970.21484375,26.85546875,38.0859375,-13.671875
1771539136.41975,40.52734375,-970.21484375,25.390625,11.23046875,45.41015625
1771539136.4236562,36.62109375,-970.21484375,27.34375,14.6484375,22.94921875
1771539136.4275625,41.50390625,-970.21484375,29.296875,24.90234375,19.53125
1771539136.4314687,46.38671875,-970.21484375,26.85546875,15.625,29.78515625
1771539136.435375,35.15625,-970.21484375,25.87890625,16.11328125,14.6484375
1771539136.4392812,34.1796875,-970.21484375,25.87890625,24.90234375,71.2890625
1771539136.4431875,38.57421875,-970.21484375,24.90234375,30.76171875,66.89453125
1771539136.4470937,24.90234375,-970.21484375,27.83203125,28.3203125,6.34765625
1771539136.464125,38.57421875,-970.21484375,27.34375,35.64453125,-17.578125
1771539136.4680312,44.921875,-970.21484375,27.83203125,40.52734375,43.45703125
1771539136.4719374,28.3203125,-970.21484375,32.2265625,34.1796875,50.78125
1771539136.4758437,37.59765625,-970.21484375,33.69140625,41.9921875,12.6953125
1771539136.47975,49.31640625,-969.7265625,32.71484375,34.66796875,52.24609375
1771539136.4836562,46.875,-970.21484375,31.25,41.50390625,0.48828125
1771539136.4875624,38.57421875,-968.26171875,30.76171875,41.9921875,22.94921875
1771539136.4914687,40.52734375,-932.6171875,34.1796875,38.0859375,68.359375
1771539136.495375,49.31640625,-928.7109375,37.109375,49.8046875,58.59375
1771539136.4992812,55.6640625,-967.28515625,35.15625,37.59765625,12.20703125
1771539136.5031874,37.109375,-980.46875,31.73828125,24.4140625,-28.3203125
1771539136.5070937,30.2734375,-934.08203125,34.66796875,35.15625,50.29296875
1771539136.508125,57.12890625,-914.55078125,34.1796875,37.109375,98.6328125
1771539136.5120313,56.640625,-973.14453125,26.85546875,32.2265625,67.87109375
1771539136.5159376,41.9921875,-965.8203125,27.34375,33.203125,86.42578125
1771539136.5198438,43.45703125,-959.9609375,34.1796875,27.83203125,54.6875
1771539136.52375,50.29296875,-970.21484375,30.76171875,23.92578125,19.53125
1771539136.5276563,52.24609375,-969.23828125,24.90234375,15.625,42.96875
1771539136.5315626,47.36328125,-973.6328125,30.76171875,18.5546875,70.3125
1771539136.5354688,28.80859375,-954.1015625,31.73828125,20.5078125,87.40234375
1771539136.539375,21.97265625,-949.21875,28.3203125,14.6484375,56.640625
1771539136.5432813,26.3671875,-973.14453125,32.71484375,12.6953125,12.6953125
1771539136.5471876,22.4609375,-967.28515625,31.25,7.32421875,25.87890625
1771539136.5510938,22.4609375,-974.609375,27.34375,9.27734375,-21.484375
1771539136.553125,29.78515625,-954.58984375,25.87890625,32.2265625,18.06640625
1771539136.5570312,39.55078125,-904.78515625,29.296875,20.5078125,85.9375
1771539136.5609374,35.15625,-942.87109375,31.25,-7.32421875,13.671875
1771539136.5648437,25.390625,-970.21484375,26.85546875,4.8828125,11.71875
1771539136.56875,17.08984375,-965.33203125,30.76171875,18.5546875,46.875
1771539136.5726562,21.484375,-971.19140625,31.25,11.23046875,-2.9296875
1771539136.5765624,34.1796875,-970.21484375,30.76171875,-1.46484375,63.96484375
1771539136.5804687,19.04296875,-967.7734375,35.15625,8.30078125,104.98046875
1771539136.584375,12.6953125,-973.6328125,33.203125,19.04296875,3.41796875
1771539136.5882812,16.11328125,-955.56640625,31.73828125,17.578125,-26.3671875
1771539136.5921874,10.7421875,-891.6015625,30.2734375,3.90625,16.11328125
1771539136.5960937,13.18359375,-923.828125,27.83203125,-4.39453125,40.0390625
1771539136.599125,11.23046875,-948.2421875,29.78515625,6.34765625,45.8984375
1771539136.6030312,15.625,-847.16796875,31.25,14.6484375,38.57421875
1771539136.6069374,16.6015625,-826.171875,31.25,7.8125,44.43359375
1771539136.6108437,5.37109375,-925.29296875,31.73828125,2.44140625,14.6484375
1771539136.61475,-1.46484375,-950.68359375,37.109375,6.8359375,37.59765625
1771539136.6186562,-3.90625,-957.51953125,31.73828125,3.90625,61.03515625
1771539136.6225624,-1.953125,-937.98828125,34.66796875,-12.6953125,62.01171875
1771539136.6264687,9.765625,-913.0859375,41.015625,-11.23046875,85.9375
1771539136.630375,5.859375,-973.14453125,36.1328125,-3.41796875,31.73828125
1771539136.6342812,11.23046875,-976.07421875,39.55078125,2.9296875,-25.390625
1771539136.6381874,26.3671875,-846.19140625,40.52734375,15.625,42.48046875
1771539136.6420937,36.1328125,-869.62890625,36.1328125,23.92578125,81.54296875
1771539136.644125,26.85546875,-917.96875,37.109375,18.06640625,27.34375
1771539136.6480312,4.8828125,-730.46875,42.96875,4.39453125,24.90234375
1771539136.6519375,16.6015625,-661.62109375,41.9921875,20.5078125,65.4296875
1771539136.6558437,30.76171875,-781.25,39.55078125,21.484375,35.64453125
1771539136.65975,19.04296875,-771.97265625,46.875,-5.37109375,-13.18359375
1771539136.6636562,1.46484375,-778.80859375,41.50390625,-11.71875,54.19921875
1771539136.6675625,8.30078125,-870.60546875,36.1328125,-5.37109375,68.359375
1771539136.6714687,27.83203125,-977.5390625,41.9921875,-0.9765625,25.87890625
1771539136.675375,19.04296875,-875.48828125,39.0625,-3.41796875,50.78125
1771539136.6792812,2.9296875,-690.91796875,41.50390625,-7.8125,39.55078125
1771539136.6831875,16.6015625,-807.6171875,49.31640625,11.71875,-26.3671875
1771539136.6870937,29.78515625,-943.359375,40.52734375,14.6484375,-14.16015625
1771539136.689125,31.25,-945.80078125,35.15625,19.53125,41.015625
1771539136.6930313,20.01953125,-860.3515625,36.1328125,26.3671875,56.640625
1771539136.6969376,21.97265625,-884.27734375,30.76171875,29.78515625,51.26953125
1771539136.7008438,41.50390625,-944.82421875,33.203125,46.875,60.05859375
1771539136.70475,48.828125,-926.26953125,34.1796875,41.015625,43.45703125
1771539136.7086563,51.26953125,-968.26171875,26.3671875,36.1328125,41.015625
1771539136.7125626,55.6640625,-971.6796875,26.85546875,53.7109375,19.53125
1771539136.7164688,60.546875,-969.23828125,27.34375,58.10546875,16.6015625
1771539136.720375,66.89453125,-970.21484375,26.85546875,47.8515625,55.17578125
1771539136.7242813,75.1953125,-970.21484375,29.78515625,54.19921875,15.13671875
1771539136.7281876,65.91796875,-970.703125,27.34375,55.17578125,-18.5546875
1771539136.7320938,71.77734375,-960.9375,26.85546875,61.5234375,21.484375
1771539136.734125,83.49609375,-961.42578125,30.76171875,70.80078125,48.33984375
1771539136.7380311,74.21875,-969.7265625,30.2734375,68.84765625,62.01171875
1771539136.7419374,68.84765625,-970.21484375,29.296875,71.2890625,76.171875
1771539136.7458436,71.2890625,-969.7265625,31.25,79.1015625,80.078125
1771539136.74975,67.87109375,-968.26171875,28.3203125,60.05859375,64.94140625
1771539136.7536561,72.75390625,-968.75,28.80859375,59.5703125,39.55078125
1771539136.7575624,70.3125,-972.16796875,30.76171875,55.17578125,48.33984375
1771539136.7614686,64.453125,-966.30859375,24.4140625,50.78125,84.47265625
1771539136.765375,71.77734375,-949.70703125,21.97265625,61.03515625,60.05859375
1771539136.7692811,71.77734375,-963.37890625,21.97265625,45.8984375,13.671875
1771539136.7731874,59.5703125,-973.6328125,19.53125,38.0859375,-12.20703125
1771539136.7770936,45.8984375,-967.28515625,20.01953125,41.9921875,29.78515625
1771539136.793125,49.31640625,-941.89453125,21.484375,44.43359375,81.54296875
1771539136.7970312,56.15234375,-952.1484375,22.94921875,41.50390625,40.52734375
1771539136.8009374,57.12890625,-973.6328125,20.01953125,42.96875,-29.78515625
1771539136.8048437,49.8046875,-969.23828125,20.99609375,39.55078125,-26.85546875
1771539136.80875,51.7578125,-970.21484375,23.92578125,42.48046875,-13.18359375
1771539136.8126562,57.12890625,-969.7265625,23.92578125,37.59765625,20.5078125
1771539136.8165624,44.921875,-968.75,23.92578125,32.2265625,34.1796875
1771539136.8204687,37.59765625,-976.5625,20.99609375,35.64453125,15.625
1771539136.824375,44.43359375,-930.6640625,20.5078125,47.8515625,82.51953125
1771539136.8282812,45.41015625,-930.6640625,21.97265625,41.50390625,76.171875
1771539136.8321874,37.59765625,-976.5625,22.94921875,23.92578125,42.48046875
1771539136.8360937,35.64453125,-968.26171875,22.94921875,27.34375,52.24609375
1771539136.838125,40.52734375,-970.703125,22.4609375,45.8984375,-13.18359375
1771539136.8420312,46.875,-965.33203125,27.83203125,49.31640625,28.80859375
1771539136.8459375,47.36328125,-964.84375,27.34375,29.296875,83.984375
1771539136.8498437,38.0859375,-971.19140625,24.90234375,40.0390625,37.59765625
1771539136.85375,36.1328125,-970.21484375,28.80859375,57.12890625,31.73828125
1771539136.8576562,42.48046875,-970.21484375,27.83203125,48.828125,-0.48828125
1771539136.8615625,45.41015625,-970.21484375,26.3671875,41.015625,-4.8828125
1771539136.8654687,49.31640625,-970.21484375,28.3203125,45.8984375,13.671875
1771539136.869375,47.8515625,-970.21484375,29.78515625,39.0625,8.7890625
1771539136.8732812,44.43359375,-970.21484375,23.4375,43.9453125,10.7421875
1771539136.8771875,41.015625,-970.21484375,20.5078125,38.57421875,-7.32421875
1771539136.8810937,41.015625,-965.8203125,23.4375,27.34375,15.13671875
1771539136.884125,37.59765625,-981.4453125,24.90234375,36.62109375,3.41796875
1771539136.8880312,35.15625,-919.921875,25.390625,45.8984375,45.41015625
1771539136.8919375,43.45703125,-864.2578125,25.390625,37.109375,77.1484375
1771539136.8958437,49.31640625,-888.18359375,23.92578125,26.85546875,78.125
1771539136.89975,38.57421875,-917.48046875,20.5078125,24.90234375,70.3125
1771539136.9036562,30.2734375,-972.65625,23.4375,29.296875,19.04296875
1771539136.9075625,38.57421875,-970.21484375,22.94921875,39.55078125,34.66796875
1771539136.9114687,51.26953125,-968.75,20.5078125,28.3203125,22.94921875
1771539136.915375,51.7578125,-970.21484375,23.4375,33.69140625,53.7109375
1771539136.9192812,45.41015625,-970.21484375,22.4609375,36.1328125,26.3671875
1771539136.9231875,35.64453125,-970.703125,19.53125,19.04296875,-53.22265625
1771539136.9270937,32.71484375,-967.7734375,23.92578125,21.484375,-31.25
1771539136.928125,29.296875,-971.19140625,23.4375,29.296875,22.4609375
1771539136.9320312,26.85546875,-964.84375,16.11328125,25.390625,51.7578125
1771539136.9359374,22.4609375,-883.7890625,14.6484375,21.97265625,47.8515625
1771539136.9398437,24.4140625,-878.41796875,17.08984375,20.01953125,44.921875
1771539136.94375,39.0625,-965.8203125,19.53125,19.04296875,44.43359375
1771539136.9476562,35.64453125,-972.16796875,21.97265625,35.64453125,89.84375
1771539136.9515624,41.50390625,-967.28515625,25.390625,42.48046875,85.44921875
1771539136.9554687,40.52734375,-966.796875,23.4375,21.97265625,11.71875
1771539136.959375,26.3671875,-979.00390625,21.484375,10.7421875,23.92578125
1771539136.9632812,21.97265625,-930.6640625,25.390625,11.23046875,86.42578125
1771539136.9671874,19.53125,-856.4453125,26.85546875,10.25390625,68.84765625
1771539136.9710937,32.71484375,-925.29296875,22.4609375,19.53125,-7.8125
1771539136.973125,40.0390625,-971.6796875,20.01953125,20.01953125,-5.37109375
1771539136.9770312,39.55078125,-981.4453125,23.4375,20.99609375,-47.36328125
1771539136.9809375,34.66796875,-918.9453125,23.92578125,24.4140625,20.99609375
1771539136.9848437,30.2734375,-880.859375,20.01953125,21.97265625,111.81640625
1771539136.98875,29.78515625,-972.16796875,22.4609375,24.90234375,35.15625
1771539136.9926562,38.57421875,-973.14453125,23.92578125,27.34375,22.94921875
1771539136.9965625,32.71484375,-966.796875,23.4375,17.08984375,31.73828125
1771539137.0004687,24.4140625,-964.35546875,20.5078125,15.625,-8.7890625
1771539137.004375,29.296875,-988.28125,19.53125,17.578125,-46.38671875
1771539137.0082812,25.87890625,-884.765625,21.484375,20.01953125,67.3828125
1771539137.0121875,29.78515625,-792.48046875,23.4375,33.69140625,136.23046875
1771539137.0160937,36.62109375,-934.5703125,24.4140625,35.15625,33.203125
1771539137.019125,45.8984375,-922.36328125,22.4609375,29.78515625,34.66796875
1771539137.0230312,49.8046875,-873.53515625,20.99609375,12.6953125,59.08203125
1771539137.0269375,45.41015625,-958.984375,20.5078125,18.5546875,35.64453125
1771539137.0308437,36.62109375,-963.8671875,20.5078125,29.78515625,53.22265625
1771539137.03475,42.96875,-883.7890625,21.484375,33.203125,80.078125
1771539137.0386562,46.875,-934.5703125,20.5078125,31.73828125,38.57421875
1771539137.0425625,35.15625,-978.02734375,22.4609375,21.484375,17.578125
1771539137.0464687,29.78515625,-969.7265625,22.94921875,27.34375,43.45703125
1771539137.050375,29.78515625,-953.61328125,24.4140625,42.96875,18.5546875
1771539137.0542812,42.48046875,-870.1171875,29.78515625,31.25,8.7890625
1771539137.0581875,44.921875,-899.4140625,27.83203125,13.18359375,74.70703125
1771539137.0620937,36.1328125,-979.98046875,27.83203125,15.13671875,65.91796875
1771539137.063125,32.71484375,-920.8984375,32.2265625,26.85546875,3.41796875
1771539137.0670311,42.48046875,-820.80078125,29.78515625,32.2265625,50.78125
1771539137.0709374,39.55078125,-891.6015625,29.78515625,25.87890625,53.7109375
1771539137.0748436,29.296875,-911.62109375,30.76171875,22.4609375,81.54296875
1771539137.07875,35.64453125,-902.34375,23.92578125,32.2265625,86.9140625
1771539137.0826561,41.9921875,-978.02734375,24.90234375,39.55078125,-3.41796875
1771539137.0865624,36.62109375,-965.33203125,28.3203125,33.69140625,33.203125
1771539137.0904686,32.71484375,-974.609375,26.3671875,34.66796875,99.609375
1771539137.094375,34.66796875,-915.52734375,24.4140625,28.3203125,75.1953125
1771539137.0982811,25.87890625,-817.87109375,25.390625,32.2265625,53.22265625
1771539137.1021874,24.90234375,-902.34375,28.3203125,25.390625,42.96875
1771539137.1060936,28.3203125,-972.65625,25.87890625,5.37109375,23.4375
1771539137.108125,28.3203125,-877.9296875,26.3671875,17.08984375,42.48046875
1771539137.1120312,29.296875,-788.0859375,27.34375,28.3203125,104.4921875
1771539137.1159375,20.01953125,-904.296875,23.4375,22.4609375,80.56640625
1771539137.1198437,30.2734375,-980.95703125,25.390625,27.34375,0.9765625
1771539137.12375,34.1796875,-954.58984375,26.3671875,31.25,-34.66796875
1771539137.1276562,26.3671875,-968.26171875,27.34375,37.109375,-7.32421875
1771539137.1315625,42.96875,-972.65625,28.3203125,29.78515625,52.24609375
1771539137.1354687,44.921875,-964.84375,28.3203125,22.4609375,43.45703125
1771539137.139375,33.203125,-864.2578125,26.3671875,37.59765625,61.5234375
1771539137.1432812,42.48046875,-895.01953125,26.3671875,43.9453125,34.66796875
1771539137.1471875,44.921875,-937.98828125,26.3671875,42.96875,39.55078125
1771539137.1510937,34.66796875,-881.34765625,26.85546875,30.76171875,47.8515625
1771539137.169125,40.0390625,-904.78515625,30.2734375,33.69140625,1.953125
1771539137.1730313,40.0390625,-948.73046875,28.80859375,41.50390625,-3.41796875
1771539137.1769376,47.8515625,-930.6640625,26.85546875,53.22265625,18.06640625
1771539137.1808438,69.3359375,-927.24609375,26.85546875,61.03515625,1.953125
1771539137.18475,70.3125,-967.7734375,25.390625,61.5234375,-15.13671875
1771539137.1886563,44.43359375,-971.6796875,29.78515625,42.96875,-34.66796875
1771539137.1925626,36.1328125,-955.56640625,30.76171875,25.87890625,3.41796875
1771539137.1964688,57.6171875,-852.5390625,27.83203125,43.9453125,67.3828125
1771539137.200375,60.546875,-799.8046875,33.69140625,50.78125,68.359375
1771539137.2042813,52.24609375,-916.50390625,29.296875,35.64453125,52.734375
1771539137.2081876,42.48046875,-926.7578125,24.4140625,38.57421875,29.78515625
1771539137.2120938,49.31640625,-809.08203125,29.78515625,35.64453125,29.296875
1771539137.214125,60.546875,-847.65625,25.87890625,31.73828125,37.109375
1771539137.2180312,45.8984375,-943.84765625,25.390625,34.66796875,60.05859375
1771539137.2219374,40.52734375,-914.0625,31.73828125,31.73828125,47.36328125
1771539137.2258437,45.41015625,-836.9140625,29.78515625,36.1328125,16.6015625
1771539137.22975,56.640625,-883.7890625,27.34375,36.62109375,21.484375
1771539137.2336562,62.98828125,-965.33203125,29.296875,41.9921875,20.5078125
1771539137.2375624,48.33984375,-979.00390625,31.25,44.921875,9.765625
1771539137.2414687,42.96875,-942.87109375,29.78515625,42.96875,-11.71875
1771539137.245375,41.50390625,-913.57421875,32.2265625,36.1328125,33.69140625
1771539137.2492812,41.9921875,-977.05078125,28.3203125,30.76171875,54.6875
1771539137.2531874,32.2265625,-936.03515625,25.390625,28.80859375,44.43359375
1771539137.2570937,36.62109375,-896.97265625,30.76171875,35.15625,45.41015625
1771539137.258125,48.828125,-963.37890625,28.80859375,31.25,59.5703125
1771539137.2620313,45.41015625,-976.5625,27.34375,25.87890625,28.80859375
1771539137.2659376,41.015625,-944.3359375,26.85546875,33.69140625,5.37109375
1771539137.2698438,40.0390625,-889.16015625,23.4375,45.41015625,5.37109375
1771539137.27375,43.9453125,-920.8984375,28.3203125,42.96875,23.4375
1771539137.2776563,50.78125,-973.6328125,28.3203125,29.296875,53.22265625
1771539137.2815626,42.96875,-976.5625,21.97265625,29.296875,-17.578125
1771539137.2854688,37.109375,-936.5234375,29.78515625,34.1796875,-9.765625
1771539137.289375,44.921875,-934.5703125,31.25,35.15625,41.9921875
1771539137.2932813,42.48046875,-964.35546875,21.97265625,28.80859375,73.73046875
1771539137.2971876,34.1796875,-854.00390625,26.85546875,37.109375,103.02734375
1771539137.3010938,29.296875,-826.66015625,28.80859375,43.9453125,73.73046875
1771539137.304125,30.2734375,-893.06640625,23.92578125,38.0859375,68.359375
1771539137.3080313,40.0390625,-875.9765625,26.85546875,22.94921875,91.30859375
1771539137.3119376,61.5234375,-944.3359375,24.90234375,20.5078125,16.11328125
1771539137.3158438,56.15234375,-968.26171875,24.90234375,31.25,21.484375
1771539137.31975,31.73828125,-948.73046875,26.85546875,35.15625,70.3125
1771539137.3236563,40.52734375,-965.8203125,26.85546875,31.25,74.70703125
1771539137.3275626,52.24609375,-970.703125,26.3671875,29.296875,57.6171875
1771539137.3314688,35.64453125,-967.28515625,28.3203125,27.83203125,9.765625
1771539137.335375,17.578125,-976.07421875,31.25,31.73828125,-24.90234375
1771539137.3392813,16.11328125,-938.96484375,28.3203125,16.6015625,-37.109375
1771539137.3431876,31.25,-872.0703125,24.90234375,10.7421875,1.46484375
1771539137.3470938,26.85546875,-939.94140625,26.3671875,19.53125,43.9453125
1771539137.349125,9.27734375,-933.59375,26.3671875,13.18359375,31.25
1771539137.3530312,21.484375,-830.56640625,26.3671875,20.01953125,10.25390625
1771539137.3569374,32.71484375,-818.359375,25.87890625,21.97265625,11.71875
1771539137.3608437,37.59765625,-875.0,26.3671875,17.578125,98.14453125
1771539137.36475,26.85546875,-958.49609375,26.85546875,22.4609375,91.30859375
1771539137.3686562,14.6484375,-971.6796875,24.90234375,29.296875,33.203125
1771539137.3725624,23.92578125,-967.7734375,25.390625,19.04296875,16.6015625
1771539137.3764687,42.48046875,-963.37890625,28.80859375,23.92578125,13.18359375
1771539137.380375,60.546875,-986.81640625,33.203125,53.22265625,33.69140625
1771539137.3842812,45.8984375,-895.01953125,33.69140625,48.828125,35.64453125
1771539137.3881874,3.90625,-773.4375,27.83203125,-5.859375,29.296875
1771539137.3920937,0.48828125,-912.109375,23.92578125,-25.87890625,3.41796875
1771539137.393125,-4.39453125,-929.6875,25.87890625,-21.484375,37.109375
1771539137.3970313,-33.203125,-830.56640625,24.90234375,-47.36328125,58.10546875
1771539137.4009376,-22.4609375,-866.69921875,18.5546875,-50.29296875,40.52734375
1771539137.4048438,-33.203125,-957.51953125,23.92578125,-60.546875,13.18359375
1771539137.40875,-59.08203125,-974.609375,28.3203125,-73.2421875,-19.04296875
1771539137.4126563,-41.50390625,-966.796875,22.94921875,-44.43359375,10.7421875
1771539137.4165626,-26.3671875,-968.75,26.85546875,-25.390625,29.296875
1771539137.4204688,-16.11328125,-970.21484375,28.80859375,-29.78515625,9.765625
1771539137.424375,-11.71875,-970.21484375,25.87890625,-37.59765625,17.08984375
1771539137.4282813,-17.578125,-854.98046875,28.80859375,-36.62109375,87.40234375
1771539137.4321876,-9.27734375,-865.234375,28.3203125,-17.08984375,72.265625
1771539137.4360938,6.34765625,-947.265625,30.2734375,-11.71875,54.19921875
1771539137.439125,9.27734375,-899.90234375,32.2265625,-21.97265625,47.36328125
1771539137.4430313,1.953125,-943.359375,28.80859375,-19.53125,-35.64453125
1771539137.4469376,-7.8125,-967.7734375,30.2734375,-10.25390625,13.18359375
1771539137.4508438,-8.7890625,-966.796875,31.25,-13.18359375,35.64453125
1771539137.45475,5.859375,-916.50390625,27.83203125,-21.484375,60.546875
1771539137.4586563,9.27734375,-927.734375,26.85546875,-11.23046875,91.30859375
1771539137.4625626,3.41796875,-991.69921875,31.73828125,5.37109375,23.4375
1771539137.4664688,11.23046875,-925.29296875,31.25,9.765625,77.1484375
1771539137.470375,11.71875,-881.8359375,29.78515625,-12.20703125,104.4921875
1771539137.4742813,3.90625,-962.890625,36.1328125,-2.9296875,43.45703125
1771539137.4781876,7.8125,-979.98046875,34.66796875,14.16015625,37.59765625
1771539137.4820938,14.16015625,-923.828125,32.71484375,9.27734375,8.7890625
1771539137.483125,18.5546875,-833.984375,33.203125,8.30078125,31.73828125
1771539137.4870312,31.25,-845.703125,26.85546875,15.13671875,62.01171875
1771539137.4909375,30.76171875,-957.03125,26.3671875,27.83203125,28.3203125
1771539137.4948437,25.390625,-875.9765625,31.25,36.62109375,41.015625
1771539137.49875,31.25,-813.4765625,28.80859375,18.5546875,41.015625
1771539137.5026562,34.1796875,-939.94140625,25.87890625,-1.46484375,56.15234375
1771539137.5065625,28.3203125,-981.93359375,26.85546875,13.671875,15.13671875
1771539137.5104687,22.4609375,-938.4765625,29.78515625,26.3671875,-38.57421875
1771539137.514375,27.34375,-787.109375,32.2265625,21.97265625,49.8046875
1771539137.5182812,32.71484375,-824.21875,27.83203125,19.53125,75.68359375
1771539137.5221875,23.92578125,-974.12109375,28.3203125,17.08984375,14.16015625
1771539137.5260937,17.578125,-973.6328125,29.296875,9.765625,-4.39453125
1771539137.529125,37.59765625,-892.08984375,30.76171875,22.94921875,-2.44140625
1771539137.5330312,39.55078125,-895.99609375,30.2734375,17.578125,10.7421875
1771539137.5369375,20.5078125,-948.73046875,28.80859375,12.20703125,32.71484375
1771539137.5408437,23.92578125,-859.86328125,31.25,20.01953125,40.52734375
1771539137.54475,30.76171875,-807.12890625,31.73828125,20.99609375,37.59765625
1771539137.5486562,31.73828125,-899.4140625,31.73828125,18.5546875,37.109375
1771539137.5525625,23.92578125,-973.14453125,29.296875,6.34765625,11.23046875
1771539137.5564687,25.87890625,-880.859375,30.2734375,4.39453125,35.64453125
1771539137.560375,30.2734375,-777.83203125,33.69140625,19.04296875,50.78125
1771539137.5642812,24.4140625,-839.35546875,31.73828125,16.6015625,55.6640625
1771539137.5681875,33.203125,-877.44140625,35.15625,20.99609375,63.4765625
1771539137.5720937,31.25,-825.1953125,34.1796875,25.87890625,42.48046875
1771539137.588125,25.390625,-806.640625,29.78515625,30.76171875,43.9453125
1771539137.5920312,38.0859375,-890.13671875,33.69140625,27.83203125,53.22265625
1771539137.5959375,31.25,-988.76953125,31.25,8.7890625,34.66796875
1771539137.5998437,19.53125,-889.16015625,24.4140625,11.23046875,44.921875
1771539137.60375,24.90234375,-850.5859375,25.390625,22.4609375,39.0625
1771539137.6076562,33.69140625,-951.171875,30.2734375,27.83203125,43.9453125
1771539137.6115625,34.1796875,-983.88671875,27.34375,20.99609375,53.7109375
1771539137.6154687,27.34375,-875.0,26.85546875,26.3671875,55.17578125
1771539137.619375,23.92578125,-855.46875,27.83203125,36.1328125,65.91796875
1771539137.6232812,33.203125,-969.23828125,25.87890625,35.64453125,73.73046875
1771539137.6271875,42.96875,-908.69140625,24.4140625,24.4140625,47.36328125
1771539137.6310937,41.50390625,-840.33203125,28.3203125,20.01953125,-0.9765625
1771539137.633125,38.0859375,-914.55078125,29.296875,32.71484375,5.37109375
1771539137.6370313,40.52734375,-899.4140625,24.4140625,49.8046875,40.52734375
1771539137.6409376,37.109375,-778.3203125,25.87890625,37.109375,30.2734375
1771539137.6448438,41.015625,-846.6796875,27.83203125,17.578125,17.08984375
1771539137.64875,51.7578125,-963.37890625,32.71484375,34.1796875,20.01953125
1771539137.6526563,47.8515625,-981.4453125,33.69140625,46.38671875,32.2265625
1771539137.6565626,37.59765625,-922.8515625,32.71484375,48.828125,48.33984375
1771539137.6604688,48.33984375,-807.12890625,31.25,26.3671875,38.57421875
1771539137.664375,52.734375,-887.20703125,28.3203125,20.99609375,46.38671875
1771539137.6682813,41.9921875,-967.28515625,27.83203125,31.25,37.109375
1771539137.6721876,41.50390625,-775.390625,25.390625,32.2265625,37.109375
1771539137.6760938,48.33984375,-682.12890625,28.3203125,38.57421875,88.8671875
1771539137.678125,46.875,-815.91796875,27.34375,35.64453125,93.75
1771539137.6820312,40.52734375,-848.14453125,26.3671875,25.390625,39.55078125
1771539137.6859374,37.109375,-752.9296875,29.296875,25.390625,18.06640625
1771539137.6898437,31.25,-798.33984375,23.92578125,15.13671875,2.9296875
1771539137.69375,46.38671875,-960.44921875,24.90234375,8.30078125,-57.12890625
1771539137.6976562,49.31640625,-975.09765625,27.83203125,30.76171875,27.83203125
1771539137.7015624,27.34375,-964.84375,27.34375,42.96875,62.5
1771539137.7054687,36.1328125,-968.75,27.34375,31.25,16.11328125
1771539137.709375,45.41015625,-969.23828125,27.34375,16.6015625,22.4609375
1771539137.7132812,38.57421875,-974.12109375,29.78515625,10.25390625,-7.32421875
1771539137.7171874,28.3203125,-814.453125,29.78515625,17.578125,26.85546875
1771539137.7210937,34.1796875,-820.80078125,28.3203125,16.11328125,19.53125
1771539137.723125,41.015625,-902.83203125,28.80859375,9.765625,19.04296875
1771539137.7270312,32.2265625,-783.203125,29.78515625,17.08984375,58.10546875
1771539137.7309375,36.1328125,-755.859375,29.296875,20.5078125,35.15625
1771539137.7348437,35.64453125,-858.3984375,30.2734375,33.69140625,3.90625
1771539137.73875,28.80859375,-919.43359375,29.78515625,26.3671875,12.20703125
1771539137.7426562,34.66796875,-941.89453125,28.80859375,22.94921875,7.8125
1771539137.7465625,31.25,-934.08203125,32.2265625,30.2734375,13.671875
1771539137.7504687,32.2265625,-893.5546875,33.69140625,31.25,73.2421875
1771539137.754375,31.25,-978.515625,31.73828125,9.27734375,44.921875
1771539137.7582812,29.296875,-961.9140625,31.73828125,11.23046875,2.9296875
1771539137.7621875,31.25,-846.19140625,31.73828125,32.71484375,20.99609375
1771539137.7660937,28.3203125,-902.83203125,31.25,35.15625,58.59375
1771539137.768125,36.62109375,-879.8828125,33.203125,38.0859375,71.77734375
