timestamps,TP9,AF7,AF8,TP10,Right AUX
1771544915.884125,61.5234375,97.16796875,12.6953125,45.41015625,33.69140625
1771544915.8880312,68.84765625,259.27734375,16.11328125,44.43359375,32.71484375
1771544915.8919375,75.68359375,290.52734375,13.671875,55.6640625,43.45703125
1771544915.8958437,73.2421875,177.734375,14.6484375,65.4296875,124.51171875
1771544915.89975,59.5703125,66.89453125,15.625,50.29296875,92.7734375
1771544915.9036562,66.40625,82.03125,13.671875,42.96875,22.4609375
1771544915.9075625,83.984375,62.5,14.6484375,67.87109375,37.59765625
1771544915.9114687,65.91796875,0.48828125,17.578125,62.5,41.9921875
1771544915.915375,52.734375,-304.6875,18.5546875,47.8515625,51.7578125
1771544915.9192812,62.01171875,-185.546875,17.08984375,43.9453125,48.33984375
1771544915.9231875,67.87109375,311.5234375,15.625,53.7109375,27.83203125
1771544915.9270937,59.5703125,177.734375,13.671875,65.4296875,48.828125
1771544915.930125,49.31640625,9.765625,9.765625,35.64453125,27.83203125
1771544915.9340312,46.38671875,178.7109375,10.25390625,13.671875,-10.7421875
1771544915.9379375,37.109375,272.94921875,13.671875,24.90234375,-17.578125
1771544915.9418437,26.3671875,92.7734375,15.13671875,38.57421875,7.8125
1771544915.94575,16.6015625,12.6953125,16.11328125,39.55078125,63.4765625
1771544915.9496562,16.11328125,11.71875,14.6484375,34.66796875,66.89453125
1771544915.9535625,17.08984375,164.0625,17.578125,47.36328125,57.12890625
1771544915.9574687,21.484375,33.69140625,19.53125,55.6640625,58.10546875
1771544915.961375,25.87890625,-446.2890625,20.01953125,62.98828125,20.99609375
1771544915.9652812,25.87890625,-76.171875,32.71484375,71.77734375,54.6875
1771544915.9691875,6.8359375,365.234375,28.3203125,69.82421875,71.2890625
1771544915.9730937,-37.59765625,208.984375,10.25390625,47.36328125,0.0
1771544915.975125,-39.55078125,108.88671875,15.625,32.71484375,25.390625
1771544915.9790313,-31.73828125,182.6171875,19.53125,35.15625,60.546875
1771544915.9829376,-44.43359375,244.140625,12.20703125,28.80859375,43.9453125
1771544915.9868438,-57.12890625,226.5625,12.6953125,28.3203125,49.31640625
1771544915.99075,-49.31640625,184.08203125,14.16015625,47.8515625,74.21875
1771544915.9946563,-55.6640625,8.7890625,15.13671875,48.828125,23.92578125
1771544915.9985626,-82.51953125,5.37109375,22.4609375,29.78515625,29.78515625
1771544916.0024688,-82.03125,-69.3359375,20.5078125,30.2734375,62.5
1771544916.006375,-72.75390625,-14.16015625,17.578125,41.9921875,68.359375
1771544916.0102813,-68.359375,227.5390625,19.04296875,39.55078125,58.10546875
1771544916.0141876,-58.10546875,80.56640625,20.01953125,19.53125,26.3671875
1771544916.0180938,-61.03515625,62.5,20.5078125,23.92578125,17.578125
1771544916.020125,-76.66015625,263.18359375,21.484375,52.24609375,20.5078125
1771544916.0240312,-84.47265625,235.83984375,20.5078125,53.22265625,38.57421875
1771544916.0279374,-106.93359375,106.4453125,20.5078125,33.203125,50.78125
1771544916.0318437,-108.88671875,234.375,25.390625,55.17578125,73.73046875
1771544916.03575,-103.515625,312.5,23.4375,57.12890625,28.3203125
1771544916.0396562,-95.21484375,98.6328125,20.01953125,37.59765625,0.48828125
1771544916.0435624,-94.23828125,-166.015625,23.92578125,24.4140625,39.0625
1771544916.0474687,-103.02734375,-128.90625,23.92578125,14.6484375,35.64453125
1771544916.051375,-97.65625,259.27734375,23.4375,32.2265625,-39.55078125
1771544916.0552812,-94.23828125,329.1015625,25.390625,41.9921875,-17.08984375
1771544916.0591874,-95.21484375,179.6875,28.3203125,30.76171875,35.15625
1771544916.0630937,-91.30859375,256.34765625,27.34375,25.390625,19.04296875
1771544916.066125,-86.42578125,360.3515625,29.296875,38.57421875,6.8359375
1771544916.0700312,-97.65625,271.484375,29.78515625,51.26953125,16.6015625
1771544916.0739374,-94.7265625,94.23828125,25.87890625,46.875,48.33984375
1771544916.0778437,-94.7265625,178.22265625,27.83203125,34.66796875,63.4765625
1771544916.08175,-91.30859375,457.51953125,30.76171875,41.50390625,61.03515625
1771544916.0856562,-74.21875,331.54296875,29.296875,56.640625,91.30859375
1771544916.0895624,-54.19921875,-108.88671875,30.76171875,61.03515625,117.1875
1771544916.0934687,-68.84765625,-20.5078125,30.2734375,51.7578125,97.65625
1771544916.097375,-77.63671875,434.08203125,28.80859375,56.15234375,42.48046875
1771544916.1012812,-64.453125,365.234375,32.2265625,55.17578125,22.4609375
1771544916.1051874,-69.82421875,235.83984375,31.73828125,38.57421875,89.35546875
1771544916.1090937,-70.80078125,284.1796875,30.76171875,43.9453125,87.890625
1771544916.125125,-61.5234375,370.60546875,30.2734375,47.8515625,35.15625
1771544916.1290312,-49.31640625,357.91015625,29.296875,55.6640625,36.62109375
1771544916.1329374,-44.43359375,228.02734375,30.2734375,62.98828125,51.26953125
1771544916.1368437,-49.8046875,141.6015625,33.203125,48.33984375,62.5
1771544916.14075,-51.7578125,241.2109375,27.34375,22.94921875,15.625
1771544916.1446562,-56.15234375,178.22265625,21.484375,32.71484375,-7.32421875
1771544916.1485624,-41.9921875,-179.19921875,28.80859375,30.2734375,34.1796875
1771544916.1524687,-31.73828125,36.1328125,30.2734375,18.5546875,47.36328125
1771544916.156375,-40.0390625,337.40234375,27.34375,17.578125,4.39453125
1771544916.1602812,-37.109375,349.609375,28.3203125,28.3203125,-38.0859375
1771544916.1641874,-46.38671875,289.55078125,31.25,45.8984375,-101.07421875
1771544916.1680937,-49.31640625,279.78515625,34.1796875,39.0625,-47.8515625
1771544916.170125,-39.55078125,270.01953125,32.71484375,23.92578125,16.6015625
1771544916.1740313,-33.69140625,272.4609375,30.2734375,21.484375,-20.5078125
1771544916.1779375,-32.71484375,407.71484375,31.73828125,23.92578125,35.15625
1771544916.1818438,-26.3671875,362.3046875,30.76171875,37.59765625,34.1796875
1771544916.18575,-15.13671875,226.07421875,26.3671875,39.0625,32.2265625
1771544916.1896563,-19.04296875,213.8671875,31.73828125,28.3203125,77.63671875
1771544916.1935625,-20.5078125,249.0234375,33.203125,51.26953125,61.5234375
1771544916.1974688,-9.765625,265.625,27.83203125,56.15234375,53.7109375
1771544916.201375,-6.8359375,223.6328125,32.2265625,46.38671875,28.3203125
1771544916.2052813,-19.04296875,-112.3046875,31.73828125,28.3203125,8.30078125
1771544916.2091875,-14.6484375,29.296875,31.25,14.16015625,-7.32421875
1771544916.2130938,-7.32421875,427.24609375,30.76171875,28.3203125,-44.43359375
1771544916.214125,-8.7890625,256.34765625,27.34375,41.9921875,-38.0859375
1771544916.2180312,-4.8828125,212.890625,30.2734375,47.36328125,-16.6015625
1771544916.2219374,-12.20703125,482.91015625,30.76171875,40.0390625,26.3671875
1771544916.2258437,-17.578125,521.97265625,28.3203125,39.0625,38.0859375
1771544916.22975,-2.9296875,262.6953125,26.3671875,31.25,12.20703125
1771544916.2336562,6.8359375,54.6875,27.83203125,5.37109375,-23.4375
1771544916.2375624,2.44140625,201.66015625,32.71484375,1.953125,-2.44140625
1771544916.2414687,-5.37109375,350.5859375,32.2265625,24.4140625,33.203125
1771544916.245375,1.953125,86.42578125,33.203125,32.71484375,39.55078125
1771544916.2492812,17.578125,-170.41015625,34.66796875,24.4140625,58.59375
1771544916.2531874,9.765625,260.7421875,29.296875,6.34765625,51.7578125
1771544916.2570937,-0.9765625,625.0,32.2265625,35.64453125,72.265625
1771544916.260125,10.25390625,420.41015625,31.25,52.734375,56.15234375
1771544916.2640312,34.66796875,305.6640625,27.34375,28.3203125,34.1796875
1771544916.2679374,29.78515625,418.45703125,29.296875,16.11328125,37.109375
1771544916.2718437,7.8125,512.6953125,28.80859375,26.85546875,56.640625
1771544916.27575,7.32421875,369.140625,29.78515625,38.0859375,60.05859375
1771544916.2796562,24.4140625,129.8828125,29.78515625,40.0390625,24.4140625
1771544916.2835624,32.71484375,72.75390625,27.83203125,26.3671875,-11.23046875
1771544916.2874687,20.99609375,238.76953125,27.34375,28.80859375,-23.4375
1771544916.291375,36.1328125,104.4921875,32.2265625,55.6640625,28.3203125
1771544916.2952812,44.43359375,132.8125,29.296875,64.453125,98.14453125
1771544916.2991874,29.296875,335.44921875,28.80859375,30.2734375,80.078125
1771544916.3030937,34.1796875,275.390625,34.66796875,25.87890625,21.484375
1771544916.305125,32.71484375,294.43359375,29.78515625,45.41015625,30.76171875
1771544916.3090312,29.296875,401.3671875,29.296875,32.2265625,56.640625
1771544916.3129375,40.0390625,293.9453125,29.78515625,6.34765625,-11.71875
1771544916.3168437,31.73828125,234.86328125,26.3671875,1.46484375,-21.97265625
1771544916.32075,35.64453125,368.1640625,26.3671875,32.2265625,24.90234375
1771544916.3246562,46.38671875,210.44921875,23.92578125,49.31640625,5.859375
1771544916.3285625,34.1796875,122.55859375,22.4609375,38.57421875,9.27734375
1771544916.3324687,34.66796875,77.1484375,23.92578125,17.578125,62.5
1771544916.336375,35.64453125,62.5,30.2734375,11.71875,112.79296875
1771544916.3402812,27.83203125,313.4765625,30.76171875,27.83203125,33.69140625
1771544916.3441875,18.06640625,267.578125,28.3203125,30.2734375,-0.9765625
1771544916.3480937,28.3203125,184.08203125,29.78515625,20.01953125,34.66796875
1771544916.350125,42.96875,207.51953125,32.71484375,23.4375,17.08984375
1771544916.3540313,37.59765625,327.63671875,31.25,45.8984375,56.15234375
1771544916.3579376,39.55078125,235.3515625,32.2265625,60.546875,28.80859375
1771544916.3618438,29.296875,-40.0390625,36.1328125,40.0390625,-1.46484375
1771544916.36575,24.90234375,154.296875,33.69140625,21.484375,47.36328125
1771544916.3696563,40.0390625,279.296875,32.2265625,36.62109375,60.05859375
1771544916.3735626,45.8984375,18.5546875,30.76171875,49.31640625,12.20703125
1771544916.3774688,40.52734375,-263.18359375,32.2265625,35.15625,49.8046875
1771544916.381375,27.34375,-27.34375,35.15625,18.5546875,95.21484375
1771544916.3852813,23.92578125,405.2734375,31.25,30.76171875,36.1328125
1771544916.3891876,32.2265625,227.05078125,32.2265625,41.9921875,-3.41796875
1771544916.3930938,29.296875,62.5,36.1328125,29.78515625,18.5546875
1771544916.395125,17.08984375,168.9453125,35.15625,19.04296875,3.41796875
1771544916.3990312,26.3671875,342.7734375,36.62109375,41.015625,9.765625
1771544916.4029374,40.52734375,224.12109375,39.0625,57.6171875,44.921875
1771544916.4068437,44.921875,-0.9765625,34.1796875,48.33984375,51.7578125
1771544916.41075,44.43359375,60.546875,32.71484375,33.203125,8.30078125
1771544916.4146562,44.43359375,123.53515625,34.1796875,38.0859375,-41.9921875
1771544916.4185624,39.0625,-31.25,34.1796875,56.15234375,8.7890625
1771544916.4224687,30.76171875,-124.51171875,34.1796875,53.22265625,27.83203125
1771544916.426375,20.01953125,102.5390625,31.73828125,45.8984375,-3.41796875
1771544916.4302812,19.53125,327.63671875,27.83203125,26.85546875,-0.9765625
1771544916.4341874,17.578125,177.24609375,32.2265625,13.18359375,55.17578125
1771544916.4380937,21.484375,-30.2734375,33.203125,23.4375,68.84765625
1771544916.440125,24.90234375,171.875,30.2734375,39.0625,25.390625
1771544916.4440312,25.390625,285.15625,29.78515625,1.46484375,52.734375
1771544916.4479375,23.4375,360.3515625,30.76171875,-7.8125,103.515625
1771544916.4518437,6.8359375,360.3515625,32.71484375,27.34375,101.5625
1771544916.45575,14.6484375,269.04296875,26.85546875,23.4375,61.03515625
1771544916.4596562,27.83203125,104.4921875,31.73828125,9.27734375,63.96484375
1771544916.4635625,23.92578125,69.3359375,34.1796875,16.6015625,47.36328125
1771544916.4674687,29.296875,260.7421875,29.296875,38.57421875,30.76171875
1771544916.471375,38.0859375,332.03125,30.76171875,43.45703125,53.7109375
1771544916.4752812,35.64453125,201.171875,31.25,31.25,78.125
1771544916.4791875,25.390625,20.01953125,34.1796875,11.23046875,57.12890625
1771544916.4830937,26.85546875,272.94921875,31.25,4.39453125,67.3828125
1771544916.500125,26.3671875,500.9765625,30.2734375,25.390625,101.5625
1771544916.5040312,25.390625,256.34765625,33.203125,23.4375,102.5390625
1771544916.5079374,12.6953125,191.40625,34.1796875,17.08984375,43.45703125
1771544916.5118437,19.04296875,461.9140625,32.71484375,38.57421875,-43.9453125
1771544916.51575,47.8515625,502.9296875,32.71484375,47.36328125,-40.0390625
1771544916.5196562,52.734375,144.53125,35.15625,42.96875,0.0
1771544916.5235624,42.96875,-9.765625,30.76171875,17.578125,-6.8359375
1771544916.5274687,42.48046875,412.59765625,29.296875,16.11328125,-22.4609375
1771544916.531375,31.73828125,602.5390625,30.2734375,39.55078125,27.34375
1771544916.5352812,30.76171875,319.3359375,32.2265625,45.41015625,5.37109375
1771544916.5391874,35.15625,309.5703125,29.78515625,28.80859375,8.7890625
1771544916.5430937,38.57421875,732.91015625,30.2734375,20.99609375,86.9140625
1771544916.545125,51.7578125,745.60546875,33.203125,40.52734375,62.01171875
1771544916.5490313,47.8515625,530.76171875,31.25,52.734375,38.0859375
1771544916.5529375,22.4609375,506.34765625,32.71484375,44.921875,39.55078125
1771544916.5568438,15.625,711.9140625,34.1796875,37.59765625,68.84765625
1771544916.56075,30.76171875,780.76171875,34.1796875,59.08203125,125.48828125
1771544916.5646563,30.76171875,446.2890625,32.71484375,64.94140625,48.33984375
1771544916.5685625,28.3203125,257.32421875,31.73828125,45.41015625,33.69140625
1771544916.5724688,25.390625,452.1484375,33.203125,35.64453125,38.57421875
1771544916.576375,36.62109375,611.81640625,29.296875,38.57421875,-5.859375
1771544916.5802813,39.55078125,211.42578125,25.87890625,38.57421875,27.34375
1771544916.5841875,46.38671875,60.546875,27.34375,22.4609375,-9.27734375
1771544916.5880938,35.15625,470.21484375,27.34375,5.859375,-9.27734375
1771544916.590125,13.18359375,478.515625,32.2265625,29.296875,9.765625
1771544916.5940313,34.66796875,283.203125,32.2265625,40.52734375,28.80859375
1771544916.5979376,37.59765625,323.73046875,27.83203125,25.87890625,71.77734375
1771544916.6018438,29.296875,283.69140625,27.83203125,14.16015625,38.57421875
1771544916.60575,31.25,239.74609375,28.80859375,31.25,33.69140625
1771544916.6096563,35.64453125,55.17578125,32.71484375,51.7578125,30.2734375
1771544916.6135626,49.8046875,-173.828125,35.15625,47.36328125,8.30078125
1771544916.6174688,52.734375,-79.1015625,31.73828125,35.15625,57.6171875
1771544916.621375,44.43359375,-258.7890625,29.296875,28.3203125,39.0625
1771544916.6252813,46.875,-443.84765625,30.2734375,42.48046875,77.1484375
1771544916.6291876,45.41015625,-255.37109375,27.83203125,51.7578125,75.68359375
1771544916.6330938,37.59765625,-338.37890625,29.78515625,40.0390625,59.5703125
1771544916.635125,41.9921875,-504.39453125,26.85546875,30.2734375,39.0625
1771544916.6390312,60.05859375,-445.80078125,24.4140625,30.2734375,-2.44140625
1771544916.6429374,50.29296875,-456.0546875,24.90234375,40.52734375,-22.94921875
1771544916.6468437,50.29296875,-628.41796875,25.87890625,44.43359375,27.83203125
1771544916.65075,67.87109375,-787.109375,29.296875,29.296875,77.1484375
1771544916.6546562,55.17578125,-744.62890625,24.90234375,27.34375,67.87109375
1771544916.6585624,44.43359375,-764.6484375,24.90234375,43.9453125,26.85546875
1771544916.6624687,43.45703125,-887.20703125,25.87890625,60.05859375,-23.4375
1771544916.666375,38.0859375,-979.4921875,25.390625,33.203125,-2.9296875
1771544916.6702812,38.57421875,-825.1953125,27.83203125,3.90625,19.04296875
1771544916.6741874,51.26953125,-558.59375,29.78515625,30.76171875,53.7109375
1771544916.6780937,54.19921875,-760.25390625,27.34375,34.66796875,53.22265625
1771544916.681125,60.05859375,-951.171875,28.3203125,29.78515625,20.01953125
1771544916.6850312,61.03515625,-721.6796875,34.66796875,22.4609375,46.38671875
1771544916.6889374,66.89453125,-662.59765625,30.2734375,37.109375,36.1328125
1771544916.6928437,63.96484375,-873.53515625,28.3203125,58.59375,5.859375
1771544916.69675,45.8984375,-963.37890625,30.76171875,41.015625,-8.7890625
1771544916.7006562,56.640625,-880.37109375,29.296875,16.6015625,62.01171875
1771544916.7045624,62.01171875,-633.7890625,25.87890625,20.01953125,126.46484375
1771544916.7084687,57.6171875,-735.3515625,20.01953125,30.76171875,69.3359375
1771544916.712375,65.4296875,-951.66015625,21.97265625,28.3203125,32.2265625
1771544916.7162812,54.19921875,-682.12890625,24.4140625,18.5546875,64.453125
1771544916.7201874,56.640625,-443.84765625,27.83203125,20.99609375,69.3359375
1771544916.7240937,61.03515625,-505.37109375,28.3203125,45.41015625,72.75390625
1771544916.725125,49.8046875,-626.46484375,26.3671875,55.6640625,72.75390625
1771544916.7290313,60.546875,-617.67578125,30.76171875,44.43359375,39.0625
1771544916.7329376,58.10546875,-565.91796875,32.2265625,23.4375,-10.25390625
1771544916.7368438,42.48046875,-546.875,32.2265625,36.62109375,6.8359375
1771544916.74075,46.38671875,-652.83203125,30.76171875,51.7578125,-1.953125
1771544916.7446563,50.78125,-814.94140625,28.80859375,30.2734375,1.46484375
1771544916.7485626,43.9453125,-750.48828125,26.85546875,16.6015625,19.04296875
1771544916.7524688,56.640625,-830.56640625,26.3671875,22.4609375,60.05859375
1771544916.756375,61.03515625,-853.515625,26.85546875,48.33984375,97.16796875
1771544916.7602813,57.12890625,-546.875,26.3671875,41.9921875,53.22265625
1771544916.7641876,58.10546875,-513.18359375,25.390625,3.41796875,42.48046875
1771544916.7680938,49.31640625,-428.22265625,30.2734375,7.32421875,65.4296875
1771544916.770125,53.22265625,-328.61328125,31.25,21.484375,80.56640625
1771544916.7740312,54.6875,-476.5625,26.85546875,17.08984375,52.24609375
1771544916.7779374,44.921875,-632.32421875,30.2734375,7.32421875,48.828125
1771544916.7818437,53.22265625,-540.0390625,28.3203125,7.32421875,39.55078125
1771544916.78575,63.4765625,-391.6015625,29.296875,34.66796875,57.12890625
1771544916.7896562,53.7109375,-593.75,29.78515625,38.0859375,76.171875
1771544916.7935624,49.8046875,-896.484375,27.83203125,15.625,42.96875
1771544916.7974687,47.36328125,-852.05078125,30.2734375,23.4375,46.38671875
1771544916.801375,52.734375,-516.11328125,30.76171875,42.96875,18.06640625
1771544916.8052812,66.89453125,-428.22265625,32.2265625,56.15234375,-19.04296875
1771544916.8091874,62.01171875,-759.27734375,32.71484375,50.78125,15.13671875
1771544916.8130937,50.78125,-807.6171875,31.73828125,25.390625,19.53125
1771544916.814125,59.08203125,-330.078125,35.15625,26.3671875,27.34375
1771544916.8180313,79.1015625,-331.54296875,37.59765625,37.59765625,25.390625
1771544916.8219376,65.4296875,-571.2890625,35.64453125,28.3203125,20.99609375
1771544916.8258438,58.10546875,-539.55078125,33.69140625,16.6015625,-14.16015625
1771544916.82975,71.77734375,-327.1484375,32.2265625,25.390625,-10.25390625
1771544916.8336563,65.4296875,-406.73828125,30.76171875,34.1796875,43.45703125
1771544916.8375626,59.08203125,-849.609375,30.76171875,35.64453125,19.53125
1771544916.8414688,72.75390625,-788.0859375,27.34375,35.15625,-6.34765625
1771544916.845375,91.30859375,-267.578125,29.296875,27.83203125,8.30078125
1771544916.8492813,83.984375,-314.453125,33.203125,37.59765625,2.9296875
1771544916.8531876,64.453125,-590.8203125,37.109375,57.12890625,28.80859375
1771544916.8570938,62.5,-507.32421875,38.0859375,33.69140625,47.36328125
1771544916.875125,71.2890625,-239.2578125,37.59765625,20.99609375,57.6171875
1771544916.8790312,75.1953125,-226.5625,36.1328125,33.69140625,51.26953125
1771544916.8829374,77.63671875,-411.1328125,39.0625,45.41015625,11.71875
1771544916.8868437,90.8203125,-388.671875,40.0390625,48.33984375,40.52734375
1771544916.89075,98.14453125,-246.58203125,32.71484375,40.0390625,59.5703125
1771544916.8946562,91.796875,-415.0390625,27.34375,50.78125,32.2265625
1771544916.8985624,75.1953125,-697.265625,27.34375,50.29296875,34.1796875
1771544916.9024687,71.77734375,-460.9375,37.59765625,40.0390625,55.17578125
1771544916.906375,72.75390625,-274.90234375,37.59765625,25.390625,32.71484375
1771544916.9102812,72.75390625,-170.41015625,30.2734375,18.5546875,82.51953125
1771544916.9141874,71.77734375,-163.0859375,37.109375,31.25,70.80078125
1771544916.9180937,67.3828125,-270.01953125,39.0625,40.52734375,3.41796875
1771544916.920125,53.7109375,-408.69140625,34.66796875,26.3671875,27.34375
1771544916.9240313,51.26953125,-443.359375,35.64453125,1.46484375,29.296875
1771544916.9279375,59.5703125,-259.765625,35.15625,18.5546875,21.484375
1771544916.9318438,66.89453125,-180.6640625,33.203125,45.8984375,54.19921875
1771544916.93575,53.22265625,-309.5703125,32.71484375,27.34375,51.7578125
1771544916.9396563,51.7578125,-380.859375,32.71484375,19.53125,25.87890625
1771544916.9435625,57.6171875,-325.68359375,31.25,35.15625,50.29296875
1771544916.9474688,54.6875,-266.6015625,31.25,38.57421875,84.47265625
1771544916.951375,55.17578125,-369.62890625,32.2265625,33.69140625,20.01953125
1771544916.9552813,51.26953125,-687.01171875,30.76171875,14.16015625,-20.5078125
1771544916.9591875,61.5234375,-396.484375,29.78515625,25.390625,30.2734375
1771544916.9630938,52.734375,-51.7578125,31.73828125,39.0625,44.43359375
1771544916.966125,60.05859375,-347.65625,33.203125,33.69140625,-20.01953125
1771544916.9700313,54.19921875,-384.27734375,33.69140625,23.92578125,-13.18359375
1771544916.9739375,30.76171875,-185.05859375,29.296875,28.80859375,23.4375
1771544916.9778438,20.99609375,-125.48828125,26.85546875,48.828125,44.43359375
1771544916.98175,27.83203125,-310.05859375,32.2265625,44.43359375,68.84765625
1771544916.9856563,37.59765625,-560.05859375,33.203125,24.4140625,48.828125
1771544916.9895625,30.2734375,-259.765625,32.71484375,20.99609375,60.05859375
1771544916.9934688,37.109375,83.49609375,31.73828125,43.9453125,80.56640625
1771544916.997375,29.296875,-268.5546875,34.66796875,56.15234375,58.59375
1771544917.0012813,24.90234375,-596.19140625,33.69140625,39.0625,63.96484375
1771544917.0051875,22.94921875,-164.0625,30.76171875,33.69140625,33.203125
1771544917.0090938,8.30078125,92.7734375,35.15625,51.7578125,22.94921875
1771544917.025125,8.7890625,-88.8671875,37.59765625,37.109375,14.6484375
1771544917.0290313,13.18359375,-182.6171875,37.109375,17.08984375,19.53125
1771544917.0329375,17.578125,-37.59765625,34.1796875,6.8359375,48.33984375
1771544917.0368438,22.94921875,92.28515625,31.25,22.94921875,52.734375
1771544917.04075,9.765625,-126.46484375,33.69140625,35.15625,10.7421875
1771544917.0446563,-8.7890625,-353.02734375,30.76171875,21.97265625,1.953125
1771544917.0485625,-2.44140625,-273.92578125,28.80859375,8.30078125,36.1328125
1771544917.0524688,2.9296875,-35.15625,31.25,8.30078125,74.70703125
1771544917.056375,9.765625,-267.578125,31.25,31.25,74.21875
1771544917.0602813,4.39453125,-439.94140625,33.69140625,35.64453125,18.5546875
1771544917.0641875,-9.765625,-27.83203125,32.2265625,17.08984375,0.0
1771544917.0680938,-7.8125,103.02734375,31.73828125,23.92578125,-2.44140625
1771544917.054125,0.9765625,122.55859375,35.15625,41.015625,-10.7421875
1771544917.0580313,8.7890625,135.7421875,30.2734375,42.48046875,0.9765625
1771544917.0619376,5.859375,66.40625,29.78515625,27.83203125,19.04296875
1771544917.0658438,2.44140625,-20.01953125,33.69140625,8.7890625,-50.78125
1771544917.06975,19.53125,67.87109375,29.296875,21.97265625,-64.94140625
1771544917.0736563,16.6015625,38.0859375,32.2265625,33.203125,22.94921875
1771544917.0775626,16.11328125,-122.55859375,35.15625,23.92578125,53.22265625
1771544917.0814688,14.6484375,-113.28125,29.296875,-6.8359375,45.41015625
1771544917.085375,-0.48828125,125.0,27.83203125,3.41796875,62.98828125
1771544917.0892813,2.44140625,249.0234375,28.80859375,39.0625,58.10546875
1771544917.0931876,5.859375,186.03515625,34.66796875,31.25,90.8203125
1771544917.0970938,11.23046875,-149.90234375,35.64453125,14.6484375,90.8203125
1771544917.100125,13.18359375,-365.72265625,32.71484375,12.20703125,45.8984375
1771544917.1040313,8.7890625,70.80078125,35.15625,27.83203125,57.6171875
1771544917.1079376,4.39453125,103.515625,34.66796875,37.109375,34.1796875
1771544917.1118438,6.34765625,-117.1875,37.109375,31.25,-1.46484375
1771544917.11575,13.671875,73.73046875,34.1796875,13.18359375,31.73828125
1771544917.1196563,19.53125,120.1171875,32.2265625,25.390625,28.80859375
1771544917.1235626,26.3671875,-149.90234375,35.64453125,40.0390625,20.5078125
1771544917.1274688,31.73828125,-270.5078125,37.59765625,39.55078125,17.08984375
1771544917.131375,26.3671875,-7.8125,33.69140625,31.25,24.90234375
1771544917.1352813,20.01953125,167.96875,30.2734375,26.3671875,25.390625
1771544917.1391876,28.80859375,32.2265625,33.203125,42.96875,53.7109375
1771544917.1430938,28.80859375,-464.84375,32.71484375,44.43359375,35.15625
1771544917.144125,17.08984375,-389.16015625,31.25,29.296875,-6.34765625
1771544917.1480312,19.53125,161.1328125,31.73828125,28.80859375,-1.953125
1771544917.1519375,25.87890625,111.328125,31.73828125,42.48046875,47.8515625
1771544917.1558437,43.45703125,-60.05859375,31.73828125,43.45703125,61.5234375
1771544917.15975,56.15234375,-57.12890625,31.73828125,33.203125,20.99609375
1771544917.1636562,36.62109375,24.90234375,25.87890625,23.4375,32.2265625
1771544917.1675625,36.1328125,-188.4765625,29.78515625,36.62109375,35.15625
1771544917.1714687,28.80859375,-463.37890625,36.62109375,37.109375,31.25
1771544917.175375,15.625,-239.74609375,36.1328125,31.25,-21.97265625
1771544917.1792812,31.73828125,30.76171875,35.64453125,33.203125,-19.53125
1771544917.1831875,46.875,108.88671875,35.15625,25.87890625,36.62109375
1771544917.1870937,35.64453125,-72.75390625,37.59765625,32.2265625,40.52734375
1771544917.206125,35.15625,-202.63671875,36.1328125,39.55078125,27.83203125
1771544917.2100313,26.85546875,-30.76171875,33.203125,31.73828125,41.50390625
1771544917.2139375,23.92578125,-40.52734375,34.66796875,41.50390625,38.57421875
1771544917.2178438,37.59765625,-93.26171875,30.2734375,49.31640625,24.4140625
1771544917.22175,33.69140625,-108.3984375,31.25,33.69140625,-4.8828125
1771544917.2256563,26.3671875,-233.88671875,37.109375,28.3203125,24.4140625
1771544917.2295625,31.25,-315.4296875,32.71484375,27.34375,20.01953125
1771544917.2334688,39.55078125,-116.69921875,34.66796875,26.85546875,36.62109375
1771544917.237375,41.015625,10.7421875,38.57421875,30.2734375,50.78125
1771544917.2412813,36.1328125,-187.5,33.203125,15.625,17.08984375
1771544917.2451875,38.57421875,-228.515625,32.2265625,17.08984375,-5.37109375
1771544917.2490938,41.015625,-4.8828125,30.2734375,41.50390625,-18.06640625
1771544917.236125,38.0859375,-7.8125,27.34375,43.45703125,-9.27734375
1771544917.2400312,40.52734375,-185.546875,29.78515625,30.2734375,33.69140625
1771544917.2439375,34.1796875,-161.62109375,26.85546875,23.92578125,80.078125
1771544917.2478437,27.34375,34.66796875,31.25,31.73828125,12.20703125
1771544917.25175,39.55078125,0.9765625,37.59765625,62.01171875,-31.25
1771544917.2556562,46.38671875,-312.5,32.2265625,69.82421875,25.87890625
1771544917.2595625,38.0859375,-300.78125,31.73828125,31.73828125,64.453125
1771544917.2634687,32.2265625,49.31640625,33.203125,21.97265625,50.78125
1771544917.267375,40.0390625,111.81640625,35.64453125,39.0625,43.9453125
1771544917.2712812,44.43359375,-260.25390625,33.203125,37.59765625,58.10546875
1771544917.2751875,38.0859375,-749.51171875,27.83203125,12.6953125,21.484375
1771544917.2790937,36.1328125,-354.4921875,28.3203125,8.30078125,18.06640625
1771544917.295125,35.15625,99.12109375,28.80859375,18.5546875,39.55078125
1771544917.2990313,43.45703125,-56.15234375,27.34375,28.3203125,66.40625
1771544917.3029375,45.8984375,-111.328125,26.3671875,17.578125,60.05859375
1771544917.3068438,33.69140625,96.19140625,22.4609375,6.8359375,64.94140625
1771544917.31075,29.296875,133.7890625,24.90234375,26.3671875,64.94140625
1771544917.3146563,35.64453125,-429.19921875,25.87890625,40.52734375,13.671875
1771544917.3185625,40.0390625,-517.578125,24.4140625,42.96875,64.94140625
1771544917.3224688,35.64453125,1.953125,29.78515625,23.92578125,38.57421875
1771544917.326375,35.64453125,60.05859375,28.80859375,31.25,-18.06640625
1771544917.3302813,29.78515625,-150.390625,28.80859375,46.875,30.76171875
1771544917.3341875,23.4375,-84.9609375,26.3671875,26.3671875,79.58984375
1771544917.3380938,33.203125,57.6171875,25.87890625,18.5546875,60.546875
1771544917.340125,42.96875,45.41015625,27.34375,36.1328125,13.18359375
1771544917.3440313,48.828125,-1.953125,24.90234375,34.66796875,43.9453125
1771544917.3479376,44.921875,-22.4609375,24.4140625,19.04296875,66.40625
1771544917.3518438,35.15625,-75.68359375,24.4140625,11.23046875,-4.8828125
1771544917.35575,23.92578125,-42.96875,23.4375,2.44140625,-13.671875
1771544917.3596563,12.6953125,-125.9765625,21.97265625,10.7421875,2.9296875
1771544917.3635626,15.625,-243.65234375,22.94921875,20.5078125,33.69140625
1771544917.3674688,23.4375,-193.359375,19.53125,5.859375,17.08984375
1771544917.371375,25.390625,-171.875,21.484375,-5.859375,26.85546875
1771544917.3752813,41.015625,-358.88671875,24.4140625,23.92578125,58.10546875
1771544917.3791876,47.36328125,-164.0625,20.99609375,34.66796875,36.62109375
1771544917.3830938,34.1796875,15.625,23.4375,17.08984375,46.875
1771544917.385125,37.59765625,15.625,26.85546875,26.3671875,64.94140625
1771544917.3890312,41.015625,164.0625,26.3671875,33.203125,51.7578125
1771544917.3929374,36.62109375,169.43359375,29.296875,50.29296875,42.96875
1771544917.3968437,36.62109375,-36.62109375,28.3203125,52.734375,36.62109375
1771544917.40075,36.1328125,-143.5546875,34.66796875,18.06640625,17.578125
1771544917.4046562,43.45703125,-64.453125,37.59765625,20.99609375,19.53125
1771544917.4085624,53.7109375,-84.47265625,33.69140625,40.0390625,25.87890625
1771544917.4124687,34.66796875,-167.96875,37.59765625,41.015625,3.41796875
1771544917.416375,25.87890625,-435.546875,33.203125,22.94921875,34.1796875
1771544917.4202812,37.59765625,-333.984375,25.87890625,9.765625,46.38671875
1771544917.4241874,41.9921875,73.73046875,27.34375,16.11328125,-23.4375
1771544917.4280937,30.2734375,-90.8203125,30.76171875,23.92578125,-33.69140625
1771544917.429125,15.625,-292.96875,31.73828125,7.8125,13.671875
1771544917.4330313,30.76171875,50.29296875,30.2734375,-12.20703125,59.5703125
1771544917.4369376,41.50390625,263.18359375,32.2265625,14.6484375,77.63671875
1771544917.4408438,32.71484375,0.48828125,29.78515625,41.015625,31.73828125
1771544917.44475,15.13671875,-237.79296875,31.73828125,28.3203125,-49.8046875
1771544917.4486563,27.34375,-195.3125,28.80859375,4.39453125,20.01953125
1771544917.4525626,36.62109375,54.19921875,28.3203125,4.39453125,85.9375
1771544917.4564688,26.3671875,-111.328125,33.203125,27.34375,44.921875
1771544917.460375,28.3203125,-496.58203125,30.2734375,16.11328125,26.3671875
1771544917.4642813,17.08984375,-182.6171875,32.71484375,-7.32421875,0.48828125
1771544917.4681876,25.87890625,134.765625,34.66796875,0.48828125,-4.8828125
1771544917.4720938,36.62109375,21.97265625,27.34375,24.90234375,31.25
1771544917.475125,31.25,-126.46484375,24.90234375,42.48046875,41.9921875
1771544917.4790313,33.69140625,-40.0390625,27.83203125,24.4140625,43.45703125
1771544917.4829376,34.66796875,83.49609375,28.3203125,16.11328125,48.33984375
1771544917.4868438,28.3203125,-66.40625,26.85546875,46.38671875,13.18359375
1771544917.49075,26.85546875,-179.6875,25.390625,46.38671875,7.32421875
1771544917.4946563,36.1328125,-226.07421875,29.296875,25.390625,33.69140625
1771544917.4985626,41.015625,-218.75,29.296875,16.11328125,24.90234375
1771544917.5024688,39.55078125,-280.2734375,28.80859375,27.34375,53.22265625
1771544917.506375,42.48046875,-256.8359375,33.203125,41.015625,67.87109375
1771544917.5102813,52.24609375,-17.08984375,37.59765625,39.55078125,46.38671875
1771544917.5141876,35.64453125,-56.15234375,33.69140625,31.25,25.87890625
1771544917.5180938,32.2265625,34.1796875,36.62109375,23.92578125,39.55078125
1771544917.521125,45.8984375,126.46484375,34.1796875,35.64453125,60.05859375
1771544917.5250313,31.25,-40.52734375,29.296875,43.45703125,2.9296875
1771544917.5289376,25.87890625,-290.52734375,32.71484375,22.4609375,18.5546875
1771544917.5328438,32.2265625,-208.0078125,30.76171875,22.4609375,32.71484375
1771544917.53675,38.0859375,93.75,33.69140625,27.83203125,48.33984375
1771544917.5406563,39.55078125,-93.26171875,35.15625,29.296875,40.52734375
1771544917.5445626,33.203125,-429.6875,30.76171875,18.5546875,48.33984375
1771544917.5484688,46.875,-447.75390625,32.71484375,11.23046875,9.27734375
1771544917.552375,48.828125,-15.13671875,33.69140625,31.73828125,-7.8125
1771544917.5562813,27.83203125,78.61328125,32.2265625,36.1328125,32.71484375
1771544917.5601876,28.3203125,-134.27734375,35.64453125,23.4375,37.59765625
1771544917.5640938,46.875,-42.48046875,36.62109375,24.90234375,54.6875
1771544917.565125,29.78515625,160.15625,38.57421875,38.0859375,36.62109375
1771544917.5690312,36.62109375,58.59375,39.55078125,41.9921875,30.2734375
1771544917.5729375,58.59375,-153.3203125,36.1328125,60.05859375,69.82421875
1771544917.5768437,40.52734375,-33.69140625,34.66796875,25.87890625,137.20703125
1771544917.58075,37.59765625,50.29296875,33.69140625,2.44140625,101.07421875
1771544917.5846562,49.8046875,-137.20703125,34.66796875,32.71484375,25.390625
1771544917.5885625,37.59765625,-605.46875,37.109375,44.921875,1.953125
1771544917.5924687,30.2734375,-659.66796875,36.1328125,32.2265625,20.01953125
1771544917.596375,37.59765625,-21.97265625,33.69140625,11.23046875,20.5078125
1771544917.6002812,33.203125,75.68359375,32.71484375,18.06640625,17.08984375
1771544917.6041875,28.80859375,-130.859375,33.69140625,24.90234375,27.83203125
1771544917.6080937,39.0625,-86.42578125,34.1796875,17.578125,34.1796875
1771544917.625125,32.2265625,75.68359375,36.1328125,12.20703125,37.109375
1771544917.6290312,22.4609375,29.78515625,36.62109375,26.85546875,9.27734375
1771544917.6329374,23.92578125,-126.46484375,39.55078125,39.0625,8.7890625
1771544917.6368437,19.53125,-87.890625,42.96875,22.4609375,62.98828125
1771544917.64075,17.08984375,41.9921875,38.0859375,-5.859375,65.91796875
1771544917.6446562,19.53125,-114.2578125,37.59765625,-5.37109375,41.015625
1771544917.6485624,24.4140625,-451.171875,40.52734375,5.37109375,67.87109375
1771544917.6524687,4.8828125,-285.15625,41.50390625,9.27734375,43.45703125
1771544917.656375,-11.23046875,31.25,45.8984375,5.37109375,63.4765625
1771544917.6602812,-1.46484375,3.90625,48.828125,-17.578125,76.171875
1771544917.6641874,-8.7890625,-80.078125,50.29296875,-17.578125,41.015625
1771544917.6680937,-24.90234375,22.4609375,55.6640625,-4.39453125,93.26171875
1771544917.670125,7.8125,-16.6015625,55.6640625,-13.671875,89.35546875
1771544917.6740313,13.18359375,-68.359375,50.78125,-35.64453125,-3.90625
1771544917.6779375,-39.55078125,18.5546875,55.17578125,-33.69140625,16.6015625
1771544917.6818438,-46.875,-47.36328125,59.5703125,-15.625,19.04296875
1771544917.68575,-42.48046875,-192.3828125,55.6640625,-25.390625,7.32421875
1771544917.6896563,-29.78515625,-270.5078125,58.59375,-41.9921875,-0.9765625
1771544917.6935625,-17.08984375,-205.56640625,62.01171875,-39.55078125,10.7421875
1771544917.6974688,-20.5078125,-100.5859375,61.03515625,-41.9921875,32.71484375
1771544917.701375,-44.921875,-145.99609375,56.15234375,-72.75390625,55.17578125
1771544917.7052813,-53.22265625,-495.1171875,54.6875,-101.07421875,86.9140625
1771544917.7091875,-32.2265625,-461.42578125,57.6171875,-94.7265625,30.76171875
1771544917.7130938,-54.6875,-80.56640625,61.5234375,-92.28515625,30.2734375
1771544917.715125,-80.56640625,-187.98828125,63.96484375,-100.09765625,54.19921875
1771544917.7190313,-62.98828125,-240.234375,65.4296875,-110.83984375,32.2265625
1771544917.7229376,-51.7578125,26.3671875,74.21875,-109.375,26.85546875
1771544917.7268438,-69.82421875,135.25390625,73.73046875,-92.7734375,77.63671875
1771544917.73075,-86.42578125,-103.02734375,65.91796875,-106.93359375,90.8203125
1771544917.7346563,-96.19140625,-350.5859375,71.77734375,-129.39453125,56.640625
1771544917.7385626,-90.8203125,-312.98828125,76.171875,-132.8125,-17.578125
1771544917.7424688,-84.47265625,-36.62109375,76.171875,-123.53515625,-28.80859375
1771544917.746375,-90.8203125,-260.7421875,80.56640625,-110.83984375,-5.859375
1771544917.7502813,-94.7265625,-604.00390625,83.984375,-116.69921875,-13.671875
1771544917.7541876,-104.00390625,-136.71875,74.70703125,-132.8125,-9.27734375
1771544917.7580938,-91.796875,97.65625,69.82421875,-127.9296875,56.15234375
1771544917.760125,-76.66015625,-205.56640625,71.77734375,-104.00390625,43.45703125
1771544917.7640312,-78.125,-227.05078125,67.87109375,-101.07421875,29.296875
1771544917.7679374,-62.01171875,35.64453125,66.89453125,-99.12109375,68.359375
1771544917.7718437,-42.48046875,61.03515625,68.84765625,-86.9140625,-23.4375
1771544917.77575,-26.3671875,-75.1953125,60.546875,-64.94140625,-35.64453125
1771544917.7796562,-6.8359375,-284.66796875,51.26953125,-37.109375,15.625
1771544917.7835624,-4.8828125,-295.41015625,52.734375,-62.98828125,23.4375
1771544917.7874687,5.37109375,-23.4375,54.6875,-68.359375,25.87890625
1771544917.791375,20.01953125,-274.90234375,48.828125,-19.04296875,58.59375
1771544917.7952812,32.2265625,-411.62109375,37.59765625,5.859375,22.94921875
1771544917.7991874,36.62109375,-109.375,34.66796875,-7.32421875,4.39453125
1771544917.8030937,45.8984375,-69.3359375,35.15625,-5.37109375,28.3203125
1771544917.806125,63.96484375,-57.12890625,33.203125,12.6953125,0.0
1771544917.8100312,71.77734375,-137.20703125,30.2734375,30.2734375,2.9296875
1771544917.8139374,76.171875,-292.48046875,23.92578125,40.0390625,-16.6015625
1771544917.8178437,77.1484375,-323.2421875,25.390625,33.203125,-27.34375
1771544917.82175,82.51953125,-214.84375,29.296875,52.24609375,14.16015625
1771544917.8256562,93.26171875,-198.2421875,21.484375,76.171875,46.38671875
1771544917.8295624,111.81640625,-381.8359375,19.53125,73.73046875,-23.4375
1771544917.8334687,111.328125,-426.26953125,17.578125,75.1953125,1.953125
1771544917.837375,103.515625,-391.11328125,16.6015625,70.3125,49.31640625
1771544917.8412812,115.72265625,-120.1171875,16.6015625,65.4296875,-5.37109375
1771544917.8451874,130.37109375,-81.0546875,13.671875,83.49609375,23.92578125
1771544917.8490937,121.09375,-183.59375,14.6484375,73.73046875,64.94140625
1771544917.850125,112.79296875,-37.59765625,13.18359375,60.05859375,61.03515625
1771544917.8540313,137.6953125,71.2890625,11.23046875,87.40234375,37.109375
1771544917.8579376,163.57421875,-102.05078125,9.765625,102.05078125,22.94921875
1771544917.8618438,152.83203125,-286.62109375,7.32421875,80.56640625,20.01953125
1771544917.86575,141.11328125,-303.22265625,8.30078125,72.265625,-45.8984375
1771544917.8696563,155.2734375,-213.8671875,5.37109375,90.33203125,-17.08984375
1771544917.8735626,170.41015625,-263.671875,5.859375,98.6328125,15.625
1771544917.8774688,172.8515625,-685.05859375,10.7421875,86.9140625,-19.53125
1771544917.881375,174.8046875,-602.5390625,6.34765625,71.2890625,36.1328125
1771544917.8852813,191.40625,7.8125,0.48828125,97.16796875,11.71875
1771544917.8891876,210.9375,-26.85546875,8.30078125,112.79296875,-19.53125
1771544917.8930938,207.51953125,-192.3828125,11.23046875,91.796875,35.15625
1771544917.895125,220.21484375,-63.96484375,7.8125,88.37890625,47.36328125
1771544917.8990312,240.72265625,76.66015625,8.30078125,86.42578125,-0.48828125
1771544917.9029374,255.859375,-14.16015625,6.8359375,83.0078125,8.30078125
1771544917.9068437,286.62109375,-126.46484375,8.30078125,78.61328125,71.2890625
1771544917.91075,297.8515625,-103.02734375,7.8125,68.359375,43.45703125
1771544917.9146562,294.43359375,-61.5234375,9.765625,64.94140625,36.1328125
1771544917.9185624,326.171875,-218.26171875,13.18359375,78.125,42.96875
1771544917.9224687,357.91015625,-609.86328125,10.7421875,77.1484375,17.578125
1771544917.926375,355.46875,-339.84375,10.7421875,70.3125,56.640625
1771544917.9302812,367.67578125,137.20703125,15.625,70.80078125,81.0546875
1771544917.9341874,401.85546875,105.46875,14.6484375,80.56640625,11.71875
1771544917.9380937,427.734375,9.765625,14.16015625,81.0546875,-2.9296875
1771544917.939125,442.3828125,26.3671875,19.04296875,78.125,35.64453125
1771544917.9430313,458.984375,25.390625,20.01953125,63.4765625,8.30078125
1771544917.9469376,481.93359375,82.51953125,18.06640625,50.78125,32.2265625
1771544917.9508438,510.7421875,84.47265625,18.5546875,63.4765625,40.0390625
1771544917.95475,534.66796875,-6.8359375,19.04296875,69.82421875,10.7421875
1771544917.9586563,542.48046875,-135.25390625,19.04296875,65.91796875,-1.46484375
1771544917.9625626,557.12890625,-351.5625,15.13671875,67.3828125,-5.859375
1771544917.9664688,583.984375,-130.859375,19.53125,66.40625,75.68359375
1771544917.970375,596.6796875,112.79296875,23.92578125,60.05859375,81.54296875
1771544917.9742813,594.23828125,-125.9765625,18.5546875,62.98828125,40.52734375
1771544917.9781876,603.515625,-95.21484375,17.578125,71.77734375,19.04296875
1771544917.9820938,617.1875,164.55078125,14.6484375,91.796875,-16.11328125
1771544918.000125,612.3046875,285.15625,19.04296875,92.7734375,88.37890625
1771544918.0040312,593.26171875,89.35546875,30.2734375,78.61328125,100.5859375
1771544918.0079374,588.8671875,9.27734375,24.4140625,80.56640625,-13.18359375
1771544918.0118437,592.28515625,210.9375,15.625,76.66015625,-43.45703125
1771544918.01575,565.4296875,260.25390625,17.08984375,71.2890625,6.8359375
1771544918.0196562,557.6171875,-114.74609375,23.92578125,99.12109375,41.9921875
1771544918.0235624,539.0625,-358.3984375,24.90234375,97.16796875,27.83203125
1771544918.0274687,484.86328125,136.23046875,26.3671875,82.03125,29.78515625
1771544918.031375,457.51953125,304.6875,27.34375,102.5390625,-6.8359375
1771544918.0352812,425.78125,79.1015625,28.80859375,100.09765625,-7.32421875
1771544918.0391874,397.4609375,104.00390625,29.296875,86.42578125,71.77734375
1771544918.0430937,380.859375,163.57421875,25.87890625,84.47265625,20.99609375
1771544918.045125,356.4453125,253.41796875,28.3203125,83.984375,43.9453125
1771544918.0490313,336.9140625,61.03515625,31.25,78.61328125,62.98828125
1771544918.0529375,312.98828125,-129.39453125,29.78515625,60.546875,-43.9453125
1771544918.0568438,297.36328125,176.7578125,30.76171875,46.38671875,-6.8359375
1771544918.06075,287.59765625,305.6640625,27.83203125,59.5703125,36.62109375
1771544918.0646563,275.87890625,1.46484375,26.3671875,70.3125,0.0
1771544918.0685625,253.90625,-141.11328125,29.78515625,49.8046875,30.2734375
1771544918.0724688,228.515625,108.3984375,27.34375,33.69140625,35.64453125
1771544918.076375,217.7734375,231.93359375,29.78515625,43.45703125,5.37109375
1771544918.0802813,211.9140625,-189.94140625,32.71484375,59.5703125,5.859375
1771544918.0841875,195.3125,-258.30078125,29.78515625,49.31640625,-0.48828125
1771544918.0880938,175.29296875,124.51171875,32.2265625,29.78515625,19.53125
1771544918.090125,167.48046875,261.23046875,33.69140625,41.50390625,92.28515625
1771544918.0940313,165.52734375,121.09375,35.64453125,60.546875,84.47265625
1771544918.0979376,135.7421875,-46.38671875,38.0859375,57.12890625,27.83203125
1771544918.1018438,115.72265625,69.3359375,35.15625,46.38671875,18.5546875
1771544918.10575,113.28125,59.5703125,35.15625,59.5703125,21.484375
1771544918.1096563,93.75,-100.5859375,36.62109375,69.3359375,27.34375
1771544918.1135626,96.19140625,-46.38671875,36.62109375,68.84765625,35.64453125
1771544918.1174688,86.9140625,123.53515625,35.15625,52.734375,60.05859375
1771544918.121375,70.3125,-25.390625,34.66796875,41.015625,38.0859375
1771544918.1252813,68.84765625,-200.1953125,36.1328125,47.36328125,4.39453125
1771544918.1291876,49.31640625,105.95703125,33.69140625,58.10546875,56.640625
1771544918.1330938,49.31640625,59.08203125,34.66796875,53.7109375,20.99609375
1771544918.135125,25.390625,11.71875,36.1328125,41.50390625,11.23046875
1771544918.1390312,-1.46484375,208.49609375,35.15625,43.9453125,34.1796875
1771544918.1429374,12.6953125,273.92578125,36.1328125,59.08203125,55.17578125
1771544918.1468437,8.30078125,111.328125,33.69140625,42.96875,103.515625
1771544918.15075,-11.71875,-149.90234375,33.69140625,17.08984375,60.05859375
1771544918.1546562,-13.18359375,-55.6640625,37.59765625,29.78515625,67.87109375
1771544918.1585624,-0.9765625,67.3828125,36.1328125,40.52734375,63.4765625
1771544918.1624687,-19.53125,11.23046875,34.66796875,43.45703125,13.18359375
1771544918.166375,-27.34375,-356.93359375,34.66796875,36.62109375,-6.8359375
1771544918.1702812,-23.4375,-176.7578125,37.109375,27.83203125,25.390625
1771544918.1741874,-11.71875,314.453125,41.50390625,49.31640625,46.38671875
1771544918.1780937,-2.9296875,129.39453125,39.0625,59.5703125,47.36328125
1771544918.180125,-31.25,9.27734375,34.1796875,23.92578125,98.6328125
1771544918.1840312,-43.45703125,171.875,33.69140625,10.25390625,74.70703125
1771544918.1879375,-21.97265625,268.06640625,34.66796875,18.5546875,23.4375
1771544918.1918437,-7.32421875,90.33203125,37.109375,30.2734375,22.4609375
1771544918.19575,-15.13671875,-94.7265625,36.62109375,36.62109375,1.46484375
1771544918.1996562,-21.97265625,-87.40234375,34.66796875,22.4609375,5.37109375
1771544918.2035625,-23.92578125,3.90625,34.66796875,26.85546875,-2.9296875
1771544918.2074687,-28.80859375,-128.90625,37.109375,38.0859375,7.8125
1771544918.211375,-33.69140625,-493.65234375,36.1328125,27.83203125,12.20703125
1771544918.2152812,-36.1328125,-185.546875,36.1328125,24.90234375,18.06640625
1771544918.2191875,-41.9921875,308.59375,35.15625,35.64453125,54.6875
1771544918.2230937,-31.73828125,266.6015625,34.1796875,43.45703125,51.7578125
1771544918.225125,-17.08984375,155.2734375,36.62109375,41.50390625,47.36328125
1771544918.2290313,-27.83203125,173.828125,36.62109375,32.2265625,47.8515625
1771544918.2329376,-33.203125,258.30078125,38.57421875,31.25,61.03515625
1771544918.2368438,-28.3203125,268.5546875,39.55078125,36.62109375,86.9140625
1771544918.24075,-23.4375,215.8203125,39.0625,55.6640625,87.40234375
1771544918.2446563,-22.4609375,50.78125,40.0390625,52.24609375,87.40234375
1771544918.2485626,-28.3203125,77.1484375,34.66796875,39.55078125,109.375
1771544918.2524688,-6.34765625,-22.94921875,32.2265625,54.19921875,87.40234375
1771544918.256375,-6.8359375,-201.171875,35.64453125,66.89453125,0.48828125
1771544918.2602813,-2.44140625,12.6953125,38.57421875,85.44921875,-24.90234375
1771544918.2641876,-2.9296875,97.65625,45.8984375,80.56640625,18.5546875
1771544918.2680938,-15.13671875,72.75390625,35.64453125,46.875,-8.7890625
1771544918.270125,-3.90625,210.44921875,29.296875,42.48046875,-34.1796875
1771544918.2740312,-14.16015625,214.35546875,35.15625,44.43359375,-15.625
1771544918.2779374,-15.13671875,87.890625,30.2734375,49.8046875,18.5546875
1771544918.2818437,-18.5546875,186.5234375,34.66796875,57.12890625,32.71484375
1771544918.28575,-13.18359375,324.70703125,36.1328125,55.17578125,28.80859375
1771544918.2896562,-5.37109375,163.57421875,34.66796875,39.0625,53.7109375
1771544918.2935624,-18.5546875,-104.98046875,39.0625,43.45703125,99.609375
1771544918.2974687,-19.04296875,-209.9609375,36.1328125,57.6171875,23.4375
1771544918.301375,-15.625,213.37890625,37.59765625,52.24609375,27.83203125
1771544918.3052812,-15.13671875,396.97265625,45.41015625,59.08203125,89.84375
1771544918.3091874,-9.765625,134.765625,40.52734375,56.15234375,88.8671875
1771544918.3130937,-23.92578125,68.84765625,34.66796875,45.8984375,86.42578125
1771544918.315125,-26.3671875,306.640625,39.55078125,56.15234375,30.2734375
1771544918.3190312,-11.71875,293.45703125,40.52734375,62.5,-16.11328125
1771544918.3229375,-16.11328125,-11.71875,41.015625,49.31640625,3.41796875
1771544918.3268437,-34.66796875,49.8046875,40.0390625,39.0625,61.03515625
1771544918.33075,-37.109375,329.58984375,36.62109375,42.96875,41.9921875
1771544918.3346562,-15.625,194.82421875,40.52734375,44.43359375,5.859375
1771544918.3385625,-19.04296875,-273.92578125,41.50390625,48.33984375,21.97265625
1771544918.3424687,-30.2734375,-225.5859375,39.0625,35.15625,42.96875
1771544918.346375,-27.83203125,300.78125,36.1328125,25.87890625,35.15625
1771544918.3502812,-27.83203125,305.6640625,37.109375,53.7109375,18.5546875
1771544918.3541875,-7.8125,149.4140625,40.0390625,62.5,47.36328125
1771544918.3580937,-9.765625,123.53515625,33.69140625,46.38671875,7.8125
1771544918.360125,-30.76171875,247.0703125,30.76171875,28.80859375,-1.46484375
1771544918.3640313,-19.04296875,234.86328125,34.1796875,41.015625,65.4296875
1771544918.3679376,-4.8828125,82.03125,32.71484375,60.546875,82.03125
1771544918.3718438,-12.20703125,142.578125,30.76171875,39.0625,57.6171875
1771544918.37575,-27.83203125,258.7890625,31.73828125,29.296875,62.98828125
1771544918.3796563,-20.5078125,89.35546875,26.85546875,39.0625,34.1796875
1771544918.3835626,0.48828125,-333.984375,27.34375,39.0625,-18.06640625
1771544918.3874688,-20.01953125,-146.97265625,27.34375,25.87890625,-32.2265625
1771544918.391375,-44.921875,202.1484375,24.90234375,12.20703125,-17.08984375
1771544918.3952813,-37.109375,164.55078125,25.87890625,14.6484375,19.53125
1771544918.3991876,-24.4140625,134.27734375,26.3671875,26.3671875,11.71875
1771544918.4030938,-31.73828125,240.72265625,23.4375,29.78515625,20.5078125
1771544918.420125,-32.71484375,205.56640625,21.484375,23.4375,36.62109375
1771544918.4240313,-20.01953125,182.12890625,28.3203125,19.53125,10.25390625
1771544918.4279375,-28.80859375,280.76171875,32.2265625,30.76171875,13.18359375
1771544918.4318438,-35.15625,169.921875,28.80859375,39.55078125,7.8125
1771544918.43575,-36.62109375,73.73046875,30.2734375,28.3203125,2.44140625
1771544918.4396563,-37.59765625,-128.41796875,31.73828125,27.34375,57.12890625
1771544918.4435625,-45.8984375,-104.98046875,34.1796875,37.59765625,104.98046875
1771544918.4474688,-57.12890625,291.015625,31.73828125,34.1796875,74.70703125
1771544918.451375,-53.22265625,148.4375,32.2265625,31.25,31.25
1771544918.4552813,-67.3828125,12.20703125,36.62109375,23.4375,-3.41796875
1771544918.4591875,-67.87109375,245.1171875,36.1328125,37.109375,-23.4375
1771544918.4630938,-51.7578125,319.3359375,36.62109375,42.96875,-16.11328125
1771544918.465125,-45.8984375,126.46484375,35.15625,32.71484375,30.76171875
1771544918.4690313,-65.4296875,69.3359375,32.2265625,40.0390625,62.5
1771544918.4729376,-60.546875,289.0625,32.2265625,42.48046875,43.9453125
1771544918.4768438,-31.73828125,353.515625,33.69140625,35.15625,24.4140625
1771544918.48075,-34.66796875,136.71875,29.296875,35.64453125,19.53125
1771544918.4846563,-41.9921875,-41.9921875,30.76171875,41.015625,76.66015625
1771544918.4885626,-45.41015625,73.73046875,35.15625,32.71484375,100.09765625
1771544918.4924688,-41.9921875,260.7421875,34.1796875,20.5078125,81.0546875
1771544918.496375,-40.0390625,29.78515625,33.69140625,19.53125,23.4375
1771544918.5002813,-53.7109375,-300.29296875,33.203125,15.13671875,71.2890625
1771544918.5041876,-61.5234375,43.9453125,38.0859375,8.7890625,47.36328125
1771544918.5080938,-52.24609375,435.546875,38.0859375,20.99609375,-3.41796875
1771544918.510125,-40.52734375,325.1953125,33.69140625,34.66796875,19.04296875
1771544918.5140312,-36.62109375,176.26953125,33.69140625,23.4375,-22.4609375
1771544918.5179374,-42.96875,269.04296875,34.1796875,10.7421875,-8.7890625
1771544918.5218437,-30.2734375,405.76171875,33.203125,29.78515625,46.38671875
1771544918.52575,-9.765625,298.33984375,32.2265625,46.875,31.25
1771544918.5296562,-28.80859375,117.1875,35.15625,37.59765625,45.41015625
1771544918.5335624,-47.8515625,-6.34765625,33.69140625,25.87890625,-0.48828125
1771544918.5374687,-41.015625,163.0859375,32.71484375,17.08984375,-17.08984375
1771544918.541375,-29.78515625,-34.1796875,34.1796875,21.97265625,18.06640625
1771544918.5452812,-21.484375,-188.96484375,31.73828125,33.203125,10.25390625
1771544918.5491874,-40.0390625,201.171875,33.69140625,15.13671875,-2.44140625
1771544918.5530937,-37.59765625,230.95703125,36.1328125,5.37109375,-1.46484375
1771544918.555125,-26.3671875,323.73046875,35.64453125,19.04296875,44.921875
1771544918.5590312,-34.1796875,438.96484375,34.1796875,23.92578125,70.80078125
1771544918.5629375,-23.92578125,332.03125,36.1328125,18.5546875,34.1796875
1771544918.5668437,-29.296875,259.765625,36.1328125,15.625,31.25
1771544918.57075,-30.76171875,326.171875,34.1796875,24.4140625,14.6484375
1771544918.5746562,-17.08984375,227.5390625,33.203125,19.04296875,25.390625
1771544918.5785625,-12.20703125,204.1015625,35.64453125,7.8125,94.23828125
1771544918.5824687,-0.48828125,131.34765625,38.0859375,3.41796875,79.58984375
1771544918.586375,-12.20703125,-11.71875,41.50390625,7.32421875,14.16015625
1771544918.5902812,-22.94921875,338.8671875,45.8984375,17.08984375,4.8828125
1771544918.5941875,-10.25390625,337.40234375,44.921875,14.16015625,12.6953125
1771544918.5980937,-13.671875,49.8046875,47.36328125,-2.9296875,9.765625
1771544918.600125,-23.4375,272.4609375,53.7109375,-14.6484375,36.1328125
1771544918.6040313,-19.04296875,518.5546875,49.31640625,-17.578125,14.16015625
1771544918.6079376,9.27734375,332.51953125,48.33984375,-19.53125,-38.57421875
1771544918.6118438,11.71875,145.5078125,52.24609375,-21.484375,-11.71875
1771544918.61575,-28.80859375,323.73046875,53.7109375,-22.4609375,52.24609375
1771544918.6196563,-41.015625,409.1796875,59.5703125,-13.671875,77.63671875
1771544918.6235626,16.11328125,264.16015625,74.21875,26.85546875,53.22265625
1771544918.6274688,42.96875,-87.40234375,70.3125,20.01953125,44.43359375
1771544918.631375,-9.765625,-29.78515625,48.33984375,-48.828125,37.59765625
1771544918.6352813,-3.41796875,475.09765625,46.38671875,-62.5,0.0
1771544918.6391876,41.50390625,409.1796875,56.15234375,-16.6015625,18.5546875
1771544918.6430938,43.45703125,231.93359375,56.15234375,-5.37109375,33.203125
1771544918.646125,32.2265625,318.359375,40.0390625,-42.96875,22.4609375
1771544918.6500313,51.26953125,415.52734375,44.921875,-40.0390625,31.73828125
1771544918.6539376,70.80078125,299.31640625,39.55078125,-45.8984375,58.59375
1771544918.6578438,74.70703125,150.87890625,24.90234375,-65.4296875,50.29296875
1771544918.66175,67.3828125,322.265625,30.76171875,-63.4765625,55.6640625
1771544918.6656563,87.40234375,434.08203125,24.4140625,-18.06640625,70.3125
1771544918.6695626,107.421875,206.54296875,10.7421875,-64.453125,3.41796875
1771544918.6734688,70.80078125,-10.7421875,10.7421875,-109.86328125,-4.8828125
1771544918.677375,54.6875,264.16015625,9.765625,-60.546875,42.48046875
1771544918.6812813,41.9921875,503.41796875,-0.48828125,-81.54296875,42.96875
1771544918.6851876,73.2421875,473.6328125,-5.37109375,-118.65234375,39.55078125
1771544918.6890938,68.359375,354.00390625,-18.06640625,-122.0703125,31.73828125
1771544918.689125,74.70703125,279.296875,-22.4609375,-130.37109375,35.64453125
1771544918.6930313,77.1484375,218.26171875,-23.92578125,-124.0234375,3.90625
1771544918.6969376,121.09375,217.28515625,-30.2734375,-103.02734375,13.671875
1771544918.7008438,157.71484375,103.515625,-36.62109375,-80.56640625,51.7578125
1771544918.70475,68.84765625,-49.31640625,-45.8984375,-66.40625,25.87890625
1771544918.7086563,55.17578125,-135.7421875,-58.10546875,-58.10546875,14.16015625
1771544918.7125626,102.05078125,-375.48828125,-62.98828125,-132.32421875,51.26953125
1771544918.7164688,143.06640625,-455.56640625,-62.5,-122.0703125,41.9921875
1771544918.720375,138.18359375,-226.5625,-73.73046875,-64.94140625,-21.97265625
1771544918.7242813,134.27734375,-253.90625,-76.66015625,-74.21875,0.9765625
1771544918.7281876,170.8984375,-232.91015625,-73.73046875,-47.36328125,65.91796875
1771544918.7320938,172.36328125,-107.421875,-74.21875,0.0,70.3125
1771544918.735125,174.31640625,-219.23828125,-71.77734375,-1.953125,83.0078125
1771544918.7390313,211.42578125,-492.1875,-66.40625,14.6484375,58.10546875
1771544918.7429376,208.49609375,-504.39453125,-68.359375,43.45703125,42.96875
1771544918.7468438,219.23828125,-286.1328125,-65.91796875,41.015625,57.12890625
1771544918.75075,229.00390625,-332.03125,-66.89453125,50.78125,40.0390625
1771544918.7546563,247.0703125,-712.890625,-59.5703125,81.54296875,15.13671875
1771544918.7585626,248.046875,-903.80859375,-50.78125,94.23828125,25.390625
1771544918.7624688,228.02734375,-447.75390625,-51.26953125,114.2578125,5.859375
1771544918.766375,247.55859375,-150.87890625,-43.45703125,133.7890625,17.578125
1771544918.7702813,242.67578125,-419.43359375,-40.52734375,132.32421875,33.203125
1771544918.7741876,240.234375,-427.24609375,-36.62109375,141.6015625,30.2734375
1771544918.7780938,236.81640625,18.5546875,-22.94921875,152.34375,62.98828125
1771544918.795125,241.69921875,118.1640625,-14.16015625,156.25,44.43359375
1771544918.7990313,249.0234375,-38.0859375,-15.13671875,150.87890625,41.9921875
1771544918.8029375,222.16796875,-25.390625,-16.11328125,163.57421875,57.6171875
1771544918.8068438,212.890625,197.75390625,-7.8125,181.640625,33.69140625
1771544918.81075,216.796875,308.59375,-1.953125,149.4140625,6.34765625
1771544918.8146563,214.35546875,74.21875,4.8828125,153.3203125,6.34765625
1771544918.8185625,199.21875,71.2890625,8.7890625,177.24609375,20.99609375
1771544918.8224688,183.10546875,367.1875,16.11328125,162.109375,20.01953125
1771544918.826375,173.828125,445.80078125,20.01953125,152.83203125,26.85546875
1771544918.8302813,180.6640625,91.30859375,14.16015625,142.578125,53.22265625
1771544918.8341875,193.84765625,74.21875,11.71875,153.3203125,31.25
1771544918.8380938,171.875,540.0390625,21.484375,154.78515625,-22.4609375
1771544918.840125,157.2265625,709.47265625,22.4609375,139.16015625,25.390625
1771544918.8440313,158.203125,732.421875,16.6015625,137.6953125,81.54296875
1771544918.8479376,149.4140625,722.65625,22.94921875,146.484375,33.69140625
1771544918.8518438,108.88671875,738.76953125,21.484375,148.4375,-7.32421875
1771544918.85575,73.2421875,900.87890625,21.97265625,136.71875,87.890625
1771544918.8596563,83.0078125,845.703125,26.85546875,130.37109375,102.05078125
1771544918.8635626,86.9140625,777.34375,29.296875,129.39453125,41.015625
1771544918.8674688,46.875,983.88671875,33.203125,119.62890625,61.5234375
1771544918.871375,27.83203125,897.94921875,32.2265625,121.09375,13.18359375
1771544918.8752813,30.76171875,804.19921875,33.69140625,119.62890625,-7.8125
1771544918.8791876,32.71484375,-998.53515625,36.62109375,113.76953125,7.32421875
1771544918.8830938,31.25,-998.53515625,37.109375,110.83984375,9.765625
1771544918.885125,-7.8125,987.79296875,41.015625,87.40234375,33.203125
1771544918.8890312,-26.85546875,999.51171875,38.0859375,84.47265625,36.1328125
1771544918.8929374,1.953125,-1000.0,34.66796875,110.3515625,56.15234375
1771544918.8968437,8.30078125,999.0234375,36.1328125,105.95703125,82.51953125
1771544918.90075,-26.85546875,999.51171875,35.64453125,87.890625,97.16796875
1771544918.9046562,-29.78515625,998.046875,39.55078125,94.7265625,27.83203125
1771544918.9085624,4.8828125,-1000.0,43.9453125,89.35546875,5.37109375
1771544918.9124687,-25.390625,-999.0234375,46.875,85.44921875,76.66015625
1771544918.916375,-68.359375,966.30859375,45.8984375,78.125,49.8046875
1771544918.9202812,-53.7109375,980.46875,42.96875,69.82421875,55.17578125
1771544918.9241874,-24.90234375,-994.62890625,43.9453125,77.63671875,46.875
1771544918.9280937,-16.11328125,997.0703125,43.9453125,85.44921875,15.625
1771544918.931125,-25.87890625,-1000.0,41.50390625,84.9609375,45.8984375
1771544918.9350312,-48.828125,998.046875,43.9453125,81.0546875,47.36328125
1771544918.9389374,-36.1328125,-997.0703125,48.33984375,83.0078125,41.9921875
1771544918.9428437,-12.6953125,987.3046875,45.8984375,79.58984375,41.9921875
1771544918.94675,-19.04296875,982.91015625,46.875,86.42578125,-5.37109375
1771544918.9506562,-38.0859375,999.0234375,50.78125,82.51953125,-44.921875
1771544918.9545624,-35.15625,-995.60546875,50.29296875,75.1953125,1.46484375
1771544918.9584687,-3.41796875,987.79296875,47.8515625,75.1953125,40.52734375
1771544918.962375,-5.859375,962.40234375,46.875,94.7265625,26.85546875
1771544918.9662812,-37.109375,996.09375,46.38671875,68.359375,-8.30078125
1771544918.9701874,-38.0859375,-997.55859375,45.41015625,48.828125,33.69140625
1771544918.9740937,2.9296875,997.0703125,43.45703125,70.80078125,27.34375
1771544918.975125,19.04296875,999.51171875,41.50390625,61.03515625,18.06640625
1771544918.9790313,-40.52734375,999.51171875,41.50390625,59.5703125,25.87890625
1771544918.9829376,-59.5703125,999.0234375,41.9921875,53.22265625,15.13671875
1771544918.9868438,-22.94921875,999.51171875,41.50390625,45.41015625,14.16015625
1771544918.99075,-12.6953125,-1000.0,44.43359375,58.59375,-1.46484375
1771544918.9946563,-32.2265625,979.98046875,43.9453125,53.22265625,11.23046875
1771544918.9985626,-49.8046875,-966.30859375,42.96875,56.640625,15.13671875
1771544919.0024688,-36.1328125,843.26171875,46.875,62.01171875,-22.4609375
1771544919.006375,-15.13671875,752.9296875,50.29296875,55.6640625,17.08984375
1771544919.0102813,-15.625,-993.65234375,44.921875,54.19921875,29.78515625
1771544919.0141876,-50.78125,-994.140625,39.0625,50.78125,35.64453125
1771544919.0180938,-43.45703125,990.72265625,40.52734375,53.7109375,101.5625
1771544919.020125,-13.671875,998.046875,45.41015625,49.31640625,67.3828125
1771544919.0240312,-19.04296875,-989.2578125,44.921875,46.875,36.62109375
1771544919.0279374,-35.15625,944.3359375,41.50390625,48.828125,28.80859375
1771544919.0318437,-43.9453125,931.15234375,46.875,53.7109375,45.8984375
1771544919.03575,-25.87890625,-982.421875,47.8515625,62.5,90.8203125
1771544919.0396562,-7.32421875,874.0234375,41.50390625,52.24609375,85.44921875
1771544919.0435624,-37.59765625,583.49609375,44.43359375,54.19921875,83.49609375
1771544919.0474687,-68.359375,691.89453125,44.921875,46.875,45.41015625
1771544919.051375,-37.109375,925.78125,39.0625,26.85546875,-9.765625
1771544919.0552812,-7.8125,927.24609375,42.48046875,40.0390625,41.50390625
1771544919.0591874,-42.48046875,561.03515625,42.96875,42.48046875,69.3359375
1771544919.0630937,-87.40234375,332.51953125,41.9921875,24.90234375,40.0390625
1771544919.065125,-63.4765625,816.89453125,41.015625,32.71484375,75.68359375
1771544919.0690312,-22.94921875,904.296875,41.9921875,46.875,97.65625
1771544919.0729375,-28.80859375,593.75,41.9921875,28.80859375,55.6640625
1771544919.0768437,-63.96484375,603.02734375,39.0625,17.08984375,32.2265625
1771544919.08075,-57.6171875,783.203125,38.57421875,16.6015625,40.0390625
1771544919.0846562,-31.25,626.953125,39.55078125,25.390625,47.36328125
1771544919.0885625,-37.109375,165.0390625,40.52734375,39.0625,60.05859375
1771544919.0924687,-67.87109375,113.76953125,38.57421875,29.296875,43.9453125
1771544919.096375,-76.66015625,528.80859375,36.62109375,26.3671875,5.37109375
1771544919.1002812,-48.33984375,570.80078125,38.0859375,34.1796875,-10.7421875
1771544919.1041875,-35.15625,313.4765625,38.57421875,43.45703125,8.30078125
1771544919.1080937,-58.10546875,391.11328125,34.66796875,39.0625,47.36328125
1771544919.110125,-82.03125,588.8671875,37.59765625,31.25,49.8046875
1771544919.1140313,-58.59375,502.44140625,38.57421875,40.0390625,12.6953125
1771544919.1179376,-44.921875,347.65625,33.69140625,43.45703125,28.80859375
1771544919.1218438,-51.7578125,330.078125,35.64453125,36.62109375,37.59765625
1771544919.12575,-71.2890625,426.7578125,39.55078125,32.2265625,52.734375
1771544919.1296563,-63.96484375,268.5546875,40.0390625,36.1328125,59.08203125
1771544919.1335626,-32.2265625,-114.2578125,38.0859375,28.3203125,-22.94921875
1771544919.1374688,-35.64453125,114.74609375,36.62109375,12.6953125,20.99609375
1771544919.141375,-54.6875,334.47265625,36.62109375,10.7421875,32.71484375
1771544919.1452813,-62.5,309.08203125,35.15625,25.87890625,-20.99609375
1771544919.1491876,-43.45703125,239.2578125,35.64453125,33.203125,39.55078125
1771544919.1530938,-20.5078125,160.64453125,36.62109375,25.87890625,8.7890625
1771544919.170125,-39.55078125,177.24609375,37.59765625,21.97265625,-52.24609375
1771544919.1740313,-58.10546875,150.390625,37.109375,32.2265625,-23.4375
1771544919.1779375,-30.76171875,247.0703125,32.71484375,35.15625,44.921875
1771544919.1818438,-20.5078125,363.76953125,35.15625,27.34375,113.28125
1771544919.18575,-46.38671875,237.79296875,38.0859375,35.64453125,68.359375
1771544919.1896563,-59.5703125,116.69921875,34.1796875,36.1328125,40.0390625
1771544919.1935625,-41.50390625,167.48046875,28.80859375,25.87890625,20.01953125
1771544919.1974688,-21.97265625,233.3984375,31.73828125,30.76171875,-30.2734375
1771544919.201375,-32.71484375,175.29296875,34.1796875,44.43359375,35.15625
1771544919.2052813,-51.7578125,-47.36328125,32.2265625,19.53125,41.015625
1771544919.2091875,-32.2265625,171.875,33.203125,10.7421875,28.3203125
1771544919.2130938,-6.34765625,434.5703125,31.73828125,20.01953125,45.41015625
1771544919.215125,-12.6953125,146.97265625,30.2734375,1.46484375,55.6640625
1771544919.2190313,-45.41015625,-22.4609375,29.78515625,8.30078125,22.4609375
1771544919.2229376,-49.31640625,322.75390625,30.76171875,24.4140625,14.16015625
1771544919.2268438,-19.04296875,435.546875,29.296875,11.23046875,24.4140625
1771544919.23075,-2.9296875,178.7109375,29.78515625,19.04296875,25.87890625
1771544919.2346563,-23.92578125,-25.87890625,28.3203125,21.484375,24.4140625
1771544919.2385626,-57.6171875,117.1875,24.90234375,17.578125,-21.97265625
1771544919.2424688,-38.57421875,454.58984375,26.85546875,18.5546875,52.24609375
1771544919.246375,-6.8359375,150.87890625,30.76171875,25.87890625,80.56640625
1771544919.2502813,-21.97265625,-190.4296875,29.78515625,31.25,83.984375
1771544919.2541876,-56.15234375,226.5625,31.73828125,23.4375,75.68359375
1771544919.2580938,-40.0390625,432.12890625,34.66796875,24.90234375,5.37109375
1771544919.260125,-9.765625,197.75390625,32.71484375,38.0859375,-45.41015625
1771544919.2640312,-6.34765625,120.1171875,31.73828125,34.66796875,-15.625
1771544919.2679374,-33.203125,292.48046875,30.76171875,18.5546875,83.49609375
1771544919.2718437,-1.953125,222.16796875,30.2734375,50.78125,9.27734375
1771544919.27575,69.3359375,4.8828125,40.0390625,91.30859375,-72.265625
1771544919.2796562,43.45703125,-37.109375,34.1796875,72.75390625,4.8828125
1771544919.2835624,-7.32421875,97.65625,22.94921875,52.734375,73.73046875
1771544919.2874687,27.34375,351.07421875,15.625,77.1484375,62.98828125
1771544919.291375,69.82421875,87.40234375,7.32421875,62.5,11.71875
1771544919.2952812,108.88671875,-10.25390625,7.8125,98.14453125,22.94921875
1771544919.2991874,126.953125,367.1875,2.44140625,151.85546875,52.24609375
1771544919.3030937,143.5546875,374.0234375,-1.953125,185.546875,36.1328125
1771544919.305125,177.24609375,308.10546875,-2.9296875,204.1015625,11.23046875
1771544919.3090312,197.265625,339.84375,3.41796875,204.58984375,11.71875
1771544919.3129375,196.2890625,306.640625,12.6953125,221.19140625,32.2265625
1771544919.3168437,152.83203125,270.99609375,10.25390625,214.84375,33.203125
1771544919.32075,150.390625,386.23046875,6.8359375,200.68359375,89.84375
1771544919.3246562,183.10546875,242.1875,9.27734375,192.87109375,62.5
1771544919.3285625,183.59375,-15.13671875,12.6953125,193.84765625,-18.5546875
1771544919.3324687,150.87890625,-81.0546875,16.6015625,186.03515625,-5.37109375
1771544919.336375,140.625,-130.37109375,18.06640625,165.0390625,50.29296875
1771544919.3402812,162.109375,221.6796875,16.11328125,150.390625,140.13671875
1771544919.3441875,147.4609375,373.53515625,15.625,151.3671875,109.86328125
1771544919.3480937,108.3984375,180.17578125,19.04296875,158.203125,20.5078125
1771544919.350125,103.515625,319.82421875,20.5078125,147.4609375,37.109375
1771544919.3540313,111.81640625,456.54296875,20.99609375,131.8359375,78.125
1771544919.3579376,108.3984375,246.58203125,20.5078125,123.53515625,54.6875
1771544919.3618438,95.21484375,56.15234375,18.5546875,113.28125,26.3671875
1771544919.36575,79.58984375,213.8671875,20.01953125,103.515625,32.2265625
1771544919.3696563,95.21484375,226.5625,24.90234375,109.86328125,18.5546875
1771544919.3735626,97.16796875,44.43359375,23.92578125,114.2578125,28.80859375
1771544919.3774688,74.21875,-297.36328125,22.94921875,99.12109375,41.9921875
1771544919.381375,52.734375,-237.79296875,24.90234375,91.30859375,1.953125
1771544919.3852813,64.453125,397.94921875,26.85546875,102.5390625,30.2734375
1771544919.3891876,74.70703125,318.84765625,24.90234375,96.19140625,38.57421875
1771544919.3930938,65.91796875,9.27734375,22.4609375,89.84375,-4.8828125
1771544919.395125,41.015625,186.5234375,21.484375,79.1015625,16.11328125
1771544919.3990312,31.25,416.50390625,22.4609375,80.078125,32.71484375
1771544919.4029374,62.01171875,280.2734375,21.97265625,73.73046875,22.94921875
1771544919.4068437,68.359375,124.0234375,21.97265625,62.98828125,59.08203125
1771544919.41075,23.92578125,217.7734375,25.87890625,77.1484375,83.49609375
1771544919.4146562,9.27734375,271.97265625,23.92578125,72.75390625,61.03515625
1771544919.4185624,56.15234375,17.578125,19.53125,71.77734375,14.6484375
1771544919.4224687,54.19921875,-180.17578125,20.01953125,65.4296875,40.52734375
1771544919.426375,12.20703125,67.3828125,19.04296875,56.15234375,36.62109375
1771544919.4302812,-8.30078125,291.9921875,20.5078125,52.734375,-34.66796875
1771544919.4341874,16.11328125,147.94921875,23.4375,61.03515625,9.765625
1771544919.4380937,38.57421875,-16.11328125,23.4375,76.66015625,23.92578125
1771544919.440125,22.4609375,158.69140625,25.87890625,57.12890625,11.71875
1771544919.4440312,-6.8359375,243.1640625,24.90234375,35.64453125,18.5546875
1771544919.4479375,4.8828125,263.671875,25.390625,42.96875,18.5546875
1771544919.4518437,30.2734375,242.1875,24.4140625,42.48046875,31.73828125
1771544919.45575,21.97265625,165.0390625,23.92578125,34.1796875,32.71484375
1771544919.4596562,-14.6484375,62.98828125,22.94921875,32.71484375,29.78515625
1771544919.4635625,-7.8125,-144.53125,24.90234375,51.26953125,13.671875
1771544919.4674687,26.3671875,-82.51953125,28.3203125,44.921875,8.7890625
1771544919.471375,20.5078125,158.203125,27.83203125,35.15625,-35.15625
1771544919.4752812,-2.44140625,111.81640625,26.85546875,32.2265625,-8.30078125
1771544919.4791875,-25.390625,215.8203125,24.4140625,33.69140625,51.26953125
1771544919.4830937,0.9765625,367.1875,23.92578125,41.015625,45.8984375
1771544919.486125,9.27734375,230.95703125,30.76171875,31.25,49.31640625
1771544919.4900312,-17.578125,-67.3828125,29.78515625,17.08984375,1.46484375
1771544919.4939375,-27.34375,-54.19921875,24.4140625,16.11328125,-27.34375
1771544919.4978437,-5.37109375,280.2734375,25.390625,20.99609375,0.9765625
1771544919.50175,39.55078125,324.21875,23.4375,44.43359375,33.203125
1771544919.5056562,41.015625,-89.84375,23.4375,49.8046875,20.01953125
1771544919.5095625,-11.23046875,-194.82421875,24.4140625,24.4140625,12.20703125
1771544919.5134687,3.41796875,311.5234375,24.90234375,44.921875,51.7578125
1771544919.517375,60.546875,433.59375,20.99609375,77.1484375,97.16796875
1771544919.5212812,56.640625,105.46875,22.4609375,56.640625,137.6953125
1771544919.5251875,17.578125,-10.7421875,34.1796875,41.9921875,65.4296875
1771544919.5290937,13.18359375,310.546875,31.73828125,60.546875,13.671875
1771544919.544125,60.05859375,376.953125,29.296875,97.16796875,61.5234375
1771544919.5480313,100.5859375,185.05859375,28.3203125,115.72265625,82.51953125
1771544919.5519376,79.1015625,36.1328125,25.390625,111.81640625,69.3359375
1771544919.5558438,61.03515625,154.296875,23.92578125,106.93359375,60.05859375
1771544919.55975,97.16796875,343.26171875,22.4609375,104.98046875,24.4140625
1771544919.5636563,114.2578125,-155.76171875,20.5078125,125.9765625,-5.859375
1771544919.5675626,93.26171875,-357.421875,24.90234375,126.953125,20.01953125
1771544919.5714688,60.05859375,218.26171875,26.3671875,96.19140625,51.7578125
1771544919.575375,71.2890625,337.40234375,24.90234375,91.796875,40.0390625
1771544919.5792813,92.28515625,27.34375,29.78515625,91.796875,0.0
1771544919.5831876,79.1015625,20.5078125,28.3203125,75.1953125,14.6484375
1771544919.5870938,55.17578125,234.86328125,27.83203125,85.44921875,64.453125
1771544919.590125,50.29296875,269.04296875,30.76171875,91.30859375,77.1484375
1771544919.5940313,73.73046875,152.34375,31.73828125,78.61328125,48.33984375
1771544919.5979376,64.94140625,57.6171875,32.2265625,70.80078125,-13.671875
1771544919.6018438,40.0390625,87.40234375,30.76171875,64.453125,-5.859375
1771544919.60575,31.73828125,184.08203125,32.71484375,69.82421875,54.19921875
1771544919.6096563,41.015625,36.1328125,30.76171875,71.2890625,6.34765625
1771544919.6135626,67.3828125,-111.81640625,30.76171875,66.40625,15.13671875
1771544919.6174688,39.55078125,-47.8515625,31.73828125,46.875,67.3828125
1771544919.621375,14.16015625,-16.6015625,28.3203125,38.0859375,45.41015625
1771544919.6252813,38.0859375,-228.02734375,31.73828125,53.22265625,25.87890625
1771544919.6291876,38.0859375,-86.42578125,31.25,56.640625,-11.23046875
1771544919.6330938,24.4140625,170.8984375,26.85546875,51.7578125,26.85546875
1771544919.635125,2.44140625,176.26953125,28.3203125,41.015625,37.109375
1771544919.6390312,19.04296875,241.2109375,28.80859375,53.7109375,-33.69140625
1771544919.6429374,51.7578125,254.39453125,27.34375,58.10546875,-13.18359375
1771544919.6468437,36.62109375,117.67578125,26.85546875,36.1328125,14.6484375
1771544919.65075,-1.953125,44.921875,25.390625,39.55078125,3.90625
1771544919.6546562,14.16015625,129.8828125,24.4140625,42.48046875,38.0859375
1771544919.6585624,43.45703125,91.796875,22.94921875,48.33984375,40.0390625
1771544919.6624687,33.69140625,17.08984375,24.4140625,50.78125,53.7109375
1771544919.666375,6.34765625,-269.53125,21.97265625,18.5546875,81.0546875
1771544919.6702812,-4.39453125,-181.15234375,20.5078125,22.94921875,69.3359375
1771544919.6741874,19.04296875,337.40234375,22.4609375,51.26953125,72.265625
1771544919.6780937,32.71484375,258.7890625,16.6015625,48.33984375,118.65234375
1771544919.680125,4.8828125,62.01171875,18.5546875,35.15625,89.35546875
1771544919.6840312,-20.5078125,202.1484375,24.90234375,31.73828125,-0.9765625
1771544919.6879375,12.20703125,325.68359375,23.92578125,28.3203125,-5.37109375
1771544919.6918437,32.2265625,111.328125,22.4609375,45.41015625,7.32421875
1771544919.69575,22.4609375,2.44140625,22.94921875,57.6171875,55.6640625
1771544919.6996562,14.6484375,25.390625,24.90234375,50.29296875,47.8515625
1771544919.7035625,16.6015625,133.7890625,22.94921875,53.7109375,-11.71875
1771544919.7074687,38.57421875,19.04296875,25.87890625,60.546875,6.34765625
1771544919.711375,50.78125,-282.71484375,24.90234375,56.640625,41.50390625
1771544919.7152812,14.16015625,-68.359375,22.94921875,31.73828125,12.6953125
1771544919.7191875,11.23046875,274.90234375,30.2734375,61.03515625,38.57421875
1771544919.7230937,73.2421875,75.1953125,28.80859375,93.75,40.52734375
1771544919.725125,46.38671875,-171.875,24.4140625,38.57421875,46.875
1771544919.7290313,-49.31640625,140.625,23.4375,-37.59765625,64.453125
1771544919.7329376,-99.12109375,266.6015625,22.4609375,-68.84765625,25.87890625
1771544919.7368438,-98.6328125,196.77734375,15.625,-79.1015625,9.27734375
1771544919.74075,-118.1640625,121.09375,8.7890625,-116.2109375,44.43359375
1771544919.7446563,-168.9453125,-54.19921875,15.625,-151.85546875,31.73828125
1771544919.7485626,-208.0078125,-59.08203125,17.578125,-169.921875,-39.0625
1771544919.7524688,-223.14453125,-115.234375,10.7421875,-199.70703125,19.53125
1771544919.756375,-218.26171875,-125.48828125,14.16015625,-221.19140625,78.125
1771544919.7602813,-217.28515625,135.7421875,19.53125,-207.51953125,54.6875
1771544919.7641876,-245.60546875,83.0078125,20.99609375,-228.02734375,-2.44140625
1771544919.7680938,-246.58203125,173.828125,21.97265625,-239.74609375,41.9921875
1771544919.771125,-207.03125,141.11328125,22.94921875,-210.44921875,43.45703125
1771544919.7750313,-181.640625,31.73828125,27.34375,-189.453125,-20.5078125
1771544919.7789376,-194.82421875,15.625,27.34375,-178.22265625,53.7109375
1771544919.7828438,-193.359375,43.9453125,22.4609375,-162.109375,82.03125
1771544919.78675,-147.4609375,184.08203125,24.4140625,-138.18359375,-0.48828125
1771544919.7906563,-124.51171875,38.0859375,26.3671875,-123.53515625,4.39453125
1771544919.7945626,-132.8125,-232.91015625,26.3671875,-124.0234375,31.25
1771544919.7984688,-142.578125,-226.5625,23.92578125,-117.67578125,23.4375
1771544919.802375,-112.79296875,156.73828125,25.87890625,-108.3984375,14.16015625
1771544919.8062813,-89.35546875,255.37109375,26.85546875,-101.5625,36.1328125
1771544919.8101876,-111.81640625,101.5625,30.76171875,-90.33203125,103.515625
1771544919.8140938,-129.8828125,87.890625,35.15625,-94.23828125,61.5234375
1771544919.816125,-108.88671875,304.19921875,30.2734375,-85.44921875,40.0390625
1771544919.8200312,-77.63671875,286.62109375,29.78515625,-63.96484375,82.03125
1771544919.8239374,-65.91796875,-26.3671875,31.73828125,-56.15234375,62.98828125
1771544919.8278437,-82.03125,42.96875,28.3203125,-54.6875,84.9609375
1771544919.83175,-70.3125,289.0625,27.83203125,-46.875,61.5234375
1771544919.8356562,-41.015625,80.56640625,27.34375,-39.55078125,-25.87890625
1771544919.8395624,-35.64453125,-402.83203125,24.90234375,-49.31640625,-6.34765625
1771544919.8434687,-58.59375,-437.5,25.390625,-53.7109375,34.66796875
1771544919.847375,-71.77734375,175.78125,27.83203125,-42.96875,32.2265625
1771544919.8512812,-42.96875,299.8046875,26.85546875,-41.50390625,56.15234375
1771544919.8551874,-24.90234375,51.7578125,23.92578125,-26.3671875,44.43359375
1771544919.8590937,-27.34375,86.9140625,25.87890625,-22.94921875,49.8046875
1771544919.875125,-47.8515625,303.22265625,28.80859375,-37.109375,106.93359375
1771544919.8790312,-35.64453125,271.484375,30.2734375,-18.5546875,95.21484375
1771544919.8829374,-9.27734375,20.01953125,28.80859375,-18.5546875,14.16015625
1771544919.8868437,-27.34375,-3.41796875,27.34375,-14.16015625,8.7890625
1771544919.89075,-35.15625,97.16796875,26.3671875,-12.6953125,-9.27734375
1771544919.8946562,-19.53125,0.48828125,25.87890625,-16.6015625,-20.99609375
1771544919.8985624,-13.671875,-396.97265625,31.25,-0.9765625,51.7578125
1771544919.9024687,-24.90234375,-313.4765625,28.80859375,0.48828125,1.46484375
1771544919.906375,-48.828125,96.6796875,27.83203125,-15.13671875,-21.97265625
1771544919.9102812,-39.55078125,221.19140625,31.25,-14.16015625,37.109375
1771544919.9141874,-5.37109375,236.81640625,30.2734375,1.46484375,75.68359375
1771544919.9180937,12.20703125,162.109375,29.78515625,0.9765625,51.7578125
1771544919.920125,-10.25390625,83.0078125,29.296875,-4.39453125,6.8359375
1771544919.9240313,-19.53125,102.5390625,28.80859375,1.953125,-11.23046875
1771544919.9279375,-3.90625,167.48046875,29.296875,5.859375,9.765625
1771544919.9318438,5.859375,145.5078125,29.78515625,11.23046875,28.3203125
1771544919.93575,-2.44140625,80.56640625,27.83203125,17.578125,50.29296875
1771544919.9396563,-15.625,44.921875,28.3203125,11.23046875,55.17578125
1771544919.9435625,-0.9765625,32.71484375,30.2734375,-13.18359375,31.25
1771544919.9474688,20.01953125,-32.2265625,31.25,-5.37109375,-10.25390625
1771544919.951375,24.90234375,-8.30078125,31.25,16.11328125,-8.7890625
1771544919.9552813,-4.39453125,-224.609375,29.78515625,9.27734375,42.48046875
1771544919.9591875,-11.71875,-157.2265625,30.2734375,17.578125,68.84765625
1771544919.9630938,20.99609375,279.78515625,30.76171875,27.83203125,76.171875
1771544919.965125,30.2734375,104.00390625,30.76171875,20.01953125,32.2265625
1771544919.9690313,0.48828125,-23.4375,28.80859375,14.6484375,-33.69140625
1771544919.9729376,-15.13671875,272.94921875,29.78515625,3.90625,9.27734375
1771544919.9768438,7.8125,337.40234375,32.71484375,15.625,45.8984375
1771544919.98075,16.11328125,35.15625,29.78515625,24.4140625,9.765625
1771544919.9846563,-1.953125,-177.734375,28.3203125,12.20703125,4.8828125
1771544919.9885626,-15.625,-33.69140625,31.73828125,11.23046875,30.76171875
1771544919.9924688,3.90625,225.09765625,30.76171875,16.6015625,25.87890625
1771544919.996375,19.04296875,33.69140625,34.1796875,34.1796875,81.54296875
1771544920.0002813,9.27734375,-399.4140625,34.1796875,20.5078125,56.640625
1771544920.0041876,-9.27734375,-58.59375,28.3203125,0.9765625,-8.30078125
1771544920.0080938,8.7890625,305.17578125,30.2734375,26.3671875,-1.46484375
1771544920.010125,34.1796875,0.9765625,30.2734375,43.45703125,-9.27734375
1771544920.0140312,10.7421875,-153.80859375,29.78515625,32.2265625,-3.90625
1771544920.0179374,-8.30078125,121.58203125,25.87890625,9.27734375,30.76171875
1771544920.0218437,6.34765625,246.09375,20.5078125,15.13671875,25.390625
1771544920.02575,31.25,106.4453125,26.85546875,35.64453125,25.390625
1771544920.0296562,32.2265625,-119.62890625,28.3203125,21.484375,50.29296875
1771544920.0335624,-8.30078125,-177.734375,24.90234375,13.18359375,33.203125
1771544920.0374687,-12.20703125,102.5390625,23.92578125,7.8125,45.8984375
1771544920.041375,23.4375,-121.58203125,22.4609375,11.71875,58.59375
1771544920.0452812,34.66796875,-293.45703125,19.53125,22.94921875,37.109375
1771544920.0491874,16.11328125,79.58984375,20.99609375,19.53125,65.91796875
1771544920.0530937,-2.44140625,117.67578125,19.53125,8.7890625,61.03515625
1771544920.055125,20.01953125,34.66796875,23.92578125,22.4609375,23.4375
1771544920.0590312,42.96875,27.83203125,26.85546875,35.15625,17.578125
1771544920.0629375,30.76171875,14.16015625,25.87890625,39.55078125,6.8359375
1771544920.0668437,3.90625,-50.78125,27.83203125,32.2265625,41.50390625
1771544920.07075,15.625,-83.49609375,24.90234375,18.5546875,19.53125
1771544920.0746562,38.0859375,-128.90625,25.87890625,37.59765625,1.953125
1771544920.0785625,18.5546875,-164.55078125,26.85546875,36.62109375,50.29296875
1771544920.0824687,-0.48828125,-186.5234375,28.80859375,14.16015625,43.9453125
1771544920.086375,7.32421875,-258.7890625,33.69140625,8.7890625,47.36328125
1771544920.0902812,22.94921875,31.73828125,33.69140625,19.53125,76.171875
1771544920.0941875,33.69140625,120.1171875,32.2265625,36.1328125,87.890625
1771544920.0980937,13.18359375,-17.578125,31.73828125,31.73828125,106.93359375
1771544920.101125,-2.9296875,11.23046875,28.3203125,18.5546875,8.30078125
1771544920.1050313,26.3671875,135.25390625,28.3203125,18.5546875,-17.578125
1771544920.1089375,43.45703125,-74.21875,32.2265625,49.31640625,47.8515625
1771544920.1128438,25.390625,-296.875,29.78515625,41.9921875,89.35546875
1771544920.11675,-1.46484375,-50.78125,29.78515625,5.37109375,91.796875
1771544920.1206563,6.8359375,0.0,31.73828125,20.5078125,22.94921875
1771544920.1245625,21.97265625,-148.92578125,28.80859375,34.66796875,25.87890625
1771544920.1284688,13.18359375,-447.265625,27.83203125,28.3203125,62.5
1771544920.132375,-5.859375,-419.43359375,31.25,14.6484375,5.37109375
1771544920.1362813,-2.44140625,100.09765625,33.203125,22.4609375,-18.5546875
1771544920.1401875,26.3671875,14.16015625,32.2265625,36.1328125,10.7421875
1771544920.1440938,34.66796875,-203.125,31.73828125,39.55078125,37.59765625
1771544920.145125,26.85546875,-57.6171875,32.71484375,49.31640625,60.05859375
1771544920.1490312,20.5078125,119.62890625,25.390625,42.48046875,33.203125
1771544920.1529374,29.78515625,-6.34765625,24.4140625,23.92578125,42.48046875
1771544920.1568437,44.43359375,-197.265625,17.08984375,27.34375,49.8046875
1771544920.16075,26.85546875,-143.5546875,15.13671875,39.55078125,104.00390625
1771544920.1646562,5.37109375,-83.0078125,24.4140625,35.64453125,104.98046875
1771544920.1685624,29.296875,-278.80859375,27.34375,31.73828125,-0.9765625
1771544920.1724687,50.29296875,-665.52734375,27.83203125,37.59765625,44.921875
1771544920.176375,34.66796875,-475.5859375,23.92578125,37.59765625,60.546875
1771544920.1802812,27.34375,-33.203125,26.3671875,42.96875,7.8125
1771544920.1841874,60.05859375,23.4375,24.4140625,54.6875,30.2734375
1771544920.1880937,66.89453125,-97.16796875,22.4609375,54.19921875,31.73828125
1771544920.189125,41.9921875,-118.65234375,20.5078125,52.24609375,59.5703125
1771544920.1930313,17.578125,-66.89453125,17.08984375,38.0859375,73.73046875
1771544920.1969376,31.73828125,-114.74609375,20.5078125,50.29296875,-8.30078125
1771544920.2008438,56.15234375,-161.1328125,25.390625,57.6171875,-2.9296875
1771544920.20475,55.6640625,-214.84375,26.3671875,50.78125,35.64453125
1771544920.2086563,36.62109375,-344.7265625,24.4140625,45.8984375,10.25390625
1771544920.2125626,29.296875,-539.55078125,24.4140625,41.9921875,20.01953125
1771544920.2164688,54.6875,-573.2421875,29.296875,41.015625,-0.9765625
1771544920.220375,56.640625,-283.203125,26.3671875,45.8984375,0.0
1771544920.2242813,26.85546875,-272.94921875,22.4609375,52.734375,5.859375
1771544920.2281876,2.9296875,-372.55859375,26.85546875,39.0625,-24.4140625
1771544920.2320938,23.92578125,-227.5390625,28.80859375,38.0859375,-5.859375
1771544920.250125,48.33984375,-195.3125,24.4140625,50.78125,-28.3203125
1771544920.2540312,27.83203125,-340.33203125,19.04296875,41.9921875,0.9765625
1771544920.2579374,0.0,-279.296875,29.296875,27.34375,34.66796875
1771544920.2618437,14.16015625,-78.125,30.76171875,29.78515625,11.71875
1771544920.26575,44.43359375,-126.46484375,26.3671875,51.26953125,10.7421875
1771544920.2696562,43.45703125,-527.34375,28.80859375,46.38671875,3.41796875
1771544920.2735624,26.85546875,-742.67578125,26.85546875,35.64453125,4.8828125
1771544920.2774687,48.33984375,-263.18359375,35.15625,66.40625,22.4609375
1771544920.281375,74.21875,-8.30078125,34.1796875,70.80078125,85.44921875
1771544920.2852812,38.57421875,-330.56640625,15.625,33.69140625,66.40625
1771544920.2891874,16.6015625,-383.7890625,16.6015625,22.94921875,34.66796875
1771544920.2930937,47.8515625,-65.4296875,20.01953125,52.734375,51.7578125
1771544920.295125,107.91015625,-75.68359375,16.11328125,93.75,5.37109375
1771544920.2990313,128.41796875,-338.8671875,22.94921875,112.79296875,17.578125
1771544920.3029375,91.796875,-383.7890625,21.97265625,106.93359375,46.38671875
1771544920.3068438,77.63671875,-193.84765625,19.04296875,106.93359375,-2.9296875
1771544920.31075,103.02734375,-145.5078125,20.99609375,108.3984375,-19.04296875
1771544920.3146563,110.3515625,-395.01953125,21.97265625,125.9765625,20.99609375
1771544920.3185625,99.609375,-565.4296875,23.92578125,120.1171875,46.875
1771544920.3224688,75.1953125,-333.984375,25.87890625,88.37890625,32.71484375
1771544920.326375,87.40234375,-139.16015625,26.85546875,104.98046875,29.78515625
1771544920.3302813,109.86328125,-650.390625,23.92578125,111.328125,-23.4375
1771544920.3341875,104.4921875,-789.55078125,23.92578125,91.30859375,-35.64453125
1771544920.3380938,83.0078125,-280.76171875,25.390625,82.51953125,61.03515625
1771544920.340125,89.35546875,-273.4375,26.85546875,86.9140625,80.078125
1771544920.3440313,95.703125,-429.19921875,28.80859375,100.09765625,62.98828125
1771544920.3479376,77.1484375,-395.01953125,25.390625,92.28515625,18.06640625
1771544920.3518438,65.91796875,-322.75390625,27.83203125,70.80078125,12.6953125
1771544920.35575,51.26953125,-247.0703125,30.2734375,71.77734375,67.3828125
1771544920.3596563,68.359375,-393.06640625,30.2734375,91.796875,27.34375
1771544920.3635626,82.51953125,-522.94921875,33.69140625,82.03125,65.4296875
1771544920.3674688,45.41015625,-462.890625,31.73828125,62.98828125,58.59375
1771544920.371375,29.78515625,-494.62890625,29.296875,66.40625,12.6953125
1771544920.3752813,58.59375,-614.2578125,29.296875,65.4296875,30.76171875
1771544920.3791876,70.80078125,-340.33203125,27.83203125,72.265625,89.84375
1771544920.3830938,57.12890625,-286.62109375,26.85546875,71.2890625,69.82421875
1771544920.387125,33.69140625,-375.48828125,31.73828125,60.05859375,4.39453125
1771544920.3910313,41.50390625,-214.35546875,28.80859375,62.98828125,44.921875
1771544920.3949375,59.5703125,-301.7578125,24.4140625,64.453125,58.10546875
1771544920.3988438,50.29296875,-450.1953125,26.3671875,54.6875,43.9453125
1771544920.40275,23.92578125,-528.80859375,26.85546875,41.015625,27.83203125
1771544920.4066563,33.69140625,-469.23828125,25.390625,54.6875,59.08203125
1771544920.4105625,59.08203125,-428.22265625,26.85546875,63.4765625,35.15625
1771544920.4144688,52.734375,-447.75390625,25.390625,42.96875,17.08984375
1771544920.418375,35.64453125,-714.35546875,23.92578125,42.96875,48.828125
1771544920.4222813,25.87890625,-557.12890625,24.4140625,40.52734375,84.47265625
1771544920.4261875,43.45703125,-114.2578125,21.484375,47.8515625,51.7578125
1771544920.4300938,55.6640625,-350.5859375,24.90234375,58.10546875,18.06640625
1771544920.430125,42.48046875,-511.23046875,28.3203125,41.9921875,35.64453125
1771544920.4340312,14.16015625,-301.7578125,27.83203125,36.62109375,22.94921875
1771544920.4379375,21.484375,-163.0859375,29.296875,39.55078125,13.18359375
1771544920.4418437,49.8046875,-342.7734375,28.80859375,34.66796875,50.78125
1771544920.44575,32.2265625,-577.1484375,29.78515625,24.4140625,54.6875
1771544920.4496562,7.8125,-634.27734375,30.76171875,17.578125,-12.6953125
1771544920.4535625,22.4609375,-421.38671875,30.76171875,18.06640625,14.6484375
1771544920.4574687,30.76171875,-458.49609375,28.80859375,25.87890625,56.640625
1771544920.461375,16.6015625,-921.38671875,28.80859375,38.57421875,51.26953125
1771544920.4652812,3.90625,-705.56640625,29.296875,37.59765625,34.1796875
1771544920.4691875,14.6484375,-168.9453125,26.3671875,29.296875,36.62109375
1771544920.4730937,34.66796875,-224.609375,26.85546875,23.92578125,37.59765625
1771544920.475125,34.1796875,-426.26953125,26.3671875,43.45703125,0.48828125
1771544920.4790313,13.671875,-380.37109375,30.76171875,38.57421875,21.484375
1771544920.4829376,4.8828125,-239.2578125,31.25,27.83203125,46.875
1771544920.4868438,29.78515625,-284.1796875,26.85546875,40.0390625,13.671875
1771544920.49075,40.52734375,-437.01171875,26.85546875,38.57421875,-22.94921875
1771544920.4946563,18.06640625,-604.00390625,26.3671875,28.3203125,14.6484375
1771544920.4985626,9.27734375,-509.27734375,25.390625,24.90234375,20.99609375
1771544920.5024688,46.875,-610.3515625,22.94921875,44.921875,22.94921875
1771544920.506375,53.7109375,-808.10546875,26.85546875,37.59765625,57.6171875
1771544920.5102813,30.76171875,-485.3515625,26.3671875,28.80859375,33.203125
1771544920.5141876,7.32421875,-358.3984375,25.390625,30.76171875,44.921875
1771544920.5180938,18.5546875,-334.9609375,30.2734375,35.64453125,15.625
1771544920.520125,55.6640625,-253.90625,30.2734375,49.31640625,24.90234375
1771544920.5240312,47.36328125,-320.80078125,29.296875,41.50390625,53.7109375
1771544920.5279374,13.671875,-483.88671875,28.3203125,28.80859375,25.87890625
1771544920.5318437,17.578125,-340.8203125,27.83203125,26.3671875,85.9375
1771544920.53575,39.55078125,-193.359375,29.296875,26.3671875,108.88671875
1771544920.5396562,43.9453125,-434.08203125,29.78515625,26.3671875,61.03515625
1771544920.5435624,24.4140625,-736.81640625,24.90234375,20.01953125,56.15234375
1771544920.5474687,3.41796875,-779.296875,27.83203125,11.71875,43.9453125
1771544920.551375,20.5078125,-394.04296875,29.78515625,18.5546875,35.64453125
1771544920.5552812,41.50390625,-398.4375,22.4609375,20.99609375,17.578125
1771544920.5591874,25.87890625,-738.28125,25.390625,20.99609375,-28.80859375
1771544920.5630937,-9.27734375,-604.4921875,30.2734375,13.671875,-29.296875
1771544920.569125,14.16015625,-239.74609375,29.78515625,20.99609375,-14.16015625
1771544920.5730312,58.10546875,-228.02734375,28.80859375,39.0625,70.3125
1771544920.5769374,31.25,-455.078125,29.296875,40.52734375,89.35546875
1771544920.5808437,-9.27734375,-482.91015625,24.90234375,32.2265625,15.13671875
1771544920.58475,1.953125,-265.625,23.4375,21.97265625,12.20703125
1771544920.5886562,26.85546875,-352.5390625,28.3203125,31.73828125,72.265625
1771544920.5925624,39.0625,-822.265625,25.87890625,38.57421875,59.08203125
1771544920.5964687,17.08984375,-812.5,21.484375,20.01953125,43.9453125
1771544920.600375,2.44140625,-244.140625,21.97265625,1.46484375,93.26171875
1771544920.6042812,21.97265625,-171.875,23.92578125,16.6015625,130.859375
1771544920.6081874,36.1328125,-402.34375,29.78515625,43.9453125,132.8125
1771544920.6120937,25.390625,-501.953125,32.71484375,28.80859375,107.421875
1771544920.611125,8.7890625,-390.625,28.3203125,12.6953125,50.78125
1771544920.6150312,27.34375,-386.23046875,27.83203125,30.2734375,27.34375
1771544920.6189375,41.50390625,-678.7109375,30.2734375,36.1328125,9.27734375
1771544920.6228437,22.4609375,-624.51171875,26.85546875,27.34375,12.20703125
1771544920.62675,7.8125,-380.37109375,33.203125,20.99609375,67.87109375
1771544920.6306562,11.71875,-544.921875,33.69140625,22.4609375,28.3203125
1771544920.6345625,34.1796875,-926.26953125,25.390625,33.69140625,-39.0625
1771544920.6384687,45.41015625,-743.65234375,28.3203125,27.34375,-10.7421875
1771544920.642375,13.671875,-505.859375,31.73828125,13.671875,9.27734375
1771544920.6462812,-5.37109375,-456.54296875,28.3203125,18.06640625,-7.32421875
1771544920.6501875,26.85546875,-471.6796875,25.87890625,26.85546875,12.20703125
1771544920.6540937,35.15625,-553.7109375,27.34375,36.62109375,73.2421875
1771544920.670125,5.37109375,-502.44140625,26.3671875,23.92578125,105.95703125
1771544920.6740313,0.48828125,-499.51171875,26.85546875,19.04296875,74.21875
1771544920.6779375,28.80859375,-561.5234375,28.3203125,34.1796875,75.1953125
1771544920.6818438,43.45703125,-520.01953125,23.92578125,24.90234375,98.6328125
1771544920.68575,19.53125,-539.55078125,20.99609375,18.5546875,58.59375
1771544920.6896563,2.44140625,-827.63671875,24.90234375,25.87890625,8.7890625
1771544920.6935625,27.83203125,-878.41796875,25.87890625,34.66796875,21.484375
1771544920.6974688,44.921875,-590.33203125,25.87890625,37.109375,-0.9765625
1771544920.701375,28.80859375,-658.203125,28.80859375,30.76171875,9.765625
1771544920.7052813,21.484375,-791.015625,27.34375,26.85546875,8.30078125
1771544920.7091875,38.57421875,-527.83203125,25.390625,41.015625,32.71484375
1771544920.7130938,41.015625,-406.73828125,27.83203125,51.26953125,53.7109375
1771544920.715125,44.43359375,-672.8515625,26.85546875,41.50390625,61.03515625
1771544920.7190313,35.15625,-828.125,24.90234375,34.1796875,-0.48828125
1771544920.7229376,11.71875,-588.8671875,27.34375,29.78515625,-58.59375
1771544920.7268438,26.85546875,-462.40234375,26.85546875,39.0625,12.6953125
1771544920.73075,38.57421875,-741.69921875,27.83203125,50.29296875,45.8984375
1771544920.7346563,13.671875,-996.09375,29.78515625,30.76171875,15.625
1771544920.7385626,3.90625,-745.1171875,29.78515625,14.16015625,16.6015625
1771544920.7424688,27.34375,-452.63671875,30.2734375,26.85546875,20.99609375
1771544920.746375,39.55078125,-729.00390625,29.78515625,41.015625,13.18359375
1771544920.7502813,20.99609375,-977.05078125,33.69140625,35.64453125,19.53125
1771544920.7541876,-6.34765625,-684.5703125,35.15625,21.484375,-1.46484375
1771544920.7580938,10.25390625,-426.26953125,32.2265625,23.4375,9.27734375
1771544920.760125,34.66796875,-576.171875,33.203125,40.0390625,47.36328125
1771544920.7640312,28.80859375,-727.05078125,36.1328125,42.48046875,50.29296875
1771544920.7679374,12.20703125,-637.6953125,35.15625,26.3671875,7.32421875
1771544920.7718437,26.85546875,-477.5390625,35.15625,26.85546875,28.80859375
1771544920.77575,38.57421875,-595.21484375,31.25,32.71484375,45.41015625
1771544920.7796562,8.7890625,-884.765625,28.80859375,28.80859375,7.8125
1771544920.7835624,-6.34765625,-897.4609375,28.80859375,27.83203125,43.45703125
1771544920.7874687,-5.859375,-724.12109375,30.76171875,21.97265625,73.2421875
1771544920.791375,20.5078125,-854.4921875,29.78515625,28.80859375,51.7578125
1771544920.7952812,32.2265625,-949.21875,26.3671875,27.34375,42.48046875
1771544920.7991874,4.39453125,-666.9921875,31.73828125,16.11328125,60.05859375
1771544920.8030937,-1.953125,-520.99609375,32.71484375,25.87890625,63.4765625
1771544920.805125,25.87890625,-529.78515625,32.2265625,30.76171875,41.015625
1771544920.8090312,39.55078125,-519.04296875,30.76171875,33.203125,60.546875
1771544920.8129375,20.99609375,-621.58203125,29.296875,33.203125,20.5078125
1771544920.8168437,-2.44140625,-666.9921875,32.2265625,7.8125,8.30078125
1771544920.82075,6.8359375,-582.03125,28.80859375,10.7421875,17.08984375
1771544920.8246562,31.73828125,-719.7265625,27.83203125,27.34375,13.671875
1771544920.8285625,26.85546875,-796.875,31.73828125,26.85546875,26.85546875
1771544920.8324687,0.9765625,-794.921875,32.2265625,17.08984375,35.64453125
1771544920.836375,13.18359375,-885.25390625,27.34375,8.30078125,57.12890625
1771544920.8402812,42.48046875,-742.1875,29.78515625,22.4609375,20.99609375
1771544920.8441875,21.97265625,-636.71875,33.69140625,25.390625,13.671875
1771544920.8480937,-20.99609375,-793.9453125,31.25,12.6953125,4.8828125
1771544920.850125,-17.08984375,-625.9765625,32.71484375,9.27734375,75.68359375
1771544920.8540313,22.4609375,-331.0546875,33.203125,20.01953125,107.91015625
1771544920.8579376,30.76171875,-510.7421875,34.1796875,31.73828125,62.01171875
1771544920.8618438,13.18359375,-664.0625,35.15625,34.66796875,83.984375
1771544920.86575,-4.8828125,-542.96875,30.76171875,14.16015625,70.80078125
1771544920.8696563,13.18359375,-542.96875,31.73828125,14.16015625,30.2734375
1771544920.8735626,21.484375,-761.23046875,31.25,24.4140625,41.50390625
1771544920.8774688,5.37109375,-946.77734375,27.83203125,20.5078125,50.29296875
1771544920.881375,-11.71875,-865.72265625,27.83203125,6.8359375,-31.73828125
1771544920.8852813,-0.9765625,-437.5,27.83203125,10.7421875,-2.9296875
1771544920.8891876,23.4375,-450.1953125,31.25,29.296875,62.98828125
1771544920.8930938,15.625,-775.390625,30.76171875,36.62109375,51.7578125
1771544920.895125,-7.8125,-727.05078125,28.80859375,19.04296875,38.57421875
1771544920.8990312,7.32421875,-362.3046875,32.2265625,14.16015625,76.171875
1771544920.9029374,36.1328125,-518.5546875,29.78515625,34.66796875,40.0390625
1771544920.9068437,32.2265625,-902.34375,24.4140625,23.92578125,-25.87890625
1771544920.91075,12.20703125,-711.42578125,28.80859375,11.71875,41.9921875
1771544920.9146562,-4.8828125,-558.10546875,25.87890625,14.6484375,52.24609375
1771544920.9185624,21.484375,-719.23828125,23.4375,22.4609375,68.359375
1771544920.9224687,46.875,-937.5,25.87890625,24.4140625,64.453125
1771544920.926375,5.859375,-772.4609375,23.92578125,12.6953125,28.3203125
1771544920.9302812,-12.20703125,-473.14453125,27.83203125,10.7421875,42.48046875
1771544920.9341874,14.6484375,-436.03515625,25.390625,12.6953125,52.734375
1771544920.9380937,23.4375,-587.890625,27.34375,15.625,28.3203125
1771544920.956125,18.06640625,-628.41796875,33.69140625,26.85546875,20.5078125
1771544920.9600313,1.46484375,-620.60546875,27.34375,12.20703125,38.57421875
1771544920.9639375,17.08984375,-720.21484375,30.2734375,15.13671875,27.34375
1771544920.9678438,38.57421875,-699.21875,33.69140625,30.2734375,12.6953125
1771544920.97175,31.73828125,-667.96875,33.203125,28.3203125,-15.13671875
1771544920.9756563,4.39453125,-817.3828125,32.71484375,20.5078125,0.9765625
1771544920.9795625,-3.41796875,-767.08984375,26.85546875,12.6953125,38.0859375
1771544920.9834688,24.4140625,-549.8046875,27.34375,22.4609375,66.40625
1771544920.987375,35.64453125,-535.64453125,27.83203125,25.87890625,85.9375
1771544920.9912813,13.671875,-627.9296875,28.3203125,18.5546875,96.6796875
1771544920.9951875,7.32421875,-834.47265625,31.73828125,18.06640625,79.1015625
1771544920.9990938,36.1328125,-710.9375,30.2734375,24.4140625,72.265625
1771544920.985125,53.7109375,-516.11328125,32.2265625,34.66796875,92.28515625
1771544920.9890313,34.1796875,-773.92578125,34.1796875,41.015625,34.1796875
1771544920.9929376,12.20703125,-732.421875,32.2265625,25.87890625,48.828125
1771544920.9968438,43.45703125,-483.3984375,36.1328125,22.4609375,53.22265625
1771544921.00075,56.15234375,-642.08984375,34.1796875,46.38671875,76.66015625
1771544921.0046563,34.66796875,-920.8984375,28.3203125,41.9921875,28.3203125
1771544921.0085626,12.20703125,-893.06640625,30.2734375,22.4609375,-24.90234375
1771544921.0124688,15.13671875,-564.453125,30.2734375,31.73828125,54.6875
1771544921.016375,37.109375,-528.80859375,32.71484375,41.015625,18.5546875
1771544921.0202813,49.8046875,-823.73046875,31.73828125,30.2734375,6.8359375
1771544921.0241876,25.87890625,-966.30859375,28.80859375,18.5546875,49.31640625
1771544921.0280938,7.32421875,-711.42578125,32.2265625,22.94921875,-19.53125
1771544921.045125,42.48046875,-475.09765625,27.83203125,39.55078125,44.43359375
1771544921.0490313,47.36328125,-661.62109375,29.78515625,42.48046875,103.515625
1771544921.0529375,18.5546875,-770.5078125,30.76171875,29.78515625,53.22265625
1771544921.0568438,8.30078125,-582.03125,31.25,11.71875,24.4140625
1771544921.06075,34.66796875,-539.0625,32.2265625,37.109375,-7.32421875
1771544921.0646563,50.29296875,-809.5703125,30.2734375,47.8515625,17.578125
1771544921.0685625,36.1328125,-1000.0,30.76171875,35.15625,52.734375
1771544921.0724688,15.625,-838.37890625,29.78515625,42.96875,23.92578125
1771544921.076375,27.34375,-629.8828125,31.73828125,32.2265625,-17.578125
1771544921.0802813,37.59765625,-868.65234375,28.80859375,26.3671875,-3.41796875
1771544921.0841875,26.85546875,-937.98828125,27.34375,34.66796875,75.1953125
1771544921.0880938,9.765625,-700.1953125,27.34375,22.94921875,98.6328125
1771544921.089125,16.6015625,-647.4609375,26.3671875,28.80859375,10.7421875
1771544921.0930312,41.015625,-718.75,28.80859375,44.921875,-15.13671875
1771544921.0969374,33.203125,-710.44921875,27.34375,37.59765625,46.38671875
1771544921.1008437,6.8359375,-662.59765625,26.85546875,33.69140625,76.66015625
1771544921.10475,-0.48828125,-661.1328125,24.90234375,26.85546875,35.15625
1771544921.1086562,35.15625,-795.41015625,26.85546875,35.15625,37.59765625
1771544921.1125624,52.24609375,-889.16015625,32.2265625,45.41015625,30.2734375
1771544921.1164687,31.25,-755.37109375,31.73828125,41.50390625,39.0625
1771544921.120375,8.7890625,-798.828125,27.83203125,31.73828125,29.296875
1771544921.1242812,22.4609375,-987.79296875,24.90234375,27.83203125,12.20703125
1771544921.1281874,39.55078125,-890.13671875,25.87890625,36.1328125,-9.27734375
1771544921.1320937,34.1796875,-752.44140625,28.3203125,36.62109375,9.27734375
1771544921.135125,10.7421875,-741.69921875,26.3671875,22.94921875,18.5546875
1771544921.1390312,22.94921875,-580.56640625,27.34375,18.06640625,51.26953125
1771544921.1429374,75.68359375,-526.3671875,30.76171875,27.34375,75.68359375
1771544921.1468437,54.19921875,-730.46875,31.73828125,44.43359375,21.484375
1771544921.15075,5.859375,-776.3671875,34.66796875,41.50390625,60.05859375
1771544921.1546562,20.01953125,-727.5390625,28.80859375,35.64453125,73.73046875
1771544921.1585624,51.26953125,-832.51953125,26.85546875,34.66796875,-4.8828125
1771544921.1624687,53.22265625,-905.2734375,31.73828125,39.55078125,-41.50390625
1771544921.166375,24.90234375,-982.421875,39.55078125,26.85546875,-41.015625
1771544921.1702812,-2.44140625,-800.29296875,36.62109375,6.34765625,-6.34765625
1771544921.1741874,12.6953125,-477.05078125,31.25,15.625,59.08203125
1771544921.1780937,41.015625,-701.66015625,29.78515625,9.27734375,87.890625
1771544921.180125,5.37109375,-940.91796875,27.34375,-15.13671875,45.8984375
1771544921.1840312,-40.0390625,-647.4609375,30.76171875,-18.5546875,47.36328125
1771544921.1879375,-24.90234375,-403.80859375,34.66796875,-11.71875,74.70703125
1771544921.1918437,9.27734375,-670.41015625,35.64453125,-16.11328125,21.97265625
1771544921.19575,2.9296875,-876.953125,37.59765625,-4.8828125,-0.9765625
1771544921.1996562,-41.015625,-830.078125,39.0625,-20.5078125,40.0390625
1771544921.2035625,-42.48046875,-658.69140625,40.0390625,-33.69140625,41.015625
1771544921.2074687,-12.20703125,-711.42578125,33.203125,-24.90234375,38.0859375
1771544921.211375,-18.06640625,-961.42578125,26.3671875,-45.8984375,41.9921875
1771544921.2152812,-57.6171875,-731.4453125,32.2265625,-41.50390625,48.828125
1771544921.2191875,-51.26953125,-484.86328125,29.296875,-38.0859375,9.27734375
1771544921.2230937,-21.484375,-589.84375,28.3203125,-44.43359375,-13.18359375
1771544921.226125,-32.71484375,-620.1171875,45.41015625,-27.83203125,108.88671875
1771544921.2300313,-68.84765625,-648.4375,47.36328125,-45.41015625,152.83203125
1771544921.2339375,-91.796875,-619.140625,43.45703125,-78.61328125,63.96484375
1771544921.2378438,-61.03515625,-682.12890625,46.38671875,-73.73046875,-7.32421875
1771544921.24175,-43.9453125,-845.21484375,43.9453125,-64.453125,-34.1796875
1771544921.2456563,-67.3828125,-877.9296875,37.59765625,-74.21875,11.23046875
1771544921.2495625,-89.35546875,-728.02734375,37.109375,-85.44921875,63.4765625
1771544921.2534688,-78.61328125,-755.859375,41.50390625,-87.40234375,67.3828125
1771544921.257375,-46.875,-920.41015625,39.55078125,-65.91796875,2.44140625
1771544921.2612813,-43.9453125,-689.94140625,44.43359375,-62.01171875,1.46484375
1771544921.2651875,-73.73046875,-663.0859375,47.36328125,-73.2421875,14.16015625
1771544921.2690938,-88.37890625,-600.09765625,42.48046875,-78.125,14.6484375
1771544921.270125,-69.3359375,-535.64453125,42.48046875,-73.73046875,-5.859375
1771544921.2740312,-35.15625,-621.58203125,42.48046875,-57.12890625,15.13671875
1771544921.2779374,-59.08203125,-709.47265625,39.0625,-65.91796875,40.0390625
1771544921.2818437,-87.40234375,-758.7890625,35.64453125,-75.1953125,-20.5078125
1771544921.28575,-57.12890625,-702.63671875,35.64453125,-58.59375,-19.53125
1771544921.2896562,-32.2265625,-773.92578125,39.55078125,-36.1328125,42.48046875
1771544921.2935624,-41.9921875,-902.34375,40.52734375,-23.92578125,63.96484375
1771544921.2974687,-62.01171875,-996.09375,38.57421875,-36.1328125,24.4140625
1771544921.301375,-24.4140625,-772.4609375,36.1328125,-36.62109375,64.453125
1771544921.3052812,2.44140625,-615.72265625,38.57421875,-15.13671875,24.90234375
1771544921.3091874,-21.97265625,-773.4375,39.55078125,-14.6484375,40.0390625
1771544921.3130937,-26.85546875,-648.4375,29.296875,-14.6484375,105.46875
1771544921.315125,6.34765625,-470.703125,25.390625,15.13671875,46.875
1771544921.3190312,29.78515625,-584.9609375,23.4375,28.3203125,6.34765625
1771544921.3229375,23.92578125,-866.69921875,19.04296875,35.64453125,-33.69140625
1771544921.3268437,25.87890625,-786.1328125,20.99609375,47.36328125,12.6953125
1771544921.33075,40.52734375,-498.53515625,25.390625,41.50390625,54.6875
1771544921.3346562,45.41015625,-628.90625,24.90234375,43.9453125,83.0078125
1771544921.3385625,63.4765625,-926.26953125,24.90234375,57.6171875,102.05078125
1771544921.3424687,56.640625,-927.24609375,28.80859375,60.546875,62.5
1771544921.346375,37.59765625,-557.12890625,21.97265625,51.26953125,42.48046875
1771544921.3502812,63.96484375,-436.5234375,21.97265625,59.5703125,62.98828125
1771544921.3541875,79.58984375,-674.31640625,23.92578125,79.58984375,57.12890625
1771544921.3580937,72.75390625,-661.1328125,17.578125,83.984375,58.59375
1771544921.360125,59.5703125,-463.8671875,21.484375,80.56640625,54.19921875
1771544921.3640313,60.05859375,-506.8359375,25.390625,84.47265625,7.8125
1771544921.3679376,91.796875,-682.6171875,26.85546875,76.66015625,14.16015625
1771544921.3718438,79.58984375,-681.640625,26.85546875,61.5234375,31.25
1771544921.37575,35.64453125,-540.52734375,21.484375,61.5234375,34.1796875
1771544921.3796563,44.921875,-657.71484375,22.94921875,68.84765625,13.18359375
1771544921.3835626,71.2890625,-924.31640625,24.90234375,69.82421875,32.2265625
1771544921.3874688,80.078125,-748.046875,19.53125,71.77734375,49.8046875
1771544921.391375,64.453125,-588.8671875,20.5078125,70.80078125,39.55078125
1771544921.3952813,56.640625,-669.43359375,22.4609375,69.82421875,17.08984375
1771544921.3991876,81.54296875,-634.765625,25.390625,66.89453125,26.85546875
1771544921.4030938,82.03125,-514.6484375,26.85546875,70.3125,57.6171875
1771544921.435125,56.640625,-557.6171875,21.97265625,55.17578125,26.3671875
1771544921.4390314,40.0390625,-504.39453125,22.4609375,44.921875,31.73828125
1771544921.4429376,56.15234375,-448.2421875,25.390625,62.98828125,24.4140625
1771544921.4468439,72.75390625,-476.5625,27.34375,77.63671875,41.015625
1771544921.45075,53.22265625,-543.9453125,26.3671875,62.5,63.4765625
1771544921.4546564,37.109375,-625.48828125,24.4140625,43.9453125,57.6171875
1771544921.4585626,46.38671875,-524.90234375,21.484375,52.24609375,91.796875
1771544921.4624689,62.01171875,-452.63671875,20.99609375,59.5703125,68.84765625
1771544921.466375,64.453125,-572.265625,26.3671875,58.59375,42.48046875
1771544921.4702814,33.203125,-833.0078125,24.90234375,42.96875,36.62109375
1771544921.4741876,30.76171875,-627.9296875,22.94921875,40.52734375,79.58984375
1771544921.4780939,67.87109375,-457.51953125,25.87890625,53.22265625,42.48046875
1771544921.465125,67.3828125,-716.796875,27.34375,48.828125,-10.7421875
1771544921.4690313,27.34375,-788.57421875,24.90234375,42.96875,9.27734375
1771544921.4729376,22.94921875,-456.0546875,23.4375,42.96875,20.99609375
1771544921.4768438,53.22265625,-284.66796875,26.3671875,53.7109375,40.0390625
1771544921.48075,69.3359375,-533.69140625,24.90234375,68.359375,49.8046875
1771544921.4846563,32.71484375,-791.50390625,23.4375,55.6640625,26.3671875
1771544921.4885626,17.08984375,-547.36328125,24.90234375,42.96875,55.6640625
1771544921.4924688,47.8515625,-289.0625,26.3671875,44.921875,45.8984375
1771544921.496375,67.87109375,-557.6171875,28.80859375,47.36328125,23.92578125
1771544921.5002813,59.08203125,-694.82421875,30.2734375,47.8515625,24.4140625
1771544921.5041876,29.78515625,-476.07421875,28.3203125,35.15625,14.16015625
1771544921.5080938,30.76171875,-332.03125,30.76171875,42.48046875,1.46484375
1771544921.510125,52.24609375,-626.953125,36.1328125,51.26953125,12.20703125
1771544921.5140312,54.19921875,-941.40625,34.1796875,42.48046875,43.9453125
1771544921.5179374,26.85546875,-562.98828125,31.73828125,32.2265625,48.33984375
1771544921.5218437,39.55078125,-241.69921875,29.296875,51.26953125,16.11328125
1771544921.52575,68.359375,-425.29296875,26.3671875,62.98828125,45.41015625
1771544921.5296562,58.59375,-650.87890625,27.83203125,51.7578125,89.35546875
1771544921.5335624,30.76171875,-583.984375,34.66796875,37.109375,86.9140625
1771544921.5374687,29.78515625,-347.16796875,30.2734375,37.59765625,30.2734375
1771544921.541375,60.546875,-571.2890625,28.3203125,55.6640625,35.64453125
1771544921.5452812,71.2890625,-740.234375,34.1796875,60.05859375,53.22265625
1771544921.5491874,54.19921875,-390.13671875,33.69140625,49.8046875,52.734375
1771544921.5530937,31.73828125,-334.47265625,32.2265625,49.8046875,15.13671875
1771544921.555125,41.015625,-335.44921875,31.25,62.98828125,0.9765625
1771544921.5590312,65.4296875,-363.28125,34.1796875,56.640625,-8.7890625
1771544921.5629375,47.36328125,-441.89453125,34.66796875,43.9453125,-42.48046875
1771544921.5668437,19.53125,-520.01953125,37.109375,44.921875,-11.23046875
1771544921.57075,30.2734375,-543.45703125,41.50390625,48.828125,-16.11328125
1771544921.5746562,59.5703125,-523.92578125,38.57421875,59.5703125,13.671875
1771544921.5785625,52.734375,-628.90625,36.62109375,57.12890625,8.7890625
1771544921.5824687,10.7421875,-646.484375,36.1328125,29.78515625,37.59765625
1771544921.586375,19.04296875,-715.8203125,35.64453125,29.78515625,10.7421875
1771544921.5902812,43.45703125,-433.10546875,36.62109375,56.15234375,19.04296875
1771544921.5941875,54.19921875,-297.36328125,34.66796875,61.03515625,83.49609375
1771544921.5980937,40.0390625,-473.14453125,35.15625,48.33984375,34.1796875
1771544921.600125,33.69140625,-354.4921875,35.64453125,46.875,31.73828125
1771544921.6040313,47.8515625,-260.7421875,35.15625,62.5,-8.7890625
1771544921.6079376,53.7109375,-433.59375,38.0859375,58.10546875,-34.1796875
1771544921.6118438,39.55078125,-552.734375,39.0625,43.45703125,29.78515625
1771544921.61575,15.13671875,-450.68359375,37.59765625,38.0859375,15.13671875
1771544921.6196563,28.80859375,-428.7109375,36.1328125,40.0390625,13.18359375
1771544921.6235626,50.78125,-636.23046875,34.66796875,50.78125,37.59765625
1771544921.6274688,42.48046875,-914.0625,34.66796875,39.0625,-17.08984375
1771544921.631375,14.6484375,-740.234375,33.69140625,35.15625,-3.41796875
1771544921.6352813,22.94921875,-245.60546875,31.73828125,36.1328125,55.6640625
1771544921.6391876,50.29296875,-373.046875,33.203125,34.66796875,19.04296875
1771544921.6430938,47.8515625,-758.7890625,34.1796875,39.55078125,40.52734375
1771544921.645125,15.625,-642.08984375,34.1796875,23.92578125,39.0625
1771544921.6490312,14.6484375,-348.14453125,34.66796875,32.71484375,-26.3671875
1771544921.6529374,44.43359375,-436.5234375,39.0625,44.921875,9.765625
1771544921.6568437,47.36328125,-629.8828125,40.0390625,44.43359375,36.62109375
1771544921.66075,20.5078125,-580.56640625,37.109375,46.875,30.2734375
1771544921.6646562,4.8828125,-461.9140625,37.109375,38.0859375,84.9609375
1771544921.6685624,37.109375,-614.74609375,39.55078125,40.0390625,98.6328125
1771544921.6724687,49.31640625,-891.6015625,39.0625,52.24609375,79.1015625
1771544921.676375,26.85546875,-794.43359375,39.55078125,38.57421875,96.19140625
1771544921.6802812,2.9296875,-441.89453125,39.55078125,26.3671875,95.703125
1771544921.6841874,23.92578125,-535.15625,40.52734375,28.3203125,49.31640625
1771544921.6880937,70.3125,-866.2109375,41.50390625,42.96875,22.94921875
1771544921.690125,51.7578125,-649.90234375,39.0625,40.52734375,54.19921875
1771544921.6940312,13.18359375,-499.0234375,40.0390625,23.4375,44.921875
1771544921.6979375,20.5078125,-496.58203125,41.015625,33.203125,0.9765625
1771544921.7018437,45.41015625,-492.67578125,36.1328125,38.0859375,45.8984375
1771544921.70575,54.19921875,-555.17578125,33.69140625,30.76171875,67.3828125
1771544921.7096562,17.578125,-731.4453125,36.62109375,36.62109375,26.3671875
1771544921.7135625,-4.8828125,-917.96875,35.64453125,33.69140625,0.9765625
1771544921.7174687,18.5546875,-886.71875,36.62109375,30.2734375,-22.4609375
1771544921.721375,24.4140625,-645.99609375,34.1796875,34.1796875,12.6953125
1771544921.7252812,13.18359375,-625.9765625,31.73828125,27.34375,60.546875
1771544921.7291875,3.90625,-691.89453125,35.15625,20.01953125,41.015625
1771544921.7330937,25.87890625,-607.91015625,35.15625,25.390625,35.15625
1771544921.735125,40.0390625,-568.84765625,34.1796875,31.73828125,11.23046875
1771544921.7390313,18.5546875,-767.08984375,33.69140625,27.83203125,14.16015625
1771544921.7429376,10.7421875,-862.3046875,36.1328125,26.3671875,11.71875
1771544921.7468438,46.875,-592.7734375,37.59765625,63.96484375,-10.25390625
1771544921.75075,109.86328125,-560.05859375,41.015625,99.609375,-3.90625
1771544921.7546563,74.21875,-877.44140625,27.83203125,57.6171875,12.20703125
1771544921.7585626,5.37109375,-883.7890625,23.92578125,21.97265625,36.62109375
1771544921.7624688,49.31640625,-552.24609375,25.390625,66.40625,26.3671875
1771544921.766375,97.65625,-487.3046875,28.3203125,99.609375,36.1328125
1771544921.7702813,104.4921875,-774.90234375,31.73828125,90.33203125,44.921875
1771544921.7741876,105.46875,-943.84765625,27.83203125,104.00390625,12.20703125
1771544921.7780938,113.28125,-636.71875,29.296875,111.81640625,12.6953125
1771544921.795125,112.79296875,-487.3046875,24.4140625,107.421875,66.40625
1771544921.7990313,99.609375,-796.875,28.3203125,115.234375,61.03515625
1771544921.8029375,82.51953125,-925.78125,29.296875,97.65625,32.2265625
1771544921.8068438,71.2890625,-679.19921875,29.78515625,87.40234375,20.99609375
1771544921.81075,92.28515625,-627.44140625,33.203125,115.234375,0.9765625
1771544921.8146563,103.515625,-872.55859375,29.78515625,118.1640625,31.25
1771544921.8185625,74.70703125,-989.2578125,29.296875,95.21484375,55.6640625
1771544921.8224688,51.7578125,-805.6640625,30.76171875,86.42578125,19.04296875
1771544921.826375,72.75390625,-684.5703125,30.76171875,92.7734375,22.94921875
1771544921.8302813,96.6796875,-876.953125,31.25,98.6328125,32.71484375
1771544921.8341875,79.58984375,-1000.0,31.73828125,91.30859375,-20.01953125
1771544921.8380938,47.8515625,-858.3984375,32.71484375,69.3359375,14.16015625
1771544921.840125,45.8984375,-703.61328125,29.296875,66.89453125,102.05078125
1771544921.8440313,77.63671875,-820.3125,31.73828125,81.54296875,58.10546875
1771544921.8479376,82.51953125,-890.625,33.69140625,90.8203125,23.4375
1771544921.8518438,49.8046875,-925.29296875,32.2265625,72.265625,9.765625
1771544921.85575,45.41015625,-947.75390625,32.2265625,62.5,-24.90234375
1771544921.8596563,68.359375,-964.84375,36.62109375,64.94140625,2.44140625
1771544921.8635626,68.84765625,-949.70703125,38.0859375,66.89453125,53.22265625
1771544921.8674688,46.875,-784.66796875,37.59765625,62.01171875,94.7265625
1771544921.871375,33.69140625,-835.9375,32.71484375,55.17578125,49.31640625
1771544921.8752813,57.6171875,-861.81640625,30.2734375,61.5234375,20.5078125
1771544921.8791876,77.1484375,-682.6171875,33.69140625,70.80078125,51.26953125
1771544921.8830938,55.6640625,-705.56640625,32.71484375,68.359375,40.0390625
1771544921.885125,26.85546875,-886.71875,35.64453125,61.5234375,-19.04296875
1771544921.8890312,40.52734375,-834.47265625,37.59765625,61.5234375,-30.2734375
1771544921.8929374,65.4296875,-595.703125,34.66796875,69.82421875,11.23046875
1771544921.8968437,57.6171875,-717.7734375,34.1796875,69.82421875,-33.203125
1771544921.90075,31.73828125,-771.97265625,32.2265625,59.5703125,-16.6015625
1771544921.9046562,36.62109375,-630.859375,29.78515625,55.6640625,57.12890625
1771544921.9085624,54.19921875,-629.8828125,29.78515625,55.6640625,74.21875
1771544921.9124687,42.96875,-643.06640625,28.3203125,58.10546875,98.14453125
1771544921.916375,12.6953125,-868.1640625,29.78515625,41.50390625,68.84765625
1771544921.9202812,9.765625,-834.47265625,33.69140625,42.96875,54.6875
1771544921.9241874,35.64453125,-349.12109375,37.59765625,55.17578125,84.9609375
1771544921.9280937,41.015625,-442.87109375,37.109375,45.8984375,63.96484375
1771544921.930125,31.73828125,-571.77734375,33.69140625,33.203125,54.19921875
1771544921.9340312,12.20703125,-287.59765625,32.71484375,25.390625,70.80078125
1771544921.9379375,30.2734375,-129.39453125,31.73828125,30.76171875,45.41015625
1771544921.9418437,54.19921875,-359.375,31.25,42.48046875,10.25390625
1771544921.94575,47.36328125,-532.71484375,29.78515625,45.8984375,1.953125
1771544921.9496562,18.06640625,-476.5625,30.76171875,30.76171875,49.31640625
1771544921.9535625,25.390625,-268.5546875,30.76171875,30.2734375,58.10546875
1771544921.9574687,55.17578125,-319.82421875,32.2265625,49.31640625,42.96875
1771544921.961375,52.24609375,-894.04296875,34.66796875,50.29296875,20.99609375
1771544921.9652812,20.99609375,-639.6484375,34.1796875,28.3203125,69.3359375
1771544921.9691875,8.7890625,-36.1328125,36.62109375,25.87890625,86.9140625
1771544921.9730937,44.43359375,-108.3984375,38.57421875,53.7109375,44.921875
1771544921.975125,52.734375,-260.7421875,32.71484375,69.82421875,58.10546875
1771544921.9790313,23.92578125,-245.1171875,33.203125,39.55078125,24.4140625
1771544921.9829376,20.99609375,-107.421875,31.73828125,17.08984375,21.484375
1771544921.9868438,48.33984375,-74.70703125,28.3203125,40.52734375,58.59375
1771544921.99075,54.19921875,-203.61328125,30.2734375,47.8515625,41.015625
