timestamps,TP9,AF7,AF8,TP10,Right AUX
1771542956.750125,45.41015625,41.9921875,26.3671875,39.55078125,81.0546875
1771542956.7540312,32.71484375,40.52734375,16.6015625,15.625,10.25390625
1771542956.7579374,51.26953125,34.66796875,19.04296875,43.9453125,20.5078125
1771542956.7618437,65.4296875,38.0859375,25.390625,68.84765625,61.03515625
1771542956.76575,37.109375,39.55078125,20.01953125,41.9921875,60.546875
1771542956.7696562,22.4609375,41.015625,10.25390625,9.27734375,70.80078125
1771542956.7735624,41.50390625,42.96875,-3.90625,26.3671875,16.11328125
1771542956.7774687,60.05859375,38.57421875,17.08984375,62.98828125,-5.37109375
1771542956.781375,52.24609375,33.69140625,24.4140625,68.84765625,68.84765625
1771542956.7852812,10.25390625,32.71484375,20.5078125,16.11328125,44.921875
1771542956.7891874,-3.90625,31.25,29.296875,-12.6953125,51.26953125
1771542956.7930937,24.90234375,34.1796875,23.92578125,21.484375,74.21875
1771542956.810125,33.69140625,37.109375,14.6484375,40.0390625,84.9609375
1771542956.8140314,7.32421875,36.62109375,7.8125,14.16015625,62.98828125
1771542956.8179376,6.8359375,37.109375,20.5078125,-5.37109375,13.18359375
1771542956.8218439,38.0859375,39.0625,27.34375,23.92578125,5.859375
1771542956.82575,36.62109375,40.0390625,15.13671875,52.24609375,53.22265625
1771542956.8296564,1.46484375,40.0390625,6.8359375,26.3671875,103.02734375
1771542956.8335626,-0.48828125,36.1328125,20.01953125,-0.9765625,51.26953125
1771542956.8374689,27.34375,32.2265625,37.109375,14.16015625,3.90625
1771542956.841375,18.5546875,34.1796875,17.578125,26.85546875,19.53125
1771542956.8452814,2.9296875,37.109375,-11.71875,11.71875,24.4140625
1771542956.8491876,8.7890625,40.0390625,14.6484375,-1.953125,42.48046875
1771542956.8530939,22.4609375,41.9921875,38.57421875,9.765625,61.5234375
1771542956.855125,34.1796875,43.9453125,1.953125,33.203125,30.2734375
1771542956.8590312,36.62109375,41.50390625,-11.23046875,43.45703125,21.97265625
1771542956.8629375,30.2734375,37.59765625,21.97265625,21.484375,-1.46484375
1771542956.8668437,37.109375,40.0390625,37.109375,19.53125,-13.18359375
1771542956.87075,54.6875,43.45703125,20.01953125,46.38671875,26.85546875
1771542956.8746562,52.24609375,43.45703125,5.37109375,52.734375,99.12109375
1771542956.8785625,30.2734375,40.0390625,13.18359375,32.2265625,74.21875
1771542956.8824687,34.1796875,38.0859375,36.1328125,28.3203125,51.26953125
1771542956.886375,62.01171875,40.52734375,11.23046875,60.546875,51.7578125
1771542956.8902812,65.91796875,41.9921875,-10.25390625,72.75390625,6.8359375
1771542956.8941875,27.34375,31.73828125,26.85546875,41.015625,-0.48828125
1771542956.8980937,7.8125,29.78515625,32.71484375,12.6953125,-42.48046875
1771542956.900125,27.83203125,31.25,29.296875,23.92578125,0.0
1771542956.9040313,42.96875,33.203125,20.99609375,46.38671875,51.26953125
1771542956.9079375,38.0859375,39.0625,11.23046875,37.59765625,44.921875
1771542956.9118438,29.78515625,37.109375,20.99609375,14.16015625,43.45703125
1771542956.91575,38.0859375,35.15625,25.390625,24.4140625,48.33984375
1771542956.9196563,38.57421875,38.57421875,7.8125,36.62109375,33.69140625
1771542956.9235625,28.80859375,37.59765625,6.34765625,30.76171875,43.45703125
1771542956.9274688,16.11328125,29.296875,23.92578125,25.390625,48.33984375
1771542956.931375,25.87890625,20.01953125,24.4140625,33.69140625,47.8515625
1771542956.9352813,32.2265625,28.3203125,23.4375,39.55078125,56.15234375
1771542956.9391875,29.78515625,37.59765625,30.76171875,38.0859375,43.9453125
1771542956.9430938,16.6015625,38.0859375,22.4609375,19.53125,59.08203125
1771542956.945125,4.8828125,39.55078125,26.3671875,1.46484375,54.19921875
1771542956.9490314,29.296875,37.109375,33.69140625,24.90234375,9.27734375
1771542956.9529376,48.33984375,42.96875,28.80859375,64.453125,84.9609375
1771542956.9568439,22.94921875,38.57421875,15.625,44.43359375,88.8671875
1771542956.96075,-3.41796875,28.80859375,22.94921875,0.9765625,53.22265625
1771542956.9646564,24.90234375,26.85546875,28.3203125,24.90234375,88.37890625
1771542956.9685626,55.17578125,34.1796875,13.18359375,61.03515625,103.02734375
1771542956.9724689,42.96875,44.43359375,-6.34765625,53.22265625,14.6484375
1771542956.976375,20.01953125,40.52734375,-7.8125,16.11328125,-0.9765625
1771542956.9802814,28.80859375,35.64453125,29.296875,14.16015625,30.76171875
1771542956.9841876,54.19921875,39.0625,40.0390625,55.6640625,7.8125
1771542956.9880939,46.38671875,39.0625,26.85546875,61.03515625,20.01953125
1771542956.990125,20.01953125,33.69140625,21.97265625,18.5546875,-19.04296875
1771542956.9940312,27.34375,37.109375,29.78515625,12.20703125,-15.13671875
1771542956.9979374,41.50390625,37.59765625,25.390625,35.15625,56.15234375
1771542957.0018437,42.48046875,36.1328125,4.39453125,47.8515625,40.0390625
1771542957.00575,18.06640625,33.69140625,13.18359375,30.2734375,20.5078125
1771542957.0096562,8.30078125,26.3671875,22.4609375,14.16015625,29.78515625
1771542957.0135624,37.109375,32.2265625,20.5078125,29.296875,0.48828125
1771542957.0174687,32.71484375,44.43359375,-10.25390625,36.62109375,11.23046875
1771542957.021375,-3.41796875,42.96875,-13.18359375,5.859375,23.92578125
1771542957.0252812,-21.97265625,34.66796875,41.015625,-16.6015625,31.25
1771542957.0291874,5.859375,34.1796875,33.203125,7.32421875,41.50390625
1771542957.0330937,23.92578125,38.0859375,1.46484375,40.0390625,43.9453125
1771542957.035125,9.27734375,43.45703125,1.953125,35.64453125,38.0859375
1771542957.0390313,3.41796875,45.8984375,11.23046875,2.9296875,-6.34765625
1771542957.0429375,3.41796875,41.50390625,13.671875,-2.44140625,29.296875
1771542957.0468438,15.625,39.55078125,4.39453125,26.3671875,51.26953125
1771542957.05075,27.83203125,37.59765625,8.30078125,43.9453125,31.73828125
1771542957.0546563,18.06640625,37.59765625,17.08984375,22.94921875,71.77734375
1771542957.0585625,10.7421875,41.50390625,9.765625,-6.34765625,56.15234375
1771542957.0624688,18.5546875,42.96875,-3.90625,7.8125,17.08984375
1771542957.066375,34.66796875,42.48046875,10.7421875,41.50390625,24.90234375
1771542957.0702813,31.25,35.15625,17.578125,31.73828125,50.78125
1771542957.0741875,19.53125,34.66796875,4.8828125,7.32421875,45.41015625
1771542957.0780938,34.66796875,39.0625,9.27734375,19.04296875,10.25390625
1771542957.080125,47.36328125,41.015625,19.04296875,51.26953125,84.9609375
1771542957.0840313,37.59765625,45.41015625,9.27734375,48.828125,120.1171875
1771542957.0879376,28.80859375,50.29296875,8.7890625,15.625,19.53125
1771542957.0918438,42.96875,45.41015625,24.90234375,13.18359375,46.875
1771542957.09575,40.52734375,45.41015625,10.25390625,33.69140625,76.66015625
1771542957.0996563,22.94921875,47.36328125,-13.671875,33.69140625,15.13671875
1771542957.1035626,10.25390625,41.9921875,-16.11328125,10.7421875,20.01953125
1771542957.1074688,16.11328125,37.59765625,10.7421875,12.6953125,34.1796875
1771542957.111375,37.59765625,34.1796875,35.15625,39.0625,18.06640625
1771542957.1152813,27.83203125,38.57421875,14.16015625,32.2265625,40.52734375
1771542957.1191876,-0.9765625,46.875,6.34765625,-5.37109375,77.63671875
1771542957.1230938,3.41796875,50.29296875,16.6015625,-14.16015625,74.70703125
1771542957.126125,27.83203125,44.43359375,13.18359375,17.08984375,53.22265625
1771542957.1300313,24.4140625,41.50390625,-2.44140625,29.296875,75.68359375
1771542957.1339376,-1.953125,46.38671875,-9.27734375,-2.9296875,42.48046875
1771542957.1378438,-11.71875,49.31640625,14.6484375,-25.87890625,-28.80859375
1771542957.14175,6.8359375,52.24609375,18.06640625,-0.48828125,-2.9296875
1771542957.1456563,30.76171875,55.6640625,-11.71875,35.64453125,26.3671875
1771542957.1495626,18.06640625,45.8984375,-13.18359375,25.390625,104.98046875
1771542957.1534688,-2.44140625,38.57421875,30.2734375,-9.27734375,159.66796875
1771542957.157375,3.90625,41.50390625,29.78515625,-11.23046875,62.98828125
1771542957.1612813,22.4609375,41.015625,8.30078125,20.01953125,37.59765625
1771542957.1651876,22.4609375,45.8984375,5.859375,28.80859375,81.0546875
1771542957.1690938,3.41796875,49.31640625,20.99609375,-2.9296875,60.05859375
1771542957.186125,-0.48828125,45.8984375,31.73828125,-13.671875,79.58984375
1771542957.1900313,15.625,48.33984375,18.5546875,13.671875,82.03125
1771542957.1939375,27.34375,46.875,-0.48828125,33.203125,74.70703125
1771542957.1978438,11.23046875,42.48046875,0.48828125,11.23046875,12.20703125
1771542957.20175,-6.8359375,41.9921875,29.78515625,-21.484375,-22.94921875
1771542957.2056563,-6.34765625,42.96875,4.8828125,-10.7421875,46.875
1771542957.2095625,-4.39453125,40.52734375,-20.99609375,10.7421875,22.94921875
1771542957.2134688,-11.23046875,37.59765625,12.6953125,4.39453125,-25.87890625
1771542957.217375,-19.53125,37.59765625,28.3203125,-26.85546875,-33.203125
1771542957.2212813,-9.27734375,35.64453125,23.4375,-24.90234375,-18.5546875
1771542957.2251875,11.71875,37.59765625,13.671875,18.06640625,12.20703125
1771542957.2290938,5.859375,51.7578125,10.25390625,20.01953125,66.89453125
1771542957.230125,-26.3671875,51.7578125,10.25390625,-26.85546875,53.7109375
1771542957.2340312,-18.06640625,43.45703125,19.04296875,-24.90234375,48.828125
1771542957.2379375,11.23046875,48.828125,17.08984375,15.625,16.11328125
1771542957.2418437,10.25390625,50.29296875,5.37109375,17.578125,-9.27734375
1771542957.24575,0.0,47.36328125,6.8359375,-3.90625,54.6875
1771542957.2496562,1.46484375,47.36328125,16.11328125,-12.20703125,77.1484375
1771542957.2535625,9.27734375,45.41015625,13.671875,5.859375,78.125
1771542957.2574687,6.8359375,41.50390625,4.8828125,18.06640625,64.453125
1771542957.261375,6.34765625,34.1796875,9.27734375,16.11328125,71.77734375
1771542957.2652812,11.71875,41.9921875,5.859375,5.859375,109.375
1771542957.2691875,3.90625,52.24609375,23.92578125,-15.625,112.3046875
1771542957.2730937,-3.41796875,50.78125,21.484375,-10.25390625,47.8515625
1771542957.275125,-7.32421875,49.31640625,2.9296875,-4.39453125,30.2734375
1771542957.2790313,-4.8828125,48.33984375,21.484375,-20.01953125,41.50390625
1771542957.2829375,17.578125,45.8984375,38.0859375,-4.39453125,50.78125
1771542957.2868438,30.2734375,41.50390625,22.94921875,27.34375,58.10546875
1771542957.29075,12.6953125,40.52734375,9.765625,20.01953125,54.19921875
1771542957.2946563,-6.34765625,43.45703125,0.0,-12.20703125,-5.37109375
1771542957.2985625,2.9296875,42.96875,8.7890625,-2.9296875,-36.62109375
1771542957.3024688,10.25390625,39.0625,19.04296875,22.4609375,14.16015625
1771542957.306375,5.37109375,44.921875,-16.6015625,18.5546875,3.41796875
1771542957.3102813,-12.20703125,50.29296875,-4.39453125,-13.671875,-28.3203125
1771542957.3141875,-13.671875,44.921875,40.52734375,-31.25,-4.8828125
1771542957.3180938,11.71875,47.36328125,18.5546875,2.9296875,47.36328125
1771542957.321125,13.671875,51.26953125,-4.8828125,19.04296875,24.4140625
1771542957.3250313,-5.37109375,46.38671875,6.34765625,-16.6015625,-0.48828125
1771542957.3289375,-17.08984375,39.0625,18.06640625,-39.0625,17.08984375
1771542957.3328438,-8.7890625,44.43359375,2.9296875,-20.5078125,-26.3671875
1771542957.33675,14.16015625,51.26953125,-8.7890625,10.25390625,0.9765625
1771542957.3406563,6.8359375,40.52734375,-6.8359375,12.6953125,51.26953125
1771542957.3445625,-17.08984375,36.1328125,10.25390625,-15.13671875,9.27734375
1771542957.3484688,-9.27734375,40.52734375,4.8828125,-14.6484375,-5.37109375
1771542957.352375,9.765625,44.921875,-16.6015625,7.32421875,-21.97265625
1771542957.3562813,10.7421875,42.48046875,-0.48828125,6.8359375,1.953125
1771542957.3601875,-8.30078125,36.62109375,7.32421875,-15.13671875,43.45703125
1771542957.3640938,-9.765625,43.9453125,-0.48828125,-20.01953125,-7.8125
1771542957.365125,12.20703125,44.43359375,-0.9765625,8.7890625,-3.90625
1771542957.3690312,9.27734375,35.15625,11.23046875,13.671875,61.5234375
1771542957.3729374,-12.6953125,34.66796875,11.23046875,-13.671875,69.82421875
1771542957.3768437,-1.46484375,34.66796875,25.390625,-14.6484375,62.98828125
1771542957.38075,27.83203125,25.87890625,29.296875,16.11328125,67.87109375
1771542957.3846562,16.6015625,28.3203125,1.46484375,26.3671875,18.5546875
1771542957.3885624,-21.97265625,40.52734375,3.90625,-10.7421875,41.50390625
1771542957.3924687,-27.83203125,40.52734375,-3.41796875,-39.55078125,57.12890625
1771542957.396375,6.34765625,41.015625,2.9296875,-2.9296875,-33.69140625
1771542957.4002812,23.92578125,41.015625,23.4375,24.90234375,-27.83203125
1771542957.4041874,-0.9765625,34.66796875,4.8828125,3.41796875,29.296875
1771542957.4080937,-37.109375,28.3203125,7.8125,-33.203125,88.37890625
1771542957.411125,-21.484375,30.2734375,12.20703125,-20.5078125,72.75390625
1771542957.4150312,22.94921875,35.15625,13.671875,36.1328125,32.2265625
1771542957.4189374,16.6015625,35.64453125,-3.90625,37.109375,18.5546875
1771542957.4228437,-20.01953125,35.64453125,-8.30078125,-17.08984375,28.3203125
1771542957.42675,-21.484375,39.0625,22.4609375,-24.4140625,67.3828125
1771542957.4306562,9.27734375,40.52734375,5.37109375,16.11328125,55.6640625
1771542957.4345624,24.90234375,35.64453125,-26.85546875,26.3671875,44.43359375
1771542957.4384687,1.46484375,42.96875,-29.78515625,-1.953125,57.12890625
1771542957.442375,-12.6953125,40.0390625,5.859375,-30.2734375,12.20703125
1771542957.4462812,7.8125,25.87890625,23.92578125,-10.25390625,3.41796875
1771542957.4501874,24.4140625,29.296875,7.32421875,28.3203125,75.68359375
1771542957.4540937,14.6484375,36.62109375,3.90625,21.97265625,74.21875
1771542957.456125,3.90625,31.25,25.390625,-6.8359375,50.29296875
1771542957.4600313,6.8359375,26.85546875,24.4140625,-1.953125,76.66015625
1771542957.4639375,22.94921875,33.203125,-2.44140625,24.90234375,58.10546875
1771542957.4678438,22.94921875,31.73828125,-0.48828125,34.1796875,35.15625
1771542957.47175,6.8359375,27.83203125,19.04296875,2.44140625,34.1796875
1771542957.4756563,22.94921875,33.69140625,8.7890625,-2.9296875,22.94921875
1771542957.4795625,52.24609375,38.0859375,-24.4140625,37.59765625,71.2890625
1771542957.4834688,46.38671875,34.66796875,-19.04296875,49.31640625,90.33203125
1771542957.487375,5.37109375,29.296875,30.2734375,5.37109375,82.03125
1771542957.4912813,-2.9296875,31.73828125,33.203125,-12.6953125,100.5859375
1771542957.4951875,32.2265625,34.66796875,21.97265625,33.69140625,77.1484375
1771542957.4990938,40.0390625,30.76171875,9.765625,52.734375,47.8515625
1771542957.500125,11.23046875,26.3671875,3.41796875,19.04296875,39.0625
1771542957.5040312,9.765625,29.78515625,3.90625,2.44140625,26.3671875
1771542957.5079374,29.78515625,30.76171875,-0.48828125,26.3671875,-15.625
1771542957.5118437,31.73828125,32.2265625,0.9765625,55.6640625,-24.4140625
1771542957.51575,26.3671875,42.48046875,-7.8125,47.8515625,8.7890625
1771542957.5196562,16.6015625,40.0390625,-6.34765625,22.94921875,51.7578125
1771542957.5235624,34.66796875,30.2734375,-5.859375,33.69140625,37.59765625
1771542957.5274687,55.17578125,23.4375,11.23046875,54.6875,6.34765625
1771542957.531375,31.25,22.4609375,30.2734375,40.52734375,36.1328125
1771542957.5352812,7.8125,28.80859375,21.97265625,3.90625,84.9609375
1771542957.5391874,24.4140625,34.66796875,15.13671875,4.39453125,42.96875
1771542957.5430937,42.96875,40.52734375,9.27734375,26.3671875,34.1796875
1771542957.575125,26.3671875,42.48046875,-1.953125,25.390625,44.921875
1771542957.5790312,4.8828125,32.71484375,4.39453125,-1.953125,36.1328125
1771542957.5829375,11.71875,25.87890625,25.87890625,-4.8828125,28.80859375
1771542957.5868437,37.59765625,30.76171875,34.1796875,20.99609375,61.03515625
1771542957.59075,36.1328125,32.2265625,18.5546875,23.4375,20.99609375
1771542957.5946562,22.94921875,31.25,-15.13671875,8.7890625,-65.91796875
1771542957.5985625,18.06640625,36.1328125,5.859375,-9.765625,-41.50390625
1771542957.6024687,30.2734375,30.2734375,39.0625,17.08984375,55.6640625
1771542957.606375,48.33984375,25.87890625,14.16015625,49.31640625,15.13671875
1771542957.6102812,41.50390625,30.2734375,-4.8828125,31.73828125,-45.41015625
1771542957.6141875,20.5078125,27.34375,32.2265625,4.8828125,-5.859375
1771542957.6180937,21.484375,23.4375,59.08203125,14.16015625,46.38671875
1771542957.604125,41.50390625,25.390625,28.80859375,49.31640625,32.71484375
1771542957.6080313,39.0625,26.3671875,20.01953125,57.6171875,32.71484375
1771542957.6119375,16.11328125,29.296875,42.96875,20.5078125,45.8984375
1771542957.6158438,17.08984375,33.203125,50.29296875,14.16015625,12.20703125
1771542957.61975,40.0390625,31.73828125,24.90234375,48.828125,12.20703125
1771542957.6236563,48.33984375,32.71484375,0.9765625,64.94140625,21.97265625
1771542957.6275625,23.4375,28.80859375,23.4375,46.875,18.06640625
1771542957.6314688,10.7421875,26.3671875,51.7578125,20.99609375,27.83203125
1771542957.635375,30.76171875,27.83203125,33.69140625,37.59765625,71.2890625
1771542957.6392813,33.203125,26.3671875,8.7890625,53.22265625,66.89453125
1771542957.6431875,21.484375,26.85546875,28.80859375,42.48046875,21.484375
1771542957.6470938,23.92578125,23.92578125,58.10546875,29.296875,47.36328125
1771542957.650125,32.71484375,27.34375,30.76171875,26.85546875,1.46484375
1771542957.6540313,39.0625,36.62109375,5.37109375,38.0859375,22.94921875
1771542957.6579375,29.296875,41.50390625,29.78515625,32.2265625,83.49609375
1771542957.6618438,17.08984375,37.59765625,34.1796875,4.8828125,31.73828125
1771542957.66575,31.25,33.203125,26.3671875,6.34765625,3.90625
1771542957.6696563,51.7578125,38.0859375,15.13671875,38.57421875,13.18359375
1771542957.6735625,53.22265625,36.1328125,18.06640625,50.29296875,41.015625
1771542957.6774688,31.73828125,28.3203125,39.55078125,23.92578125,7.8125
1771542957.681375,33.69140625,26.85546875,32.71484375,9.27734375,26.85546875
1771542957.6852813,50.29296875,24.90234375,30.76171875,33.203125,78.61328125
1771542957.6891875,51.26953125,29.296875,41.015625,49.31640625,91.30859375
1771542957.6930938,44.43359375,37.59765625,16.11328125,31.25,69.82421875
1771542957.695125,45.8984375,37.109375,27.83203125,22.94921875,43.45703125
1771542957.6990314,59.08203125,35.64453125,41.9921875,43.9453125,8.30078125
1771542957.7029376,70.3125,38.0859375,27.34375,69.3359375,21.484375
1771542957.7068439,58.59375,32.71484375,21.484375,65.4296875,82.03125
1771542957.71075,32.71484375,28.80859375,35.15625,34.66796875,48.33984375
1771542957.7146564,38.0859375,27.83203125,37.109375,40.0390625,25.87890625
1771542957.7185626,56.640625,23.92578125,30.2734375,77.1484375,52.734375
1771542957.7224689,51.26953125,29.296875,18.5546875,84.9609375,71.2890625
1771542957.726375,31.25,34.66796875,10.7421875,46.875,45.41015625
1771542957.7302814,36.1328125,36.62109375,54.19921875,35.64453125,28.80859375
1771542957.7341876,59.08203125,42.48046875,50.78125,70.80078125,41.015625
1771542957.7380939,64.94140625,41.50390625,20.99609375,88.37890625,10.7421875
1771542957.741125,41.50390625,34.1796875,40.0390625,58.10546875,-7.32421875
1771542957.7450314,21.484375,28.3203125,64.94140625,29.296875,13.671875
1771542957.7489376,29.78515625,32.2265625,47.36328125,38.0859375,34.1796875
1771542957.7528439,38.57421875,40.0390625,18.5546875,51.7578125,16.6015625
1771542957.75675,27.34375,41.015625,30.76171875,36.62109375,18.06640625
1771542957.7606564,21.484375,37.59765625,41.015625,20.99609375,-22.94921875
1771542957.7645626,23.4375,41.015625,44.43359375,14.16015625,38.57421875
1771542957.7684689,30.2734375,48.828125,10.25390625,17.578125,90.33203125
1771542957.772375,14.16015625,53.7109375,5.37109375,11.23046875,27.83203125
1771542957.7762814,-4.8828125,51.7578125,52.734375,-19.04296875,28.3203125
1771542957.7801876,8.30078125,50.29296875,47.8515625,-11.71875,45.8984375
1771542957.7840939,25.87890625,45.8984375,25.390625,19.53125,57.6171875
1771542957.785125,23.4375,41.015625,21.484375,26.85546875,33.203125
1771542957.7890313,6.8359375,40.52734375,37.109375,4.39453125,11.71875
1771542957.7929375,11.71875,37.59765625,44.43359375,1.953125,47.36328125
1771542957.7968438,23.92578125,40.52734375,25.390625,16.11328125,61.03515625
1771542957.80075,24.90234375,47.8515625,6.8359375,19.04296875,6.8359375
1771542957.8046563,10.7421875,50.78125,10.25390625,7.8125,-0.48828125
1771542957.8085625,5.859375,48.828125,18.5546875,-7.8125,-11.23046875
1771542957.8124688,34.66796875,50.29296875,1.46484375,20.01953125,29.296875
1771542957.816375,50.78125,54.19921875,11.71875,55.6640625,48.828125
1771542957.8202813,22.94921875,47.8515625,36.62109375,39.55078125,26.85546875
1771542957.8241875,4.39453125,38.0859375,46.875,12.6953125,24.90234375
1771542957.8280938,19.04296875,33.203125,55.17578125,19.04296875,12.20703125
1771542957.830125,32.2265625,37.59765625,44.43359375,35.15625,48.828125
1771542957.8340313,20.99609375,44.921875,23.92578125,30.76171875,27.83203125
1771542957.8379376,10.7421875,47.36328125,31.25,12.6953125,47.8515625
1771542957.8418438,27.83203125,46.38671875,44.921875,17.578125,45.41015625
1771542957.84575,45.41015625,42.48046875,34.66796875,44.43359375,7.8125
1771542957.8496563,40.52734375,44.43359375,18.06640625,44.921875,32.71484375
1771542957.8535626,13.18359375,39.0625,11.23046875,4.8828125,56.15234375
1771542957.8574688,5.37109375,37.109375,36.1328125,-8.7890625,48.828125
1771542957.861375,36.62109375,48.828125,55.6640625,31.73828125,28.3203125
1771542957.8652813,47.36328125,51.7578125,34.66796875,55.6640625,49.8046875
1771542957.8691876,20.99609375,43.45703125,26.85546875,23.92578125,42.48046875
1771542957.8730938,1.46484375,37.59765625,48.828125,-10.25390625,57.6171875
1771542957.876125,13.671875,41.50390625,54.19921875,7.32421875,97.16796875
1771542957.8800313,30.2734375,44.921875,17.578125,27.34375,90.8203125
1771542957.8839376,20.5078125,44.43359375,15.13671875,14.16015625,46.38671875
1771542957.8878438,6.8359375,41.015625,57.6171875,-1.953125,66.40625
1771542957.89175,20.99609375,40.52734375,59.5703125,20.01953125,79.1015625
1771542957.8956563,33.69140625,48.33984375,14.16015625,37.59765625,41.50390625
1771542957.8995626,20.5078125,46.875,11.23046875,20.01953125,45.8984375
1771542957.9034688,-1.46484375,37.59765625,49.31640625,-1.953125,-20.5078125
1771542957.907375,11.23046875,34.66796875,67.87109375,5.37109375,-23.92578125
1771542957.9112813,40.52734375,37.109375,29.78515625,39.55078125,54.6875
1771542957.9151876,44.921875,42.48046875,4.39453125,46.38671875,66.40625
1771542957.9190938,22.94921875,47.8515625,47.8515625,11.23046875,26.85546875
1771542957.935125,13.671875,46.38671875,53.7109375,-0.48828125,-44.43359375
1771542957.9390314,42.48046875,45.41015625,34.1796875,27.34375,-6.8359375
1771542957.9429376,53.22265625,48.828125,23.92578125,39.0625,81.0546875
1771542957.9468439,23.92578125,50.29296875,30.2734375,19.04296875,40.0390625
1771542957.95075,20.01953125,42.96875,48.828125,10.7421875,28.3203125
1771542957.9546564,34.66796875,40.0390625,35.64453125,28.3203125,82.03125
1771542957.9585626,40.0390625,45.41015625,16.6015625,42.96875,103.02734375
1771542957.9624689,36.1328125,41.9921875,33.203125,39.0625,74.70703125
1771542957.966375,15.625,38.0859375,53.22265625,16.6015625,76.66015625
1771542957.9702814,21.97265625,46.38671875,27.34375,6.34765625,42.96875
1771542957.9741876,27.83203125,50.29296875,10.25390625,14.6484375,-2.44140625
1771542957.9780939,22.4609375,47.36328125,19.04296875,20.5078125,59.5703125
1771542957.980125,20.5078125,45.8984375,25.87890625,12.20703125,74.70703125
1771542957.9840312,19.04296875,40.52734375,36.1328125,10.25390625,57.6171875
1771542957.9879375,34.1796875,35.15625,36.62109375,34.66796875,98.6328125
1771542957.9918437,33.69140625,34.66796875,22.4609375,41.015625,77.1484375
1771542957.99575,0.9765625,41.50390625,14.16015625,-3.90625,20.99609375
1771542957.9996562,0.48828125,49.8046875,27.83203125,-14.16015625,32.71484375
1771542958.0035625,30.2734375,48.828125,32.2265625,17.578125,110.83984375
1771542958.0074687,48.828125,44.921875,15.13671875,35.15625,67.3828125
1771542958.011375,38.0859375,52.24609375,11.71875,29.78515625,11.71875
1771542958.0152812,15.13671875,49.31640625,18.5546875,9.27734375,43.45703125
1771542958.0191875,11.71875,35.15625,44.921875,7.8125,36.62109375
1771542958.0230937,29.296875,35.64453125,32.2265625,27.34375,40.52734375
1771542958.026125,37.109375,50.29296875,7.32421875,40.0390625,28.80859375
1771542958.0300312,20.99609375,50.29296875,21.97265625,18.5546875,-31.25
1771542958.0339375,24.90234375,41.50390625,36.62109375,8.30078125,-62.01171875
1771542958.0378437,52.24609375,50.78125,30.76171875,38.57421875,13.18359375
1771542958.04175,53.7109375,54.19921875,4.8828125,41.9921875,30.76171875
1771542958.0456562,20.99609375,48.828125,11.71875,8.7890625,13.18359375
1771542958.0495625,14.6484375,49.8046875,30.2734375,8.30078125,-12.20703125
1771542958.0534687,40.0390625,47.36328125,25.87890625,30.76171875,-5.859375
1771542958.057375,30.2734375,52.734375,-13.18359375,29.78515625,2.44140625
1771542958.0612812,-12.20703125,58.59375,-2.44140625,-9.765625,12.20703125
1771542958.0651875,-3.41796875,53.22265625,41.015625,-25.390625,18.5546875
1771542958.0690937,37.109375,53.7109375,20.01953125,10.7421875,41.50390625
1771542958.069125,27.34375,53.7109375,-4.39453125,23.4375,43.9453125
1771542958.0730312,-2.9296875,45.8984375,15.13671875,2.9296875,9.765625
1771542958.0769374,-14.16015625,41.015625,40.0390625,-16.6015625,12.20703125
1771542958.0808437,-2.44140625,39.55078125,23.4375,-11.71875,30.76171875
1771542958.08475,13.18359375,45.41015625,-2.9296875,8.30078125,42.48046875
1771542958.0886562,1.46484375,52.734375,-3.90625,0.9765625,-7.32421875
1771542958.0925624,-16.6015625,55.17578125,13.18359375,-23.4375,-23.4375
1771542958.0964687,-1.953125,56.640625,20.99609375,-15.13671875,23.4375
1771542958.100375,6.8359375,54.19921875,-6.34765625,-4.8828125,55.17578125
1771542958.1042812,-10.25390625,55.17578125,4.8828125,-19.04296875,67.87109375
1771542958.1081874,-25.390625,57.6171875,32.2265625,-30.76171875,26.3671875
1771542958.1120937,-18.5546875,54.19921875,33.69140625,-25.390625,22.94921875
1771542958.115125,-0.9765625,52.734375,25.390625,-10.25390625,79.1015625
1771542958.1190312,12.20703125,52.734375,14.16015625,5.859375,56.15234375
1771542958.1229374,-5.37109375,42.48046875,25.87890625,-4.8828125,-1.953125
1771542958.1268437,-34.66796875,38.0859375,37.109375,-32.2265625,-36.1328125
1771542958.13075,-23.4375,50.78125,25.390625,-28.3203125,4.8828125
1771542958.1346562,6.34765625,57.6171875,-2.9296875,-4.8828125,55.6640625
1771542958.1385624,0.0,53.22265625,-1.46484375,-0.48828125,55.6640625
1771542958.1424687,-15.625,52.24609375,9.765625,-14.6484375,64.94140625
1771542958.146375,0.0,47.8515625,16.6015625,-14.6484375,57.12890625
1771542958.1502812,21.97265625,45.41015625,21.97265625,10.7421875,21.484375
1771542958.1541874,16.6015625,56.15234375,-5.37109375,18.5546875,2.9296875
1771542958.1580937,-11.71875,55.6640625,7.8125,-14.16015625,67.3828125
1771542958.160125,-3.90625,46.875,32.2265625,-13.18359375,102.5390625
1771542958.1640313,30.76171875,51.26953125,8.30078125,20.99609375,68.359375
1771542958.1679375,35.15625,50.29296875,-10.7421875,23.92578125,47.36328125
1771542958.1718438,-8.30078125,39.55078125,12.20703125,-8.7890625,54.6875
1771542958.17575,-16.6015625,32.71484375,30.2734375,-9.765625,65.4296875
1771542958.1796563,20.5078125,36.62109375,5.37109375,19.04296875,51.7578125
1771542958.1835625,26.85546875,46.875,-26.85546875,16.11328125,61.03515625
1771542958.1874688,6.8359375,53.22265625,-22.94921875,-3.41796875,68.84765625
1771542958.191375,-1.953125,44.43359375,19.04296875,-9.765625,25.87890625
1771542958.1952813,9.27734375,40.52734375,16.11328125,-3.90625,-20.99609375
1771542958.1991875,31.25,48.828125,-12.20703125,22.4609375,40.52734375
1771542958.2030938,24.4140625,56.640625,-19.04296875,16.11328125,35.64453125
1771542958.205125,-7.8125,45.41015625,12.20703125,-19.04296875,61.03515625
1771542958.2090313,5.37109375,38.0859375,12.20703125,-10.7421875,49.8046875
1771542958.2129376,36.62109375,50.78125,-19.04296875,16.6015625,-7.8125
1771542958.2168438,38.57421875,49.8046875,-14.6484375,23.4375,9.765625
1771542958.22075,7.32421875,38.57421875,8.7890625,-4.39453125,0.9765625
1771542958.2246563,-2.9296875,41.50390625,6.8359375,-12.6953125,16.6015625
1771542958.2285626,29.78515625,52.24609375,-24.90234375,18.5546875,33.203125
1771542958.2324688,31.25,53.22265625,-25.390625,26.3671875,44.43359375
1771542958.236375,12.20703125,44.921875,17.08984375,17.08984375,45.8984375
1771542958.2402813,14.6484375,38.57421875,26.85546875,9.765625,40.0390625
1771542958.2441876,27.34375,42.48046875,11.71875,3.90625,21.484375
1771542958.2480938,26.3671875,51.26953125,-6.34765625,10.25390625,50.78125
1771542958.251125,10.7421875,45.41015625,-5.859375,6.34765625,61.03515625
1771542958.2550313,24.90234375,35.64453125,18.5546875,20.99609375,68.84765625
1771542958.2589376,44.921875,36.62109375,19.53125,31.25,83.984375
1771542958.2628438,30.2734375,43.45703125,2.9296875,4.8828125,57.12890625
1771542958.26675,15.625,47.8515625,-5.37109375,-2.9296875,12.6953125
1771542958.2706563,17.08984375,45.8984375,0.9765625,10.25390625,10.25390625
1771542958.2745626,28.80859375,42.96875,0.48828125,18.5546875,27.83203125
1771542958.2784688,32.2265625,41.9921875,13.671875,21.484375,48.33984375
1771542958.282375,26.85546875,39.55078125,9.27734375,20.5078125,38.0859375
1771542958.2862813,10.7421875,39.0625,13.18359375,5.37109375,39.0625
1771542958.2901876,11.23046875,44.921875,27.34375,8.30078125,51.26953125
1771542958.2940938,25.390625,52.24609375,19.53125,19.04296875,78.125
1771542958.296125,18.06640625,51.7578125,0.9765625,11.23046875,75.1953125
1771542958.3000312,6.34765625,45.8984375,-3.90625,2.9296875,29.296875
1771542958.3039374,8.30078125,37.59765625,23.92578125,10.25390625,61.03515625
1771542958.3078437,20.5078125,40.0390625,21.484375,17.578125,4.8828125
1771542958.31175,27.83203125,47.8515625,-2.44140625,25.87890625,-37.59765625
1771542958.3156562,18.06640625,47.8515625,-19.04296875,25.390625,51.26953125
1771542958.3195624,12.6953125,36.62109375,3.41796875,16.6015625,42.48046875
1771542958.3234687,10.7421875,28.3203125,50.29296875,13.18359375,15.13671875
1771542958.327375,14.6484375,34.66796875,20.01953125,15.13671875,34.66796875
1771542958.3312812,22.4609375,43.45703125,-2.9296875,19.53125,72.75390625
1771542958.3351874,8.30078125,42.96875,28.3203125,9.27734375,76.171875
1771542958.3390937,10.7421875,38.0859375,42.48046875,11.71875,41.015625
1771542958.371125,39.0625,41.9921875,12.6953125,27.83203125,53.7109375
1771542958.3750312,45.41015625,49.8046875,-3.90625,37.59765625,50.29296875
1771542958.3789375,22.94921875,45.8984375,22.94921875,27.83203125,43.45703125
1771542958.3828437,20.01953125,44.921875,37.59765625,21.97265625,63.4765625
1771542958.38675,51.7578125,51.7578125,5.859375,51.7578125,84.9609375
1771542958.3906562,57.6171875,45.8984375,-20.5078125,58.10546875,51.7578125
1771542958.3945625,20.99609375,46.875,9.765625,26.85546875,23.4375
1771542958.3984687,5.37109375,50.29296875,43.45703125,9.765625,41.50390625
1771542958.402375,28.3203125,48.828125,21.484375,22.94921875,73.2421875
1771542958.4062812,46.38671875,50.29296875,-0.9765625,31.73828125,119.62890625
1771542958.4101875,28.3203125,44.43359375,18.06640625,17.08984375,92.28515625
1771542958.4140937,0.9765625,42.48046875,29.296875,5.37109375,59.5703125
1771542958.400125,14.16015625,42.48046875,30.76171875,13.18359375,113.28125
1771542958.4040313,38.57421875,42.96875,1.46484375,22.94921875,18.5546875
1771542958.4079375,30.76171875,49.8046875,-4.39453125,14.16015625,-35.64453125
1771542958.4118438,7.32421875,54.6875,25.87890625,-3.90625,47.36328125
1771542958.41575,8.7890625,48.828125,30.2734375,0.48828125,20.5078125
1771542958.4196563,31.73828125,47.8515625,6.8359375,18.5546875,11.23046875
1771542958.4235625,35.15625,46.38671875,-3.41796875,20.99609375,40.52734375
1771542958.4274688,7.32421875,43.9453125,13.18359375,1.953125,25.390625
1771542958.431375,8.30078125,47.36328125,37.59765625,-5.37109375,20.01953125
1771542958.4352813,31.73828125,51.26953125,28.3203125,13.671875,12.20703125
1771542958.4391875,40.52734375,50.29296875,6.34765625,25.87890625,17.08984375
1771542958.4430938,22.4609375,45.41015625,11.71875,12.20703125,35.64453125
1771542958.445125,2.9296875,40.0390625,26.85546875,6.8359375,-24.90234375
1771542958.4490314,25.87890625,34.66796875,43.45703125,24.90234375,10.7421875
1771542958.4529376,47.8515625,38.0859375,23.4375,38.0859375,89.84375
1771542958.4568439,29.296875,43.9453125,-0.48828125,31.73828125,62.01171875
1771542958.46075,11.71875,40.52734375,10.7421875,23.92578125,43.45703125
1771542958.4646564,22.94921875,40.52734375,41.015625,32.2265625,85.44921875
1771542958.4685626,46.38671875,48.33984375,27.83203125,41.015625,75.1953125
1771542958.4724689,52.734375,52.24609375,-1.953125,42.96875,47.8515625
1771542958.476375,30.76171875,48.828125,8.7890625,21.97265625,55.6640625
1771542958.4802814,17.578125,38.57421875,43.45703125,8.30078125,34.1796875
1771542958.4841876,36.1328125,41.50390625,32.71484375,30.76171875,38.0859375
1771542958.4880939,51.26953125,47.36328125,-0.48828125,37.59765625,39.55078125
1771542958.490125,16.11328125,42.96875,21.97265625,11.71875,79.58984375
1771542958.4940312,-5.37109375,35.64453125,50.78125,1.46484375,28.3203125
1771542958.4979374,26.3671875,40.52734375,37.109375,18.5546875,-62.98828125
1771542958.5018437,29.296875,45.41015625,25.87890625,24.4140625,27.83203125
1771542958.50575,-1.46484375,39.0625,30.76171875,6.8359375,59.5703125
1771542958.5096562,-12.20703125,36.62109375,36.1328125,-11.23046875,37.109375
1771542958.5135624,9.27734375,34.1796875,30.76171875,0.0,46.875
1771542958.5174687,39.55078125,33.69140625,2.9296875,25.390625,52.24609375
1771542958.521375,19.53125,43.45703125,8.30078125,15.13671875,51.26953125
1771542958.5252812,-14.6484375,46.38671875,49.8046875,-25.390625,18.06640625
1771542958.5291874,-2.44140625,44.43359375,40.52734375,-23.92578125,14.6484375
1771542958.5330937,18.5546875,48.33984375,12.6953125,9.765625,-2.9296875
1771542958.535125,26.85546875,45.41015625,22.94921875,19.04296875,-56.640625
1771542958.5390313,1.953125,35.15625,51.26953125,-3.41796875,6.8359375
1771542958.5429375,2.44140625,34.1796875,46.38671875,3.90625,36.1328125
1771542958.5468438,41.015625,41.50390625,28.80859375,31.73828125,72.75390625
1771542958.55075,49.31640625,38.57421875,27.34375,41.50390625,75.1953125
1771542958.5546563,29.296875,36.62109375,31.25,24.4140625,8.30078125
1771542958.5585625,27.34375,43.45703125,43.9453125,11.71875,13.671875
1771542958.5624688,50.29296875,45.41015625,32.2265625,37.59765625,19.53125
1771542958.566375,60.05859375,42.48046875,33.203125,62.98828125,55.17578125
1771542958.5702813,44.921875,34.66796875,41.50390625,60.05859375,50.29296875
1771542958.5741875,25.87890625,28.3203125,56.15234375,40.0390625,40.0390625
1771542958.5780938,45.8984375,36.1328125,62.01171875,57.6171875,44.43359375
1771542958.581125,64.453125,46.38671875,46.38671875,70.3125,25.87890625
1771542958.5850313,42.48046875,43.9453125,26.85546875,47.8515625,39.55078125
1771542958.5889375,13.671875,37.59765625,31.25,23.92578125,61.5234375
1771542958.5928438,26.3671875,37.59765625,51.7578125,27.83203125,57.12890625
1771542958.59675,60.05859375,41.015625,35.15625,55.6640625,0.0
1771542958.6006563,58.10546875,41.50390625,17.08984375,61.03515625,9.27734375
1771542958.6045625,13.18359375,40.0390625,18.06640625,18.5546875,82.03125
1771542958.6084688,0.48828125,41.015625,31.73828125,-0.9765625,48.33984375
1771542958.612375,24.90234375,46.875,46.875,20.5078125,0.9765625
1771542958.6162813,30.76171875,47.36328125,29.296875,34.66796875,31.25
1771542958.6201875,7.32421875,34.66796875,27.34375,15.625,66.89453125
1771542958.6240938,-9.27734375,34.66796875,46.875,-17.578125,38.0859375
1771542958.625125,10.7421875,41.015625,47.8515625,-4.8828125,31.73828125
1771542958.6290312,40.52734375,38.57421875,23.92578125,35.15625,21.97265625
1771542958.6329374,28.80859375,34.1796875,29.296875,31.73828125,20.01953125
1771542958.6368437,-5.859375,40.52734375,50.78125,-9.27734375,51.26953125
1771542958.64075,1.953125,48.33984375,47.8515625,-8.30078125,108.88671875
1771542958.6446562,24.4140625,48.33984375,18.06640625,29.78515625,112.79296875
1771542958.6485624,16.6015625,49.31640625,-13.18359375,34.1796875,24.90234375
1771542958.6524687,-5.859375,46.875,30.76171875,3.90625,36.62109375
1771542958.656375,6.8359375,39.55078125,73.73046875,0.9765625,89.35546875
1771542958.6602812,25.87890625,35.64453125,41.015625,21.97265625,50.78125
1771542958.6641874,26.3671875,41.50390625,24.90234375,38.57421875,33.69140625
1771542958.6680937,5.859375,45.41015625,47.8515625,25.87890625,67.3828125
1771542958.685125,7.8125,41.50390625,60.546875,16.6015625,108.3984375
1771542958.6890314,33.69140625,43.9453125,41.9921875,33.69140625,116.69921875
1771542958.6929376,43.45703125,50.29296875,26.3671875,55.17578125,60.05859375
1771542958.6968439,31.73828125,52.734375,34.1796875,43.9453125,8.30078125
1771542958.70075,14.6484375,46.875,39.55078125,18.06640625,-37.59765625
1771542958.7046564,28.3203125,43.45703125,13.671875,27.83203125,-7.8125
1771542958.7085626,53.7109375,45.8984375,2.44140625,44.921875,41.015625
1771542958.7124689,36.62109375,45.41015625,33.69140625,43.45703125,21.97265625
1771542958.716375,21.484375,48.33984375,48.33984375,19.53125,19.04296875
1771542958.7202814,38.0859375,46.875,42.48046875,16.6015625,29.78515625
1771542958.7241876,48.828125,42.96875,23.92578125,39.0625,-41.015625
1771542958.7280939,26.3671875,39.0625,23.4375,33.69140625,-11.71875
1771542958.730125,4.8828125,41.50390625,28.3203125,3.90625,51.7578125
1771542958.7340312,24.90234375,49.31640625,23.4375,10.25390625,-2.9296875
1771542958.7379375,52.734375,49.8046875,37.109375,38.0859375,17.578125
1771542958.7418437,42.96875,41.015625,30.76171875,39.55078125,23.4375
1771542958.74575,14.16015625,40.52734375,26.85546875,15.625,47.36328125
1771542958.7496562,17.08984375,45.8984375,35.64453125,8.7890625,85.9375
1771542958.7535625,26.85546875,41.015625,27.83203125,19.04296875,23.92578125
1771542958.7574687,20.5078125,41.50390625,22.94921875,20.01953125,43.9453125
1771542958.761375,3.90625,49.31640625,12.20703125,5.859375,121.09375
1771542958.7652812,-0.48828125,47.8515625,-0.48828125,-7.8125,98.6328125
1771542958.7691875,13.18359375,40.0390625,32.2265625,1.953125,56.15234375
1771542958.7730937,22.4609375,37.59765625,32.71484375,24.90234375,73.73046875
1771542958.775125,9.765625,41.015625,10.7421875,29.296875,67.3828125
1771542958.7790313,-8.7890625,34.66796875,40.0390625,7.8125,83.49609375
1771542958.7829375,6.34765625,26.3671875,45.8984375,16.11328125,53.22265625
1771542958.7868438,30.2734375,29.78515625,15.625,43.9453125,-4.8828125
1771542958.79075,34.1796875,32.71484375,7.8125,53.22265625,-2.9296875
1771542958.7946563,18.06640625,35.15625,23.92578125,26.85546875,41.50390625
1771542958.7985625,14.6484375,33.203125,45.8984375,9.765625,59.5703125
1771542958.8024688,37.59765625,35.15625,41.50390625,42.96875,24.4140625
1771542958.806375,63.96484375,40.52734375,0.9765625,76.171875,0.48828125
1771542958.8102813,46.38671875,31.25,14.6484375,49.8046875,-17.08984375
1771542958.8141875,17.08984375,25.87890625,50.29296875,9.765625,-26.3671875
1771542958.8180938,36.1328125,31.25,24.4140625,32.2265625,39.55078125
1771542958.820125,48.828125,32.71484375,7.32421875,64.453125,66.89453125
1771542958.8240314,28.80859375,30.2734375,24.4140625,35.15625,89.35546875
1771542958.8279376,10.7421875,34.1796875,40.52734375,-0.48828125,100.5859375
1771542958.8318439,12.20703125,36.62109375,30.2734375,4.8828125,78.61328125
1771542958.83575,29.296875,38.0859375,2.44140625,36.1328125,47.36328125
1771542958.8396564,29.296875,37.109375,0.48828125,51.7578125,51.7578125
1771542958.8435626,6.8359375,26.3671875,27.34375,11.71875,90.8203125
1771542958.8474689,4.8828125,28.3203125,22.4609375,-6.34765625,33.69140625
1771542958.851375,26.85546875,35.64453125,-1.46484375,28.3203125,33.69140625
1771542958.8552814,32.2265625,31.73828125,16.6015625,41.50390625,64.453125
1771542958.8591876,3.41796875,21.484375,28.80859375,12.6953125,60.05859375
1771542958.8630939,-0.48828125,16.11328125,21.484375,-2.44140625,41.9921875
1771542958.866125,19.53125,20.5078125,14.6484375,18.06640625,39.0625
1771542958.8700314,21.484375,22.4609375,8.30078125,39.55078125,68.84765625
1771542958.8739376,2.44140625,12.6953125,20.5078125,15.13671875,73.73046875
1771542958.8778439,-2.9296875,8.7890625,21.97265625,-8.7890625,71.77734375
1771542958.88175,28.3203125,20.99609375,11.71875,28.3203125,67.3828125
1771542958.8856564,50.78125,20.5078125,-1.46484375,62.5,120.1171875
1771542958.8895626,29.78515625,9.765625,-1.46484375,39.0625,77.63671875
1771542958.8934689,3.90625,17.578125,2.44140625,12.20703125,27.83203125
1771542958.897375,16.6015625,16.11328125,7.8125,15.13671875,53.22265625
1771542958.9012814,41.015625,16.11328125,20.99609375,51.7578125,46.875
1771542958.9051876,45.8984375,22.4609375,1.953125,61.5234375,57.12890625
1771542958.9090939,32.2265625,20.01953125,8.30078125,33.69140625,57.6171875
1771542958.910125,36.62109375,21.484375,30.76171875,31.73828125,66.40625
1771542958.9140313,48.828125,17.578125,16.6015625,49.31640625,48.33984375
1771542958.9179375,53.22265625,5.859375,-1.953125,67.87109375,40.0390625
1771542958.9218438,27.34375,10.25390625,-1.46484375,30.2734375,31.73828125
1771542958.92575,1.46484375,17.08984375,10.25390625,-10.25390625,16.11328125
1771542958.9296563,27.83203125,24.90234375,5.859375,17.08984375,17.08984375
1771542958.9335625,44.921875,33.203125,-13.671875,52.734375,16.11328125
1771542958.9374688,26.3671875,29.78515625,-23.92578125,37.59765625,33.203125
1771542958.941375,14.6484375,23.4375,13.671875,3.90625,19.04296875
1771542958.9452813,30.76171875,16.6015625,40.52734375,15.13671875,-5.859375
1771542958.9491875,31.25,24.90234375,-6.8359375,28.3203125,16.6015625
1771542958.9530938,18.5546875,34.1796875,-20.99609375,22.4609375,38.57421875
1771542958.955125,8.30078125,27.34375,30.2734375,3.90625,70.3125
1771542958.9590313,16.11328125,19.04296875,43.45703125,13.671875,91.796875
1771542958.9629376,22.4609375,7.8125,22.4609375,29.78515625,101.07421875
1771542958.9668438,24.90234375,11.23046875,1.46484375,26.85546875,53.7109375
1771542958.97075,15.13671875,21.97265625,14.16015625,9.765625,55.17578125
1771542958.9746563,3.90625,23.92578125,28.3203125,-1.46484375,82.03125
1771542958.9785626,35.64453125,24.4140625,-1.953125,28.3203125,74.70703125
1771542958.9824688,45.8984375,28.80859375,-22.4609375,42.48046875,54.19921875
1771542958.986375,9.765625,33.203125,16.11328125,6.34765625,-9.27734375
1771542958.9902813,-1.953125,29.296875,33.69140625,-13.18359375,15.13671875
1771542958.9941876,30.2734375,19.53125,20.01953125,18.06640625,44.921875
1771542958.9980938,57.12890625,25.87890625,19.04296875,57.12890625,35.15625
1771542959.000125,34.66796875,34.66796875,33.203125,41.9921875,37.109375
1771542959.0040312,9.27734375,23.92578125,38.0859375,16.11328125,-9.27734375
1771542959.0079374,29.78515625,18.06640625,32.71484375,36.1328125,8.7890625
1771542959.0118437,46.875,27.34375,24.90234375,55.6640625,48.828125
1771542959.01575,36.1328125,31.73828125,18.5546875,47.36328125,67.87109375
1771542959.0196562,1.953125,33.203125,14.16015625,8.30078125,77.63671875
1771542959.0235624,8.30078125,34.66796875,11.23046875,6.8359375,41.9921875
1771542959.0274687,36.1328125,39.0625,22.4609375,40.52734375,-22.94921875
1771542959.031375,31.25,38.0859375,26.3671875,43.9453125,7.32421875
1771542959.0352812,8.30078125,32.2265625,20.99609375,8.7890625,8.30078125
1771542959.0391874,3.41796875,30.76171875,35.15625,-4.39453125,-8.30078125
1771542959.0430937,18.06640625,23.4375,43.45703125,21.97265625,13.671875
1771542959.060125,14.16015625,28.3203125,27.83203125,27.83203125,36.62109375
1771542959.0640314,-0.9765625,28.80859375,22.94921875,3.41796875,26.85546875
1771542959.0679376,-5.37109375,19.53125,32.71484375,-19.53125,-8.7890625
1771542959.0718439,7.8125,34.1796875,41.9921875,-9.765625,-13.671875
1771542959.07575,13.18359375,41.9921875,25.87890625,10.25390625,24.90234375
1771542959.0796564,-1.46484375,38.0859375,-11.23046875,-0.9765625,56.640625
1771542959.0835626,-20.5078125,29.78515625,13.671875,-20.5078125,25.87890625
1771542959.0874689,-12.20703125,28.3203125,62.5,-13.671875,100.09765625
1771542959.091375,11.71875,36.62109375,29.78515625,17.578125,91.796875
1771542959.0952814,7.8125,40.52734375,13.671875,18.06640625,8.30078125
1771542959.0991876,-11.71875,38.57421875,36.62109375,-2.44140625,23.92578125
1771542959.1030939,-5.37109375,33.203125,39.0625,-5.859375,-22.4609375
1771542959.106125,12.20703125,31.73828125,23.4375,14.6484375,-1.953125
1771542959.1100314,20.01953125,25.390625,8.30078125,36.1328125,53.7109375
1771542959.1139376,4.39453125,29.296875,35.64453125,17.578125,49.8046875
1771542959.1178439,-4.39453125,32.2265625,61.03515625,-4.8828125,49.31640625
1771542959.12175,28.80859375,26.3671875,44.921875,34.66796875,53.22265625
1771542959.1256564,53.7109375,26.3671875,26.3671875,71.77734375,58.59375
1771542959.1295626,25.87890625,32.71484375,31.73828125,34.1796875,26.3671875
1771542959.1334689,7.8125,42.48046875,45.41015625,-5.859375,34.1796875
1771542959.137375,39.0625,46.875,25.87890625,23.92578125,46.875
1771542959.1412814,53.22265625,41.9921875,5.859375,65.4296875,60.546875
1771542959.1451876,31.73828125,39.0625,28.3203125,51.26953125,17.578125
1771542959.1490939,16.6015625,42.96875,39.55078125,16.11328125,-65.91796875
1771542959.150125,32.2265625,54.19921875,42.96875,19.04296875,-27.34375
1771542959.1540313,44.921875,56.640625,36.1328125,49.31640625,32.71484375
1771542959.1579375,21.97265625,35.64453125,39.0625,41.50390625,38.0859375
1771542959.1618438,2.9296875,27.34375,45.41015625,6.34765625,5.859375
1771542959.16575,12.20703125,39.55078125,39.0625,3.41796875,5.37109375
1771542959.1696563,35.64453125,45.41015625,28.3203125,30.2734375,3.90625
1771542959.1735625,32.71484375,41.9921875,24.90234375,36.62109375,50.29296875
1771542959.1774688,-0.9765625,39.0625,44.43359375,10.7421875,63.4765625
1771542959.181375,-14.6484375,33.203125,45.41015625,-3.90625,15.625
1771542959.1852813,2.9296875,28.3203125,37.109375,9.765625,48.828125
1771542959.1891875,13.18359375,28.3203125,51.26953125,21.97265625,87.890625
1771542959.1930938,2.44140625,34.1796875,36.62109375,6.8359375,63.96484375
1771542959.195125,-1.953125,36.1328125,38.57421875,-14.16015625,45.8984375
1771542959.1990314,18.06640625,35.64453125,57.6171875,3.41796875,61.03515625
1771542959.2029376,21.484375,45.8984375,44.43359375,23.92578125,84.47265625
1771542959.2068439,23.92578125,46.875,19.53125,32.2265625,103.515625
1771542959.21075,19.04296875,42.48046875,22.4609375,14.6484375,29.296875
1771542959.2146564,9.765625,40.0390625,28.80859375,3.41796875,-66.40625
1771542959.2185626,23.4375,37.59765625,18.5546875,31.25,6.34765625
1771542959.2224689,35.15625,42.96875,3.41796875,45.41015625,77.1484375
1771542959.226375,17.08984375,39.55078125,13.18359375,39.0625,35.15625
1771542959.2302814,6.34765625,28.80859375,58.10546875,22.94921875,82.51953125
1771542959.2341876,35.15625,40.52734375,44.921875,34.1796875,80.078125
1771542959.2380939,41.015625,46.875,18.06640625,52.734375,29.78515625
1771542959.240125,20.5078125,36.62109375,30.76171875,31.25,67.3828125
1771542959.2440312,11.71875,29.296875,47.36328125,10.25390625,45.41015625
1771542959.2479374,17.08984375,33.69140625,37.59765625,25.390625,50.29296875
1771542959.2518437,25.87890625,43.45703125,10.7421875,47.8515625,48.33984375
1771542959.25575,22.94921875,41.015625,11.71875,39.55078125,-2.44140625
1771542959.2596562,8.30078125,30.2734375,20.99609375,4.8828125,25.390625
1771542959.2635624,16.11328125,22.94921875,23.4375,8.30078125,69.82421875
1771542959.2674687,25.87890625,18.06640625,2.9296875,36.1328125,71.2890625
1771542959.271375,10.7421875,16.11328125,0.9765625,22.94921875,51.26953125
1771542959.2752812,1.46484375,23.92578125,43.45703125,-5.859375,41.015625
1771542959.2791874,20.99609375,33.203125,43.45703125,1.953125,25.87890625
1771542959.2830937,28.3203125,25.87890625,26.3671875,31.25,20.99609375
1771542959.286125,18.06640625,29.296875,28.80859375,41.015625,5.859375
1771542959.2900312,12.20703125,42.48046875,43.45703125,16.11328125,4.8828125
1771542959.2939374,9.765625,37.59765625,29.78515625,-4.39453125,13.18359375
1771542959.2978437,18.5546875,24.4140625,9.27734375,19.04296875,21.97265625
1771542959.30175,29.78515625,27.34375,9.765625,44.43359375,30.2734375
1771542959.3056562,14.6484375,29.296875,11.23046875,15.625,16.11328125
1771542959.3095624,0.48828125,28.3203125,16.6015625,-8.7890625,31.25
1771542959.3134687,20.5078125,29.78515625,16.11328125,15.625,24.90234375
1771542959.317375,35.64453125,31.73828125,23.92578125,34.1796875,22.4609375
1771542959.3212812,32.71484375,36.62109375,32.71484375,30.76171875,56.15234375
1771542959.3251874,15.13671875,31.73828125,26.85546875,11.71875,44.43359375
1771542959.3290937,6.34765625,20.5078125,27.83203125,3.90625,19.53125
1771542959.330125,23.92578125,21.484375,37.109375,31.73828125,37.109375
1771542959.3340313,25.390625,31.73828125,26.85546875,35.64453125,92.7734375
1771542959.3379376,3.41796875,35.64453125,22.4609375,1.46484375,64.453125
1771542959.3418438,17.08984375,29.78515625,39.55078125,7.32421875,41.015625
1771542959.34575,38.0859375,30.2734375,34.66796875,43.9453125,21.484375
1771542959.3496563,21.484375,35.64453125,5.37109375,31.73828125,56.15234375
1771542959.3535626,5.37109375,40.52734375,-4.8828125,-2.44140625,112.79296875
1771542959.3574688,9.765625,47.8515625,14.6484375,3.41796875,10.25390625
1771542959.361375,32.2265625,38.57421875,42.96875,25.87890625,24.4140625
1771542959.3652813,41.9921875,25.87890625,20.99609375,34.66796875,46.38671875
1771542959.3691876,8.30078125,31.73828125,11.23046875,14.6484375,-6.34765625
1771542959.3730938,-5.859375,38.57421875,31.73828125,-9.765625,-14.6484375
1771542959.375125,19.04296875,41.015625,40.0390625,11.23046875,4.39453125
1771542959.3790312,30.2734375,39.0625,14.16015625,35.15625,2.9296875
1771542959.3829374,17.578125,35.64453125,3.90625,24.4140625,-6.34765625
1771542959.3868437,2.9296875,25.87890625,41.50390625,-0.9765625,67.3828125
1771542959.39075,9.765625,20.01953125,51.7578125,10.25390625,41.50390625
1771542959.3946562,26.85546875,27.34375,17.08984375,38.57421875,-11.71875
1771542959.3985624,30.2734375,29.78515625,5.37109375,31.25,47.36328125
1771542959.4024687,12.6953125,30.2734375,52.24609375,7.32421875,79.58984375
1771542959.406375,12.20703125,33.69140625,60.05859375,7.32421875,36.62109375
1771542959.4102812,36.1328125,43.45703125,29.78515625,30.76171875,-2.44140625
1771542959.4141874,41.015625,40.52734375,30.2734375,45.41015625,26.85546875
1771542959.4180937,30.76171875,33.69140625,43.45703125,28.80859375,3.90625
1771542959.421125,22.4609375,36.1328125,46.38671875,3.90625,14.6484375
1771542959.4250312,22.94921875,30.76171875,25.87890625,21.484375,47.36328125
1771542959.4289374,35.64453125,22.94921875,33.69140625,46.875,2.44140625
1771542959.4328437,27.83203125,26.85546875,55.17578125,38.57421875,58.10546875
1771542959.43675,15.13671875,28.3203125,45.8984375,11.71875,65.4296875
1771542959.4406562,33.203125,20.99609375,35.15625,21.484375,36.1328125
1771542959.4445624,43.45703125,22.4609375,34.66796875,41.015625,93.26171875
1771542959.4484687,32.2265625,34.1796875,39.0625,39.0625,49.8046875
1771542959.452375,20.5078125,36.62109375,44.921875,15.13671875,-15.625
1771542959.4562812,37.109375,33.203125,37.59765625,11.71875,-14.6484375
1771542959.4601874,62.5,37.109375,39.55078125,40.0390625,23.4375
1771542959.4640937,55.6640625,44.43359375,37.109375,44.921875,-11.71875
1771542959.480125,26.3671875,29.296875,25.87890625,19.04296875,-22.94921875
1771542959.4840312,29.296875,25.87890625,39.0625,18.06640625,42.48046875
1771542959.4879375,46.38671875,37.59765625,45.41015625,37.59765625,67.87109375
1771542959.4918437,35.15625,38.0859375,27.34375,35.15625,-2.9296875
1771542959.49575,13.18359375,44.921875,36.62109375,16.11328125,-14.16015625
1771542959.4996562,19.53125,41.50390625,44.43359375,8.7890625,104.4921875
1771542959.5035625,39.55078125,31.73828125,48.33984375,23.4375,78.61328125
1771542959.5074687,31.25,38.57421875,51.7578125,28.80859375,37.59765625
1771542959.511375,11.71875,41.015625,27.83203125,13.671875,15.13671875
1771542959.5152812,-1.46484375,20.99609375,36.62109375,-0.48828125,4.39453125
1771542959.5191875,8.7890625,10.25390625,74.70703125,11.23046875,23.92578125
1771542959.5230937,36.1328125,23.92578125,62.01171875,39.55078125,26.85546875
1771542959.525125,27.34375,35.64453125,44.921875,42.96875,66.40625
1771542959.5290313,-9.765625,38.0859375,51.26953125,-3.41796875,52.734375
1771542959.5329375,2.9296875,41.50390625,46.38671875,-1.953125,9.765625
1771542959.5368438,37.109375,45.41015625,30.76171875,39.0625,7.8125
1771542959.54075,33.69140625,40.52734375,25.87890625,36.62109375,-9.27734375
1771542959.5446563,3.90625,25.87890625,33.203125,5.859375,-0.9765625
1771542959.5485625,5.859375,32.71484375,44.921875,0.0,21.97265625
1771542959.5524688,39.55078125,49.31640625,44.921875,34.66796875,31.25
1771542959.556375,36.62109375,38.57421875,19.53125,45.8984375,59.08203125
1771542959.5602813,13.671875,28.80859375,23.4375,21.97265625,44.921875
1771542959.5641875,-1.46484375,26.85546875,67.3828125,-9.27734375,77.1484375
1771542959.5680938,8.7890625,29.78515625,51.26953125,-3.41796875,74.21875
1771542959.570125,24.90234375,35.64453125,29.296875,28.3203125,25.87890625
1771542959.5740314,25.390625,36.62109375,34.1796875,34.66796875,24.90234375
1771542959.5779376,9.765625,31.73828125,51.7578125,7.32421875,88.8671875
1771542959.5818439,9.765625,25.87890625,49.31640625,0.48828125,129.39453125
1771542959.58575,36.62109375,31.25,24.90234375,23.92578125,44.43359375
1771542959.5896564,35.15625,38.0859375,19.04296875,34.1796875,21.97265625
1771542959.5935626,5.859375,37.109375,40.52734375,4.39453125,64.94140625
1771542959.5974689,12.20703125,34.1796875,32.2265625,-5.37109375,29.296875
1771542959.601375,22.4609375,29.296875,-4.8828125,21.97265625,41.015625
1771542959.6052814,10.25390625,19.04296875,19.04296875,25.87890625,12.6953125
1771542959.6091876,-4.39453125,14.16015625,50.78125,4.39453125,19.53125
1771542959.6130939,-0.48828125,27.34375,50.29296875,-9.27734375,64.453125
1771542959.615125,23.92578125,26.3671875,52.734375,13.18359375,49.8046875
1771542959.6190312,40.52734375,23.92578125,48.828125,57.12890625,14.16015625
1771542959.6229374,13.671875,33.69140625,37.59765625,28.3203125,47.36328125
1771542959.6268437,-17.08984375,24.90234375,35.64453125,-24.90234375,64.453125
1771542959.63075,15.13671875,21.97265625,34.66796875,5.859375,23.4375
1771542959.6346562,39.0625,27.83203125,24.4140625,51.26953125,50.29296875
1771542959.6385624,13.671875,21.97265625,27.83203125,35.15625,136.71875
1771542959.6424687,-2.9296875,15.625,16.11328125,1.46484375,98.14453125
1771542959.646375,8.7890625,22.94921875,27.34375,7.8125,24.90234375
1771542959.6502812,31.73828125,30.2734375,44.43359375,35.64453125,26.85546875
1771542959.6541874,35.64453125,28.80859375,18.5546875,39.55078125,-8.30078125
1771542959.6580937,0.48828125,20.5078125,36.62109375,12.20703125,14.6484375
1771542959.661125,-3.90625,17.08984375,64.453125,-6.34765625,42.48046875
1771542959.6650312,29.296875,22.4609375,44.921875,16.6015625,28.3203125
1771542959.6689374,40.0390625,28.80859375,13.18359375,44.43359375,55.17578125
1771542959.6728437,19.04296875,20.5078125,21.97265625,31.25,70.3125
1771542959.67675,6.34765625,8.30078125,45.41015625,2.9296875,13.18359375
1771542959.6806562,21.97265625,4.8828125,29.296875,5.859375,-26.85546875
1771542959.6845624,32.71484375,10.25390625,7.32421875,39.55078125,35.15625
1771542959.6884687,19.53125,21.484375,6.34765625,23.4375,75.68359375
1771542959.692375,-4.8828125,22.4609375,32.2265625,-15.625,26.3671875
1771542959.6962812,11.23046875,17.578125,37.59765625,-3.41796875,18.5546875
1771542959.7001874,39.55078125,24.4140625,26.3671875,44.43359375,85.9375
1771542959.7040937,35.15625,24.90234375,12.6953125,48.828125,76.66015625
1771542959.706125,9.27734375,22.4609375,10.25390625,-1.46484375,26.3671875
1771542959.7100313,8.7890625,22.4609375,21.97265625,-5.859375,8.7890625
1771542959.7139375,36.62109375,20.01953125,4.8828125,31.73828125,30.76171875
1771542959.7178438,44.921875,17.578125,10.25390625,44.921875,67.87109375
1771542959.72175,23.92578125,14.16015625,41.015625,22.4609375,92.7734375
1771542959.7256563,9.765625,16.11328125,39.55078125,-0.9765625,106.4453125
1771542959.7295625,20.99609375,17.08984375,4.8828125,20.5078125,55.17578125
1771542959.7334688,28.3203125,16.6015625,-5.859375,34.1796875,34.1796875
1771542959.737375,8.30078125,24.4140625,27.34375,12.6953125,35.15625
1771542959.7412813,2.44140625,22.94921875,27.34375,-8.30078125,30.76171875
1771542959.7451875,24.4140625,7.8125,20.5078125,9.27734375,68.359375
1771542959.7490938,42.96875,7.8125,19.53125,48.828125,55.6640625
1771542959.750125,33.203125,20.5078125,14.6484375,41.50390625,37.59765625
1771542959.7540312,9.765625,20.01953125,17.08984375,11.23046875,36.1328125
1771542959.7579374,17.08984375,21.484375,20.5078125,11.23046875,36.1328125
1771542959.7618437,36.62109375,28.80859375,19.53125,41.9921875,38.57421875
1771542959.76575,29.78515625,29.78515625,12.20703125,44.43359375,7.32421875
1771542959.7696562,14.16015625,30.76171875,18.06640625,3.90625,66.40625
1771542959.7735624,23.4375,27.83203125,10.25390625,2.44140625,86.9140625
1771542959.7774687,41.9921875,20.01953125,6.34765625,31.25,-19.53125
1771542959.781375,35.15625,19.04296875,21.484375,45.41015625,-72.265625
1771542959.7852812,9.765625,20.01953125,19.04296875,17.578125,-14.6484375
1771542959.7891874,11.71875,21.484375,33.69140625,4.39453125,20.01953125
1771542959.7930937,35.15625,24.90234375,50.78125,54.19921875,73.2421875
1771542959.810125,39.55078125,29.78515625,32.71484375,62.98828125,97.16796875
1771542959.8140314,29.78515625,29.78515625,20.99609375,24.4140625,30.76171875
1771542959.8179376,19.04296875,30.76171875,37.59765625,11.23046875,-9.765625
1771542959.8218439,27.83203125,24.90234375,36.62109375,23.4375,1.953125
1771542959.82575,34.66796875,28.3203125,15.625,45.41015625,33.203125
1771542959.8296564,29.296875,36.62109375,18.06640625,48.33984375,24.4140625
1771542959.8335626,9.27734375,22.94921875,42.96875,12.6953125,5.859375
1771542959.8374689,7.8125,18.06640625,43.9453125,-3.41796875,44.921875
1771542959.841375,28.3203125,33.203125,30.2734375,24.4140625,27.83203125
1771542959.8452814,34.66796875,40.52734375,9.27734375,36.62109375,51.7578125
1771542959.8491876,18.06640625,35.15625,15.13671875,11.71875,68.84765625
1771542959.8530939,10.25390625,40.0390625,55.17578125,-0.48828125,35.64453125
1771542959.855125,31.73828125,39.0625,45.8984375,25.390625,13.671875
1771542959.8590312,38.0859375,26.3671875,38.57421875,37.109375,75.68359375
1771542959.8629375,18.5546875,23.92578125,50.78125,10.25390625,109.86328125
1771542959.8668437,20.01953125,36.62109375,50.78125,-0.9765625,54.6875
1771542959.87075,31.25,45.41015625,39.55078125,20.99609375,58.59375
1771542959.8746562,31.73828125,42.96875,27.34375,35.15625,94.23828125
1771542959.8785625,19.04296875,40.52734375,40.0390625,20.99609375,114.2578125
1771542959.8824687,15.13671875,39.0625,53.22265625,0.0,116.69921875
1771542959.886375,32.71484375,32.71484375,31.25,13.18359375,55.6640625
1771542959.8902812,34.66796875,25.390625,20.99609375,28.3203125,18.06640625
1771542959.8941875,17.578125,33.203125,44.921875,20.99609375,50.29296875
1771542959.8980937,3.41796875,41.9921875,51.26953125,-0.9765625,37.59765625
1771542959.900125,11.71875,40.52734375,39.55078125,7.8125,59.5703125
1771542959.9040313,11.23046875,34.1796875,27.34375,16.11328125,45.41015625
1771542959.9079375,20.01953125,38.0859375,36.1328125,13.671875,-15.625
1771542959.9118438,16.6015625,44.921875,47.8515625,3.90625,15.625
1771542959.91575,11.71875,39.55078125,61.5234375,0.0,8.30078125
1771542959.9196563,29.78515625,28.80859375,54.6875,26.85546875,-18.06640625
1771542959.9235625,34.66796875,31.73828125,47.36328125,38.57421875,-4.8828125
1771542959.9274688,15.13671875,41.50390625,58.59375,15.13671875,22.4609375
1771542959.931375,15.625,43.45703125,42.48046875,-2.44140625,9.27734375
1771542959.9352813,21.484375,38.57421875,41.50390625,4.8828125,-35.64453125
1771542959.9391875,19.53125,35.15625,62.98828125,25.390625,41.015625
1771542959.9430938,6.8359375,31.73828125,45.8984375,15.625,30.2734375
1771542959.944125,-6.8359375,28.80859375,48.33984375,-3.90625,-26.85546875
1771542959.9480312,11.23046875,34.1796875,69.3359375,5.37109375,9.27734375
1771542959.9519374,26.3671875,35.15625,60.546875,28.3203125,20.99609375
1771542959.9558437,18.06640625,26.3671875,42.96875,29.78515625,-20.01953125
1771542959.95975,-2.9296875,28.3203125,47.36328125,-4.39453125,12.6953125
1771542959.9636562,10.25390625,41.015625,50.29296875,-2.9296875,60.05859375
1771542959.9675624,30.2734375,43.45703125,45.8984375,22.4609375,61.03515625
1771542959.9714687,21.484375,47.8515625,30.2734375,28.3203125,106.4453125
1771542959.975375,12.20703125,48.828125,19.04296875,4.39453125,80.56640625
1771542959.9792812,21.97265625,48.828125,59.5703125,-6.34765625,13.18359375
1771542959.9831874,42.96875,46.38671875,66.40625,29.296875,9.27734375
1771542959.9870937,43.9453125,28.3203125,45.8984375,44.43359375,46.875
1771542959.991125,12.6953125,27.83203125,38.57421875,11.71875,66.89453125
1771542959.9950314,-4.8828125,42.96875,44.43359375,-18.06640625,45.41015625
1771542959.9989376,19.53125,42.48046875,55.17578125,11.71875,3.90625
1771542960.0028439,40.52734375,41.015625,30.76171875,40.52734375,24.4140625
1771542960.00675,28.3203125,45.8984375,22.4609375,25.87890625,47.8515625
1771542960.0106564,-3.90625,39.55078125,30.76171875,-10.7421875,-1.46484375
1771542960.0145626,-0.9765625,34.66796875,47.36328125,-7.8125,34.66796875
1771542960.0184689,24.4140625,39.55078125,23.4375,27.34375,95.703125
1771542960.022375,33.203125,47.8515625,12.20703125,35.64453125,108.3984375
1771542960.0262814,16.6015625,44.921875,59.5703125,9.27734375,99.609375
1771542960.0301876,19.04296875,45.41015625,63.96484375,3.90625,77.1484375
1771542960.0340939,41.015625,40.0390625,48.33984375,33.203125,83.984375
1771542960.036125,40.52734375,30.2734375,31.25,42.48046875,66.40625
1771542960.0400312,17.08984375,36.62109375,38.0859375,17.578125,73.2421875
1771542960.0439374,4.39453125,39.55078125,42.48046875,3.41796875,24.90234375
1771542960.0478437,32.71484375,37.59765625,33.203125,28.80859375,-62.98828125
1771542960.05175,45.41015625,41.015625,31.73828125,46.38671875,18.06640625
1771542960.0556562,8.30078125,47.36328125,27.34375,12.6953125,100.5859375
1771542960.0595624,-6.34765625,43.9453125,38.0859375,-18.5546875,88.37890625
1771542960.0634687,27.34375,42.96875,44.921875,15.13671875,97.65625
1771542960.067375,48.33984375,43.9453125,41.015625,51.26953125,43.9453125
1771542960.0712812,26.3671875,41.015625,37.109375,25.390625,29.296875
1771542960.0751874,1.953125,37.59765625,31.73828125,-10.7421875,62.01171875
1771542960.0790937,5.37109375,26.85546875,32.71484375,-4.8828125,40.0390625
1771542960.080125,26.3671875,35.15625,51.7578125,20.01953125,6.34765625
1771542960.0840313,32.71484375,46.875,47.36328125,28.3203125,17.578125
1771542960.0879376,15.625,37.59765625,37.109375,0.48828125,22.94921875
1771542960.0918438,9.27734375,29.296875,51.7578125,-7.32421875,38.57421875
1771542960.09575,16.11328125,35.15625,49.31640625,18.5546875,63.96484375
1771542960.0996563,27.83203125,47.8515625,24.4140625,36.62109375,43.9453125
1771542960.1035626,19.04296875,35.15625,19.04296875,17.578125,31.25
1771542960.1074688,9.27734375,32.2265625,39.0625,-6.8359375,79.58984375
1771542960.111375,26.85546875,46.38671875,59.08203125,14.6484375,42.48046875
1771542960.1152813,39.55078125,43.9453125,47.36328125,36.1328125,15.13671875
1771542960.1191876,20.5078125,35.15625,45.41015625,26.85546875,40.0390625
1771542960.1230938,6.8359375,29.296875,59.5703125,12.6953125,33.203125
1771542960.126125,26.85546875,31.25,56.15234375,20.99609375,9.765625
1771542960.1300313,40.0390625,28.80859375,33.69140625,45.8984375,-35.15625
1771542960.1339376,23.4375,32.2265625,25.390625,39.0625,-7.8125
1771542960.1378438,-2.9296875,36.1328125,47.8515625,9.27734375,35.64453125
1771542960.14175,10.7421875,36.1328125,61.5234375,19.04296875,42.96875
1771542960.1456563,39.55078125,39.0625,26.3671875,39.55078125,28.80859375
1771542960.1495626,31.73828125,31.73828125,0.9765625,40.52734375,13.671875
1771542960.1534688,1.953125,18.06640625,28.80859375,12.20703125,39.0625
1771542960.157375,13.671875,31.73828125,46.875,4.39453125,33.203125
1771542960.1612813,57.6171875,40.52734375,41.50390625,51.26953125,20.01953125
1771542960.1651876,55.17578125,28.80859375,34.66796875,63.4765625,14.16015625
1771542960.1690938,23.4375,27.34375,56.640625,24.90234375,78.61328125
1771542960.185125,21.484375,24.4140625,62.98828125,6.34765625,105.95703125
1771542960.1890314,45.8984375,28.3203125,41.015625,38.0859375,40.0390625
1771542960.1929376,54.19921875,38.57421875,26.3671875,60.546875,50.29296875
1771542960.1968439,32.71484375,41.9921875,31.25,27.34375,14.6484375
1771542960.20075,10.7421875,38.0859375,41.50390625,-6.8359375,-22.94921875
1771542960.2046564,23.92578125,36.62109375,42.48046875,6.34765625,14.6484375
1771542960.2085626,42.96875,42.48046875,38.57421875,45.41015625,97.65625
1771542960.2124689,39.55078125,38.57421875,43.9453125,54.6875,92.28515625
1771542960.216375,16.11328125,26.85546875,57.12890625,18.5546875,37.59765625
1771542960.2202814,18.06640625,30.76171875,40.0390625,22.94921875,35.15625
1771542960.2241876,42.96875,39.55078125,31.73828125,45.8984375,34.1796875
1771542960.2280939,44.43359375,38.57421875,52.24609375,45.41015625,37.59765625
1771542960.230125,26.85546875,32.2265625,46.38671875,31.73828125,-14.16015625
1771542960.2340312,22.4609375,23.92578125,49.31640625,20.99609375,4.8828125
1771542960.2379375,36.1328125,30.2734375,48.33984375,40.52734375,53.7109375
1771542960.2418437,51.7578125,45.8984375,36.1328125,63.96484375,3.41796875
1771542960.24575,39.0625,41.50390625,39.0625,36.62109375,-5.37109375
1771542960.2496562,17.08984375,25.390625,42.96875,-3.41796875,55.17578125
1771542960.2535625,32.2265625,31.25,49.8046875,14.6484375,82.51953125
1771542960.2574687,38.0859375,40.52734375,38.0859375,35.15625,62.5
1771542960.261375,17.08984375,45.41015625,8.30078125,23.92578125,18.06640625
1771542960.2652812,14.16015625,51.7578125,23.4375,13.18359375,17.08984375
1771542960.2691875,27.34375,41.50390625,71.77734375,20.01953125,22.94921875
1771542960.2730937,30.76171875,41.9921875,57.12890625,37.59765625,28.3203125
1771542960.275125,27.83203125,50.29296875,29.296875,43.45703125,66.40625
1771542960.2790313,25.390625,39.55078125,43.9453125,24.4140625,64.94140625
1771542960.2829375,40.0390625,32.71484375,60.05859375,19.53125,19.53125
1771542960.2868438,46.875,41.9921875,48.828125,26.85546875,68.359375
1771542960.29075,32.71484375,49.31640625,28.80859375,25.390625,84.47265625
1771542960.2946563,19.04296875,54.6875,26.3671875,11.23046875,56.640625
1771542960.2985625,31.73828125,58.59375,43.45703125,7.32421875,72.75390625
1771542960.3024688,37.59765625,47.8515625,46.38671875,14.16015625,58.59375
1771542960.306375,30.2734375,41.50390625,12.6953125,33.203125,54.19921875
1771542960.3102813,26.3671875,44.43359375,19.53125,28.80859375,77.1484375
1771542960.3141875,12.20703125,42.96875,59.5703125,-1.46484375,48.33984375
1771542960.3180938,16.11328125,42.96875,50.78125,5.37109375,8.7890625
1771542960.321125,31.73828125,51.7578125,38.0859375,31.73828125,62.01171875
1771542960.3250313,36.1328125,60.546875,41.015625,38.0859375,69.82421875
1771542960.3289375,21.484375,59.08203125,49.8046875,9.27734375,26.3671875
1771542960.3328438,22.4609375,56.640625,43.45703125,12.6953125,18.06640625
1771542960.33675,31.25,47.36328125,19.53125,39.55078125,28.3203125
1771542960.3406563,22.94921875,40.52734375,20.5078125,23.92578125,59.5703125
1771542960.3445625,15.625,45.41015625,36.1328125,5.37109375,79.58984375
1771542960.3484688,26.85546875,51.26953125,33.69140625,13.18359375,3.90625
1771542960.352375,31.73828125,51.26953125,27.34375,21.484375,-8.30078125
1771542960.3562813,17.578125,55.17578125,45.8984375,22.94921875,29.78515625
1771542960.3601875,1.953125,54.6875,60.546875,0.0,36.1328125
1771542960.3640938,9.765625,54.19921875,62.98828125,-4.39453125,49.8046875
1771542960.365125,42.96875,61.03515625,59.08203125,43.9453125,56.640625
1771542960.3690312,45.41015625,56.15234375,52.24609375,54.19921875,28.3203125
1771542960.3729374,15.625,50.78125,43.45703125,11.71875,-9.765625
1771542960.3768437,2.44140625,54.19921875,50.29296875,-10.7421875,-9.765625
1771542960.38075,15.625,59.5703125,57.6171875,-3.41796875,-5.859375
1771542960.3846562,22.94921875,62.01171875,37.59765625,18.5546875,21.484375
1771542960.3885624,20.01953125,65.91796875,34.1796875,30.76171875,55.17578125
1771542960.3924687,9.765625,66.89453125,45.41015625,5.37109375,51.7578125
1771542960.396375,1.46484375,55.6640625,58.59375,-7.32421875,42.48046875
1771542960.4002812,16.6015625,54.19921875,62.5,24.4140625,32.2265625
1771542960.4041874,24.4140625,55.6640625,52.24609375,39.0625,31.73828125
1771542960.4080937,-4.39453125,44.921875,38.57421875,-1.953125,15.13671875
1771542960.411125,-14.16015625,42.96875,56.640625,-18.5546875,7.32421875
1771542960.4150312,5.859375,42.48046875,69.82421875,4.39453125,51.7578125
1771542960.4189374,18.5546875,47.8515625,27.83203125,26.85546875,41.50390625
1771542960.4228437,4.8828125,57.12890625,31.73828125,12.20703125,46.38671875
1771542960.42675,-21.484375,53.22265625,57.6171875,-26.3671875,54.6875
1771542960.4306562,-10.7421875,50.29296875,43.9453125,-14.16015625,10.7421875
1771542960.4345624,16.11328125,53.7109375,27.34375,19.53125,34.66796875
1771542960.4384687,12.20703125,38.57421875,12.20703125,23.92578125,37.109375
1771542960.442375,-12.20703125,33.203125,46.875,-14.16015625,3.41796875
1771542960.4462812,-11.71875,54.19921875,73.2421875,-21.484375,0.48828125
1771542960.4501874,15.625,59.08203125,40.52734375,17.08984375,-4.39453125
1771542960.4540937,20.99609375,52.734375,27.83203125,19.04296875,40.52734375
1771542960.470125,-4.8828125,49.8046875,38.0859375,-15.625,68.84765625
1771542960.4740312,7.32421875,55.6640625,44.921875,-14.6484375,81.0546875
1771542960.4779375,29.296875,53.7109375,40.52734375,15.625,80.078125
1771542960.4818437,9.27734375,42.48046875,40.0390625,15.13671875,36.1328125
1771542960.48575,-14.16015625,40.0390625,49.31640625,-9.27734375,43.9453125
1771542960.4896562,-8.30078125,42.48046875,45.41015625,-10.7421875,27.83203125
1771542960.4935625,16.6015625,45.41015625,20.5078125,23.4375,12.20703125
1771542960.4974687,33.69140625,42.48046875,26.3671875,44.43359375,39.55078125
1771542960.501375,4.8828125,34.66796875,55.6640625,13.671875,58.59375
1771542960.5052812,-20.5078125,37.59765625,47.8515625,-25.390625,55.17578125
1771542960.5091875,-0.9765625,43.45703125,43.9453125,-10.7421875,71.77734375
1771542960.5130937,20.5078125,53.22265625,41.9921875,28.80859375,73.2421875
1771542960.500125,10.7421875,47.36328125,44.43359375,28.80859375,30.2734375
1771542960.5040312,-7.32421875,41.50390625,60.05859375,-4.39453125,44.921875
1771542960.5079374,2.44140625,39.0625,55.17578125,-6.8359375,25.390625
1771542960.5118437,26.3671875,38.0859375,40.52734375,27.83203125,-23.4375
1771542960.51575,20.99609375,47.8515625,35.64453125,32.2265625,15.13671875
1771542960.5196562,-1.953125,43.45703125,29.296875,7.32421875,0.48828125
1771542960.5235624,8.7890625,36.1328125,44.921875,2.9296875,12.6953125
1771542960.5274687,24.90234375,37.59765625,53.22265625,23.4375,30.2734375
1771542960.531375,31.25,40.52734375,45.8984375,50.29296875,16.6015625
1771542960.5352812,17.578125,29.296875,30.76171875,27.83203125,-8.7890625
1771542960.5391874,-10.25390625,26.85546875,23.4375,-23.92578125,7.8125
1771542960.5430937,-1.953125,46.38671875,49.31640625,-18.5546875,97.65625
1771542960.546125,19.53125,55.6640625,33.69140625,21.484375,62.98828125
1771542960.5500312,0.0,55.17578125,9.27734375,3.90625,10.7421875
1771542960.5539374,-13.18359375,50.29296875,35.15625,-20.5078125,32.2265625
1771542960.5578437,5.37109375,52.24609375,46.38671875,-4.8828125,-5.37109375
1771542960.56175,12.20703125,51.7578125,31.25,12.6953125,24.90234375
1771542960.5656562,20.01953125,54.19921875,5.37109375,26.85546875,129.8828125
1771542960.5695624,4.39453125,44.921875,14.16015625,5.859375,92.7734375
1771542960.5734687,-14.6484375,27.34375,52.734375,-14.6484375,21.484375
1771542960.577375,-6.8359375,32.2265625,32.71484375,7.8125,42.96875
1771542960.5812812,1.953125,45.41015625,13.18359375,20.01953125,15.625
1771542960.5851874,-0.9765625,50.29296875,31.25,-5.859375,38.0859375
1771542960.5890937,0.9765625,49.31640625,45.8984375,-13.671875,28.80859375
1771542960.606125,23.92578125,46.875,36.1328125,19.53125,19.04296875
1771542960.6100314,29.296875,48.828125,17.578125,37.109375,35.15625
1771542960.6139376,3.41796875,44.921875,23.92578125,13.18359375,15.625
1771542960.6178439,-4.39453125,33.69140625,43.45703125,-17.08984375,22.4609375
1771542960.62175,16.6015625,29.78515625,36.1328125,2.44140625,15.625
1771542960.6256564,30.2734375,38.0859375,4.8828125,36.1328125,-48.33984375
1771542960.6295626,13.671875,44.43359375,23.92578125,23.4375,-30.2734375
1771542960.6334689,-0.9765625,44.921875,55.6640625,-4.39453125,86.42578125
1771542960.637375,20.99609375,34.1796875,40.0390625,17.578125,72.75390625
1771542960.6412814,34.1796875,26.85546875,27.83203125,41.50390625,42.96875
1771542960.6451876,19.53125,27.83203125,31.25,27.34375,23.92578125
1771542960.6490939,5.37109375,36.62109375,51.7578125,3.90625,37.59765625
1771542960.651125,-1.953125,46.38671875,37.109375,-8.7890625,39.55078125
1771542960.6550312,13.671875,46.38671875,11.23046875,13.18359375,11.23046875
1771542960.6589375,19.53125,50.78125,34.1796875,30.76171875,72.75390625
1771542960.6628437,13.671875,44.921875,38.0859375,8.30078125,98.14453125
1771542960.66675,11.71875,41.50390625,39.0625,-5.859375,64.94140625
1771542960.6706562,19.04296875,29.78515625,26.3671875,18.5546875,49.8046875
1771542960.6745625,25.390625,22.4609375,20.01953125,41.015625,70.3125
1771542960.6784687,1.953125,39.0625,31.25,4.39453125,90.8203125
1771542960.682375,-4.39453125,45.41015625,17.578125,-20.99609375,79.58984375
1771542960.6862812,23.4375,51.7578125,16.6015625,9.765625,19.04296875
1771542960.6901875,30.2734375,55.6640625,47.36328125,32.2265625,20.5078125
1771542960.6940937,12.20703125,55.17578125,40.0390625,14.6484375,78.125
1771542960.696125,-9.27734375,52.734375,36.62109375,-15.625,77.1484375
1771542960.7000313,13.671875,39.0625,48.828125,6.34765625,96.6796875
1771542960.7039375,41.50390625,28.80859375,41.015625,40.0390625,131.8359375
1771542960.7078438,20.5078125,36.1328125,14.6484375,24.90234375,54.6875
1771542960.71175,-9.765625,49.8046875,17.08984375,-18.5546875,41.9921875
1771542960.7156563,-8.30078125,51.7578125,29.78515625,-18.5546875,84.9609375
1771542960.7195625,22.4609375,54.6875,24.4140625,25.390625,35.15625
1771542960.7234688,32.71484375,50.78125,19.53125,49.31640625,34.1796875
1771542960.727375,4.39453125,47.8515625,3.90625,13.18359375,41.50390625
1771542960.7312813,-1.953125,52.24609375,32.2265625,-20.01953125,35.64453125
1771542960.7351875,19.53125,37.59765625,57.12890625,13.18359375,14.16015625
1771542960.7390938,31.73828125,37.109375,29.78515625,45.41015625,16.6015625
1771542960.740125,13.18359375,46.38671875,35.15625,23.4375,25.87890625
1771542960.7440312,-1.953125,45.8984375,60.05859375,-10.25390625,-12.6953125
1771542960.7479374,9.765625,47.36328125,56.15234375,-2.9296875,-7.32421875
1771542960.7518437,11.71875,49.8046875,39.55078125,17.578125,14.16015625
1771542960.75575,7.8125,53.7109375,32.2265625,14.6484375,41.015625
1771542960.7596562,5.859375,61.5234375,40.52734375,6.8359375,48.828125
1771542960.7635624,3.90625,54.19921875,61.5234375,0.0,37.109375
1771542960.7674687,8.7890625,43.9453125,28.3203125,3.90625,71.2890625
1771542960.771375,13.18359375,48.828125,6.8359375,11.71875,23.92578125
1771542960.7752812,0.9765625,47.36328125,47.8515625,3.41796875,31.25
1771542960.7791874,-11.23046875,43.45703125,54.19921875,-9.27734375,90.8203125
1771542960.7830937,-1.46484375,44.921875,31.73828125,-1.953125,7.32421875
1771542960.785125,7.8125,45.8984375,29.78515625,14.6484375,-9.27734375
1771542960.7890313,-9.27734375,50.78125,44.921875,-12.6953125,79.58984375
1771542960.7929375,-5.859375,51.26953125,39.0625,-27.83203125,89.84375
1771542960.7968438,19.53125,54.19921875,32.2265625,1.953125,62.01171875
1771542960.80075,20.01953125,53.22265625,31.25,18.5546875,18.06640625
1771542960.8046563,-4.8828125,37.109375,30.76171875,-3.90625,-2.44140625
1771542960.8085625,-18.06640625,44.43359375,33.69140625,-28.3203125,62.98828125
1771542960.8124688,1.953125,55.17578125,27.83203125,-15.625,69.3359375
1771542960.816375,25.87890625,50.78125,33.203125,17.578125,41.50390625
1771542960.8202813,20.01953125,46.38671875,36.1328125,22.94921875,33.69140625
1771542960.8241875,-4.8828125,47.36328125,34.1796875,0.0,24.90234375
1771542960.8280938,-4.8828125,46.875,36.1328125,1.953125,38.57421875
1771542960.831125,10.7421875,49.8046875,41.50390625,9.765625,51.7578125
1771542960.8350313,12.6953125,49.31640625,43.45703125,8.7890625,87.890625
1771542960.8389375,3.90625,53.7109375,39.0625,-0.48828125,94.23828125
1771542960.8428438,18.06640625,55.6640625,46.875,0.9765625,16.6015625
1771542960.84675,34.66796875,48.828125,48.33984375,21.97265625,37.109375
1771542960.8506563,38.57421875,48.33984375,19.04296875,40.0390625,25.390625
1771542960.8545625,13.671875,41.015625,9.27734375,12.20703125,3.90625
1771542960.8584688,-13.671875,36.62109375,45.41015625,-20.99609375,40.0390625
1771542960.862375,4.39453125,40.0390625,62.01171875,3.90625,73.73046875
1771542960.8662813,30.76171875,51.7578125,35.15625,36.1328125,38.0859375
1771542960.8701875,26.3671875,62.01171875,8.30078125,30.2734375,10.7421875
1771542960.8740938,2.44140625,49.8046875,20.99609375,1.953125,20.99609375
1771542960.890125,2.44140625,42.48046875,51.26953125,-0.48828125,20.01953125
1771542960.8940313,12.20703125,54.6875,34.1796875,18.06640625,43.45703125
1771542960.8979375,11.23046875,51.7578125,16.6015625,35.64453125,36.62109375
1771542960.9018438,7.32421875,38.57421875,52.24609375,25.87890625,23.4375
1771542960.90575,5.37109375,35.15625,66.40625,10.7421875,13.18359375
1771542960.9096563,12.6953125,48.33984375,27.34375,14.16015625,28.80859375
1771542960.9135625,24.90234375,53.22265625,-10.7421875,25.390625,57.6171875
1771542960.9174688,22.94921875,55.6640625,14.6484375,16.6015625,20.99609375
1771542960.921375,12.6953125,52.24609375,56.15234375,1.46484375,9.27734375
1771542960.9252813,20.99609375,47.36328125,40.52734375,18.06640625,49.8046875
1771542960.9291875,33.69140625,52.734375,33.203125,36.1328125,45.41015625
1771542960.9330938,17.08984375,59.08203125,36.62109375,21.97265625,-7.32421875
1771542960.936125,4.8828125,54.19921875,43.45703125,-1.46484375,-22.94921875
1771542960.9400313,29.78515625,42.48046875,49.31640625,27.83203125,18.5546875
1771542960.9439375,52.734375,32.2265625,36.1328125,67.87109375,52.734375
1771542960.9478438,45.8984375,35.15625,34.1796875,53.7109375,23.92578125
1771542960.95175,20.99609375,45.8984375,33.203125,9.765625,-8.30078125
1771542960.9556563,18.5546875,53.22265625,22.94921875,2.44140625,-30.76171875
1771542960.9595625,36.1328125,62.5,26.85546875,32.2265625,-33.203125
1771542960.9634688,30.2734375,60.546875,34.1796875,39.55078125,19.04296875
1771542960.967375,10.7421875,49.31640625,45.8984375,12.20703125,73.73046875
1771542960.9712813,17.08984375,54.19921875,30.2734375,7.32421875,89.84375
1771542960.9751875,38.57421875,57.12890625,15.625,41.50390625,41.50390625
1771542960.9790938,32.2265625,48.33984375,40.52734375,40.52734375,0.0
1771542960.980125,1.953125,42.48046875,35.64453125,-2.44140625,38.0859375
1771542960.9840312,-13.671875,47.36328125,33.203125,-21.484375,70.80078125
1771542960.9879375,15.13671875,53.22265625,40.0390625,16.6015625,71.77734375
1771542960.9918437,38.0859375,54.6875,26.85546875,48.33984375,58.10546875
1771542960.99575,16.6015625,50.29296875,15.13671875,21.97265625,5.37109375
1771542960.9996562,-3.90625,41.9921875,26.85546875,-8.30078125,-28.80859375
1771542961.0035625,12.6953125,46.38671875,43.9453125,15.13671875,33.69140625
1771542961.0074687,36.62109375,52.734375,34.66796875,46.38671875,40.0390625
1771542961.011375,31.25,47.8515625,22.4609375,39.0625,55.6640625
1771542961.0152812,7.8125,52.24609375,2.9296875,-0.9765625,37.109375
1771542961.0191875,8.7890625,62.98828125,31.73828125,-4.39453125,35.15625
1771542961.0230937,29.296875,66.89453125,41.9921875,26.85546875,41.015625
1771542961.025125,28.80859375,65.91796875,19.53125,46.38671875,3.90625
1771542961.0290313,17.578125,59.08203125,37.59765625,26.85546875,54.19921875
1771542961.0329375,20.5078125,59.5703125,55.6640625,2.9296875,92.7734375
1771542961.0368438,33.203125,63.96484375,41.015625,30.2734375,73.2421875
1771542961.04075,43.9453125,52.24609375,30.2734375,50.78125,56.15234375
1771542961.0446563,25.87890625,50.29296875,35.64453125,21.97265625,51.26953125
1771542961.0485625,20.01953125,62.5,41.50390625,5.37109375,1.46484375
1771542961.0524688,47.8515625,67.87109375,54.6875,43.45703125,47.36328125
1771542961.056375,46.38671875,72.265625,16.11328125,43.9453125,61.03515625
1771542961.0602813,16.11328125,70.3125,3.41796875,3.90625,22.4609375
1771542961.0641875,5.859375,63.96484375,41.9921875,-20.01953125,20.5078125
1771542961.0680938,27.83203125,61.03515625,35.64453125,-1.46484375,28.3203125
1771542961.069125,40.0390625,59.08203125,19.04296875,27.34375,12.20703125
1771542961.0730312,27.83203125,62.01171875,27.34375,27.83203125,25.390625
1771542961.0769374,-0.48828125,54.19921875,44.43359375,-2.44140625,47.8515625
1771542961.0808437,-4.39453125,43.9453125,40.0390625,-0.9765625,5.859375
1771542961.08475,23.92578125,45.41015625,34.66796875,43.9453125,20.5078125
1771542961.0886562,27.34375,56.15234375,22.94921875,41.015625,64.453125
1771542961.0925624,-16.11328125,63.96484375,23.4375,-13.18359375,50.29296875
1771542961.0964687,-16.6015625,62.5,30.76171875,-31.73828125,58.59375
1771542961.100375,20.01953125,66.89453125,17.08984375,2.44140625,57.12890625
1771542961.1042812,28.3203125,66.40625,35.64453125,31.73828125,103.515625
1771542961.1081874,2.9296875,61.5234375,41.50390625,14.16015625,95.703125
1771542961.1120937,-4.8828125,58.10546875,35.15625,-3.90625,21.484375
1771542961.115125,18.06640625,62.5,36.62109375,15.13671875,49.31640625
1771542961.1190312,24.4140625,63.4765625,29.296875,33.69140625,33.69140625
1771542961.1229374,14.6484375,59.08203125,27.34375,29.296875,30.76171875
1771542961.1268437,13.18359375,48.33984375,33.203125,14.6484375,73.73046875
1771542961.13075,23.92578125,43.9453125,41.015625,11.23046875,64.94140625
1771542961.1346562,24.90234375,61.03515625,20.5078125,20.01953125,20.5078125
1771542961.1385624,26.85546875,72.265625,13.671875,22.94921875,-23.92578125
1771542961.1424687,10.25390625,69.3359375,16.11328125,-5.37109375,19.53125
1771542961.146375,12.6953125,62.5,23.4375,-8.30078125,61.03515625
1771542961.1502812,39.0625,57.12890625,46.38671875,31.25,75.68359375
1771542961.1541874,51.26953125,52.734375,29.296875,46.875,61.03515625
1771542961.1580937,28.3203125,56.15234375,22.94921875,8.7890625,25.87890625
1771542961.161125,10.25390625,63.4765625,40.0390625,-15.625,35.15625
1771542961.1650312,34.1796875,61.03515625,38.0859375,12.20703125,-0.48828125
1771542961.1689374,50.29296875,60.546875,10.25390625,40.52734375,19.04296875
1771542961.1728437,36.1328125,60.05859375,6.34765625,25.87890625,20.99609375
1771542961.17675,28.3203125,63.96484375,31.25,10.25390625,4.8828125
1771542961.1806562,24.90234375,62.01171875,36.62109375,13.671875,62.98828125
1771542961.1845624,18.5546875,51.7578125,13.671875,21.484375,53.7109375
1771542961.1884687,24.4140625,45.41015625,1.46484375,30.2734375,55.17578125
1771542961.192375,7.8125,47.8515625,40.52734375,4.8828125,36.1328125
1771542961.1962812,10.25390625,54.19921875,59.5703125,2.44140625,44.921875
1771542961.2001874,36.1328125,58.10546875,27.34375,27.83203125,36.1328125
1771542961.2040937,35.64453125,61.03515625,21.97265625,35.64453125,44.921875
1771542961.205125,13.18359375,58.10546875,38.57421875,2.9296875,52.734375
1771542961.2090313,13.671875,56.15234375,46.875,-14.16015625,11.23046875
1771542961.2129376,45.41015625,58.10546875,39.0625,29.78515625,-7.8125
1771542961.2168438,44.43359375,64.453125,24.90234375,43.9453125,-32.71484375
1771542961.22075,16.6015625,66.89453125,38.0859375,12.6953125,21.484375
1771542961.2246563,13.671875,53.7109375,52.24609375,4.8828125,53.22265625
1771542961.2285626,29.78515625,46.875,24.90234375,21.484375,54.6875
1771542961.2324688,36.62109375,48.33984375,4.39453125,46.875,32.2265625
1771542961.236375,21.97265625,49.31640625,42.96875,29.78515625,60.546875
1771542961.2402813,11.71875,46.38671875,64.453125,-1.46484375,62.01171875
1771542961.2441876,27.83203125,49.8046875,58.59375,16.6015625,55.17578125
1771542961.2480938,47.36328125,56.640625,39.55078125,50.29296875,58.10546875
1771542961.251125,47.36328125,55.6640625,38.0859375,56.640625,29.296875
1771542961.2550313,29.296875,49.8046875,49.31640625,23.92578125,7.32421875
1771542961.2589376,24.4140625,51.7578125,49.8046875,17.08984375,-1.46484375
1771542961.2628438,50.78125,51.26953125,48.33984375,45.41015625,56.15234375
1771542961.26675,59.5703125,50.29296875,27.34375,49.8046875,30.76171875
1771542961.2706563,41.9921875,54.19921875,28.3203125,30.76171875,-19.53125
1771542961.2745626,33.69140625,54.19921875,27.83203125,12.6953125,29.296875
1771542961.2784688,43.9453125,51.7578125,33.203125,30.2734375,13.671875
1771542961.282375,36.62109375,56.15234375,52.734375,35.64453125,53.22265625
1771542961.2862813,4.8828125,62.5,41.9921875,-1.46484375,62.01171875
1771542961.2901876,7.32421875,56.640625,55.6640625,-9.765625,71.2890625
1771542961.2940938,36.1328125,58.10546875,61.5234375,12.6953125,79.1015625
1771542961.310125,37.59765625,59.5703125,35.15625,30.2734375,10.7421875
1771542961.3140314,20.5078125,55.17578125,22.4609375,26.3671875,20.5078125
1771542961.3179376,10.25390625,47.8515625,37.109375,1.46484375,43.9453125
1771542961.3218439,15.625,46.875,55.17578125,0.0,106.93359375
1771542961.32575,17.08984375,52.24609375,39.55078125,17.08984375,103.02734375
1771542961.3296564,10.7421875,52.734375,14.6484375,17.578125,23.4375
1771542961.3335626,-5.37109375,51.26953125,28.80859375,-8.7890625,1.953125
1771542961.3374689,-2.44140625,54.19921875,57.12890625,-12.20703125,36.1328125
1771542961.341375,27.34375,54.19921875,60.05859375,28.3203125,72.75390625
1771542961.3452814,40.52734375,44.921875,20.99609375,62.5,44.921875
1771542961.3491876,5.859375,41.015625,16.6015625,26.3671875,-30.76171875
1771542961.3530939,-16.6015625,50.78125,66.89453125,-19.53125,-3.90625
1771542961.355125,6.34765625,55.17578125,55.6640625,5.37109375,65.91796875
1771542961.3590312,18.06640625,59.08203125,25.390625,30.2734375,57.12890625
1771542961.3629375,4.8828125,57.12890625,33.203125,14.6484375,0.48828125
1771542961.3668437,-3.41796875,54.19921875,56.15234375,1.953125,24.90234375
1771542961.37075,25.390625,56.640625,52.734375,27.34375,60.05859375
1771542961.3746562,38.0859375,56.640625,28.3203125,48.33984375,39.55078125
1771542961.3785625,15.13671875,55.17578125,31.73828125,23.92578125,61.5234375
1771542961.3824687,8.7890625,50.29296875,54.6875,-0.48828125,42.96875
1771542961.386375,29.78515625,52.734375,46.875,14.6484375,26.85546875
1771542961.3902812,58.59375,53.22265625,31.73828125,48.828125,39.0625
1771542961.3941875,51.26953125,53.22265625,46.875,45.8984375,25.390625
1771542961.3980937,14.6484375,61.03515625,48.33984375,11.23046875,38.0859375
1771542961.399125,13.18359375,65.4296875,41.015625,5.37109375,41.50390625
1771542961.4030313,27.34375,64.94140625,28.80859375,8.7890625,11.71875
1771542961.4069376,31.73828125,67.3828125,34.1796875,23.4375,45.41015625
1771542961.4108438,16.6015625,65.4296875,41.015625,5.859375,121.58203125
1771542961.41475,12.20703125,59.08203125,35.15625,-17.08984375,59.08203125
1771542961.4186563,31.73828125,58.10546875,29.296875,14.6484375,-10.25390625
1771542961.4225626,37.109375,60.05859375,24.4140625,32.71484375,29.296875
1771542961.4264688,23.4375,52.734375,38.0859375,18.06640625,43.9453125
1771542961.430375,5.37109375,46.38671875,37.59765625,-10.25390625,6.8359375
1771542961.4342813,9.765625,59.5703125,43.9453125,-8.7890625,5.859375
1771542961.4381876,29.78515625,61.5234375,49.31640625,21.97265625,3.90625
1771542961.4420938,27.83203125,54.6875,25.87890625,23.4375,-15.625
1771542961.446125,16.11328125,57.12890625,44.921875,-7.32421875,8.30078125
1771542961.4500313,29.78515625,58.10546875,57.6171875,5.37109375,49.31640625
1771542961.4539375,41.50390625,53.22265625,47.8515625,42.96875,47.8515625
1771542961.4578438,32.2265625,48.828125,34.1796875,48.33984375,18.06640625
1771542961.46175,18.5546875,42.48046875,31.73828125,30.2734375,26.85546875
1771542961.4656563,19.53125,34.66796875,61.5234375,20.5078125,83.49609375
1771542961.4695625,21.484375,41.9921875,53.7109375,28.80859375,71.2890625
1771542961.4734688,25.87890625,50.78125,34.66796875,39.0625,45.8984375
1771542961.477375,10.25390625,50.29296875,36.1328125,23.92578125,81.0546875
1771542961.4812813,0.0,50.29296875,59.08203125,4.8828125,73.2421875
1771542961.4851875,22.4609375,47.8515625,64.453125,30.76171875,75.1953125
1771542961.4890938,47.36328125,41.50390625,33.203125,71.2890625,102.05078125
1771542961.489125,41.015625,48.33984375,28.80859375,49.31640625,85.44921875
1771542961.4930313,0.48828125,61.03515625,60.05859375,-9.765625,39.0625
1771542961.4969375,13.671875,59.5703125,57.6171875,0.9765625,26.3671875
1771542961.5008438,53.7109375,57.6171875,38.57421875,45.8984375,13.671875
1771542961.50475,35.64453125,54.19921875,33.203125,46.38671875,31.73828125
1771542961.5086563,3.90625,48.828125,40.52734375,11.23046875,40.52734375
1771542961.5125625,19.04296875,53.22265625,53.7109375,5.37109375,53.7109375
1771542961.5164688,44.921875,63.4765625,33.203125,40.52734375,75.68359375
1771542961.520375,38.0859375,58.10546875,22.94921875,56.640625,35.64453125
1771542961.5242813,9.27734375,41.50390625,62.5,15.13671875,42.48046875
1771542961.5281875,10.7421875,41.50390625,65.4296875,-10.25390625,1.953125
1771542961.5320938,41.9921875,52.24609375,52.734375,24.4140625,-29.78515625
1771542961.535125,50.78125,56.15234375,51.7578125,42.48046875,48.33984375
1771542961.5390313,22.94921875,45.41015625,48.33984375,13.671875,41.015625
1771542961.5429375,11.71875,47.8515625,46.38671875,-3.41796875,-26.85546875
1771542961.5468438,31.73828125,49.8046875,49.8046875,18.5546875,-15.13671875
1771542961.55075,40.52734375,43.9453125,40.52734375,35.15625,-9.27734375
1771542961.5546563,33.69140625,44.43359375,28.80859375,28.80859375,-14.16015625
1771542961.5585625,23.4375,47.36328125,36.62109375,15.625,19.04296875
1771542961.5624688,35.15625,46.38671875,20.5078125,22.94921875,32.2265625
1771542961.566375,55.6640625,47.36328125,34.1796875,51.26953125,25.390625
1771542961.5702813,49.31640625,44.921875,63.96484375,51.26953125,19.04296875
1771542961.5741875,15.625,34.66796875,51.7578125,9.27734375,18.06640625
1771542961.5780938,17.578125,41.015625,50.78125,12.6953125,38.0859375
1771542961.580125,34.66796875,49.31640625,44.921875,44.921875,73.73046875
1771542961.5840313,28.80859375,40.52734375,30.2734375,44.43359375,74.21875
1771542961.5879376,16.11328125,35.15625,30.2734375,20.99609375,64.94140625
1771542961.5918438,24.90234375,40.52734375,47.36328125,17.08984375,42.48046875
1771542961.59575,43.45703125,48.828125,45.8984375,37.109375,5.37109375
1771542961.5996563,43.45703125,53.22265625,26.85546875,58.10546875,42.96875
1771542961.6035626,34.1796875,48.828125,7.32421875,37.109375,15.13671875
1771542961.6074688,26.85546875,43.45703125,32.2265625,9.27734375,25.390625
1771542961.611375,42.48046875,47.8515625,62.98828125,26.85546875,92.28515625
1771542961.6152813,44.43359375,46.38671875,46.875,41.015625,68.359375
1771542961.6191876,14.16015625,42.96875,34.1796875,22.94921875,32.2265625
1771542961.6230938,8.30078125,44.921875,47.36328125,-4.39453125,14.16015625
1771542961.625125,32.2265625,43.45703125,57.6171875,-0.9765625,34.1796875
1771542961.6290312,46.38671875,42.96875,36.62109375,24.90234375,53.22265625
1771542961.6329374,34.1796875,44.921875,27.83203125,26.3671875,50.78125
1771542961.6368437,7.32421875,46.38671875,38.57421875,-11.71875,8.30078125
1771542961.64075,4.8828125,42.96875,47.8515625,-22.94921875,68.359375
1771542961.6446562,35.15625,40.52734375,24.4140625,21.484375,109.86328125
1771542961.6485624,41.9921875,45.41015625,-1.46484375,50.78125,30.2734375
1771542961.6524687,14.6484375,41.9921875,30.76171875,18.06640625,32.2265625
1771542961.656375,13.18359375,33.203125,59.08203125,1.953125,31.73828125
1771542961.6602812,39.0625,31.25,52.24609375,33.203125,-10.25390625
1771542961.6641874,35.15625,39.0625,39.55078125,47.36328125,50.78125
1771542961.6680937,28.80859375,47.36328125,25.87890625,34.1796875,69.3359375
1771542961.671125,29.296875,50.78125,46.38671875,10.25390625,3.90625
1771542961.6750312,40.0390625,32.71484375,47.8515625,21.484375,39.0625
1771542961.6789374,45.41015625,26.3671875,25.390625,54.19921875,50.78125
1771542961.6828437,21.97265625,35.64453125,28.3203125,45.41015625,38.57421875
1771542961.68675,10.25390625,36.1328125,32.71484375,5.37109375,11.71875
1771542961.6906562,28.80859375,41.50390625,26.85546875,12.6953125,29.78515625
1771542961.6945624,34.66796875,44.43359375,20.5078125,40.52734375,63.4765625
1771542961.6984687,31.25,42.48046875,35.64453125,49.8046875,27.83203125
1771542961.702375,36.62109375,40.52734375,37.59765625,40.0390625,-8.30078125
1771542961.7062812,34.1796875,41.9921875,40.0390625,31.25,8.30078125
1771542961.7101874,45.8984375,39.55078125,41.50390625,50.29296875,41.50390625
1771542961.7140937,43.9453125,35.64453125,34.1796875,50.78125,65.91796875
1771542961.731125,26.85546875,41.015625,26.3671875,38.57421875,74.21875
1771542961.7350314,33.203125,41.015625,25.390625,24.90234375,57.6171875
1771542961.7389376,50.29296875,33.69140625,35.15625,28.80859375,44.43359375
1771542961.7428439,60.05859375,37.109375,36.62109375,55.6640625,-3.90625
1771542961.74675,36.62109375,42.48046875,19.53125,32.71484375,-22.94921875
1771542961.7506564,22.4609375,41.015625,2.44140625,0.48828125,66.40625
1771542961.7545626,42.48046875,40.0390625,33.203125,20.01953125,86.9140625
1771542961.7584689,54.19921875,37.59765625,53.22265625,49.31640625,79.58984375
1771542961.762375,38.57421875,42.96875,15.625,43.9453125,56.640625
1771542961.7662814,19.53125,43.45703125,15.13671875,19.04296875,16.6015625
1771542961.7701876,29.78515625,35.15625,37.59765625,16.6015625,24.4140625
1771542961.7740939,36.1328125,30.2734375,15.13671875,34.66796875,1.953125
1771542961.776125,31.25,35.15625,-0.48828125,46.875,-2.44140625
1771542961.7800312,20.01953125,38.0859375,16.11328125,28.80859375,1.953125
1771542961.7839375,19.53125,27.34375,33.69140625,12.6953125,14.16015625
1771542961.7878437,42.96875,23.92578125,27.34375,48.33984375,47.36328125
1771542961.79175,52.24609375,34.66796875,7.32421875,72.75390625,60.05859375
1771542961.7956562,34.1796875,42.96875,10.7421875,34.66796875,42.48046875
1771542961.7995625,14.16015625,40.0390625,23.92578125,7.8125,23.92578125
1771542961.8034687,35.15625,37.109375,39.0625,39.0625,61.03515625
1771542961.807375,55.6640625,33.203125,12.6953125,69.82421875,83.984375
1771542961.8112812,42.48046875,30.2734375,4.39453125,57.12890625,62.01171875
1771542961.8151875,25.390625,38.0859375,47.36328125,21.484375,12.20703125
1771542961.8190937,23.4375,44.43359375,47.8515625,6.8359375,39.0625
1771542961.820125,31.73828125,44.921875,23.92578125,28.80859375,78.61328125
1771542961.8240314,45.8984375,41.9921875,10.7421875,59.08203125,22.94921875
1771542961.8279376,27.83203125,34.66796875,27.34375,28.3203125,56.15234375
1771542961.8318439,26.3671875,32.71484375,28.3203125,7.32421875,62.98828125
1771542961.83575,67.3828125,44.43359375,8.7890625,56.15234375,13.671875
1771542961.8396564,70.80078125,43.9453125,10.7421875,79.1015625,79.58984375
1771542961.8435626,33.203125,33.203125,17.578125,37.109375,110.83984375
1771542961.8474689,24.4140625,36.62109375,11.23046875,11.23046875,35.15625
1771542961.851375,36.62109375,42.48046875,-15.625,31.25,8.7890625
1771542961.8552814,42.96875,40.52734375,6.8359375,37.109375,61.03515625
1771542961.8591876,37.59765625,41.015625,34.66796875,16.6015625,83.984375
1771542961.8630939,24.90234375,38.57421875,19.04296875,-3.41796875,30.2734375
1771542961.865125,36.62109375,25.87890625,22.4609375,14.16015625,1.46484375
1771542961.8690312,62.5,27.83203125,27.34375,54.19921875,51.26953125
1771542961.8729374,56.15234375,36.1328125,31.25,53.22265625,64.94140625
1771542961.8768437,25.87890625,36.1328125,34.1796875,17.08984375,30.76171875
1771542961.88075,25.390625,30.2734375,28.80859375,15.13671875,51.7578125
1771542961.8846562,49.31640625,27.83203125,10.25390625,51.7578125,40.52734375
1771542961.8885624,55.6640625,33.203125,5.859375,65.4296875,9.765625
1771542961.8924687,22.4609375,36.1328125,7.32421875,14.6484375,47.36328125
1771542961.896375,15.625,28.80859375,15.625,-2.9296875,39.0625
1771542961.9002812,39.55078125,27.83203125,46.38671875,32.71484375,42.48046875
1771542961.9041874,54.6875,38.57421875,40.0390625,57.6171875,62.98828125
1771542961.9080937,29.78515625,42.48046875,16.11328125,38.0859375,42.48046875
1771542961.911125,15.625,33.69140625,25.390625,11.23046875,-14.16015625
1771542961.9150312,39.0625,31.25,37.59765625,29.296875,-18.06640625
1771542961.9189374,49.8046875,37.109375,18.5546875,56.15234375,4.8828125
1771542961.9228437,45.41015625,39.0625,13.671875,52.734375,46.875
1771542961.92675,30.76171875,31.25,30.76171875,27.34375,48.33984375
1771542961.9306562,30.76171875,24.4140625,26.3671875,18.06640625,11.23046875
1771542961.9345624,47.8515625,30.76171875,7.32421875,44.921875,77.1484375
1771542961.9384687,52.734375,37.59765625,-5.859375,59.5703125,78.125
1771542961.942375,28.3203125,34.1796875,32.2265625,16.6015625,35.64453125
1771542961.9462812,27.34375,31.73828125,55.6640625,7.32421875,34.1796875
1771542961.9501874,53.22265625,36.1328125,24.90234375,43.45703125,5.859375
1771542961.9540937,56.640625,35.64453125,16.11328125,64.453125,-6.34765625
1771542961.955125,26.85546875,36.62109375,35.15625,34.1796875,60.05859375
1771542961.9590313,11.23046875,35.64453125,35.64453125,-2.44140625,72.265625
1771542961.9629376,33.69140625,32.71484375,11.23046875,14.6484375,33.203125
1771542961.9668438,58.59375,30.76171875,16.11328125,59.08203125,67.3828125
1771542961.97075,40.52734375,27.34375,31.73828125,46.875,49.31640625
1771542961.9746563,20.01953125,33.69140625,14.6484375,8.7890625,-29.78515625
1771542961.9785626,40.0390625,47.8515625,-0.9765625,25.87890625,7.32421875
1771542961.9824688,44.43359375,46.875,10.25390625,41.50390625,20.01953125
1771542961.986375,22.4609375,39.0625,38.0859375,19.53125,-5.37109375
1771542961.9902813,18.06640625,39.55078125,44.921875,8.30078125,39.55078125
1771542961.9941876,35.15625,31.25,38.57421875,22.4609375,37.109375
1771542961.9980938,51.26953125,27.83203125,22.94921875,41.50390625,13.671875
1771542962.002125,36.1328125,36.62109375,17.578125,34.66796875,14.16015625
1771542962.0060313,15.625,39.0625,13.18359375,4.8828125,-12.20703125
1771542962.0099375,31.25,33.69140625,28.3203125,4.8828125,-6.8359375
1771542962.0138438,47.8515625,32.71484375,46.38671875,27.34375,74.21875
1771542962.01775,36.62109375,37.59765625,28.3203125,34.1796875,54.6875
1771542962.0216563,25.87890625,41.015625,7.8125,20.01953125,-10.25390625
1771542962.0255625,39.55078125,34.1796875,26.85546875,22.4609375,43.9453125
1771542962.0294688,59.08203125,23.92578125,58.10546875,52.734375,133.7890625
1771542962.033375,49.8046875,35.15625,35.64453125,53.7109375,116.69921875
1771542962.0372813,27.34375,41.9921875,12.20703125,22.94921875,53.22265625
1771542962.0411875,16.6015625,41.50390625,27.83203125,5.37109375,31.73828125
1771542962.0450938,22.4609375,35.64453125,40.52734375,18.06640625,5.37109375
1771542962.060125,41.9921875,30.2734375,26.3671875,52.734375,10.25390625
1771542962.0640314,42.48046875,32.71484375,14.16015625,61.5234375,2.44140625
1771542962.0679376,29.78515625,30.76171875,34.1796875,37.59765625,45.8984375
1771542962.0718439,35.15625,30.2734375,39.0625,26.3671875,79.58984375
1771542962.07575,38.57421875,41.015625,20.5078125,29.78515625,30.2734375
1771542962.0796564,25.87890625,47.36328125,3.41796875,25.390625,66.89453125
1771542962.0835626,14.16015625,45.8984375,1.46484375,12.20703125,83.49609375
1771542962.0874689,37.59765625,39.0625,47.8515625,30.2734375,44.921875
1771542962.091375,44.921875,28.80859375,45.8984375,32.2265625,59.5703125
1771542962.0952814,26.3671875,31.73828125,13.18359375,22.94921875,20.5078125
1771542962.0991876,20.99609375,44.43359375,16.6015625,21.484375,42.48046875
1771542962.1030939,16.11328125,45.8984375,29.78515625,5.37109375,48.828125
1771542962.105125,23.4375,34.66796875,27.34375,19.53125,36.62109375
1771542962.1090312,26.85546875,32.2265625,10.7421875,42.96875,70.3125
1771542962.1129375,21.97265625,34.1796875,16.6015625,36.1328125,69.82421875
1771542962.1168437,22.94921875,33.203125,29.78515625,16.11328125,28.80859375
1771542962.12075,38.0859375,39.0625,24.90234375,28.3203125,1.953125
1771542962.1246562,49.8046875,44.921875,7.8125,41.9921875,39.0625
1771542962.1285625,36.62109375,42.96875,4.39453125,30.2734375,101.5625
1771542962.1324687,17.578125,42.96875,24.4140625,13.671875,83.984375
1771542962.136375,23.92578125,36.1328125,27.83203125,17.578125,46.875
1771542962.1402812,45.41015625,30.2734375,-14.6484375,48.828125,70.3125
1771542962.1441875,43.45703125,28.80859375,-3.90625,51.7578125,-10.7421875
1771542962.1480937,30.2734375,23.4375,39.0625,29.78515625,4.39453125
1771542962.150125,32.2265625,27.34375,39.55078125,34.1796875,44.43359375
1771542962.1540313,44.921875,35.15625,33.69140625,54.19921875,43.45703125
1771542962.1579375,50.29296875,36.62109375,20.99609375,53.22265625,56.15234375
1771542962.1618438,25.390625,40.52734375,12.6953125,17.578125,33.69140625
1771542962.16575,14.6484375,44.921875,19.53125,-0.9765625,13.671875
1771542962.1696563,41.50390625,48.33984375,13.671875,32.71484375,14.6484375
1771542962.1735625,62.01171875,43.45703125,4.39453125,69.3359375,40.52734375
1771542962.1774688,44.921875,28.80859375,24.4140625,63.96484375,64.453125
1771542962.181375,31.25,28.3203125,19.53125,26.3671875,70.80078125
1771542962.1852813,53.22265625,30.76171875,15.13671875,29.296875,41.9921875
1771542962.1891875,59.08203125,27.34375,40.0390625,48.33984375,77.1484375
1771542962.1930938,38.57421875,38.0859375,16.11328125,41.9921875,62.98828125
1771542962.195125,25.390625,42.96875,11.23046875,18.06640625,-25.87890625
1771542962.1990314,18.06640625,35.15625,38.57421875,6.8359375,-13.671875
1771542962.2029376,31.25,41.9921875,28.80859375,29.78515625,28.80859375
1771542962.2068439,45.8984375,43.9453125,8.30078125,45.41015625,51.7578125
1771542962.21075,36.62109375,33.69140625,12.20703125,30.2734375,20.99609375
1771542962.2146564,28.80859375,39.55078125,30.76171875,13.671875,43.9453125
1771542962.2185626,22.94921875,41.015625,32.2265625,11.23046875,62.01171875
1771542962.2224689,42.96875,39.55078125,-1.46484375,37.109375,9.765625
1771542962.226375,43.9453125,39.55078125,-21.97265625,35.64453125,17.578125
1771542962.2302814,31.25,38.0859375,25.87890625,16.11328125,47.8515625
1771542962.2341876,55.6640625,27.83203125,43.45703125,44.921875,26.3671875
1771542962.2380939,54.19921875,26.3671875,9.765625,60.546875,34.1796875
1771542962.240125,20.99609375,42.96875,4.39453125,21.484375,45.8984375
1771542962.2440312,1.46484375,40.0390625,31.73828125,-14.16015625,-1.953125
1771542962.2479374,20.01953125,38.0859375,35.15625,1.46484375,27.34375
1771542962.2518437,52.24609375,35.64453125,20.99609375,41.9921875,38.57421875
1771542962.25575,48.33984375,38.0859375,10.25390625,55.6640625,1.953125
1771542962.2596562,28.80859375,43.9453125,11.71875,36.1328125,-4.8828125
1771542962.2635624,33.69140625,28.80859375,41.9921875,36.1328125,41.9921875
1771542962.2674687,49.31640625,17.08984375,19.53125,54.19921875,73.73046875
1771542962.271375,57.12890625,28.80859375,-2.9296875,64.94140625,37.59765625
1771542962.2752812,36.62109375,38.57421875,35.15625,36.62109375,59.08203125
1771542962.2791874,18.06640625,36.1328125,31.25,7.8125,38.0859375
1771542962.2830937,36.1328125,35.15625,19.04296875,24.4140625,18.06640625
1771542962.286125,47.36328125,37.109375,19.04296875,47.8515625,76.66015625
1771542962.2900312,37.109375,36.1328125,12.6953125,42.96875,37.59765625
1771542962.2939374,23.4375,30.76171875,16.11328125,15.625,-14.16015625
1771542962.2978437,40.52734375,33.203125,18.5546875,23.92578125,-10.25390625
1771542962.30175,49.8046875,39.0625,17.578125,43.45703125,39.0625
1771542962.3056562,45.41015625,37.59765625,7.8125,42.48046875,60.546875
1771542962.3095624,34.1796875,24.4140625,20.99609375,26.3671875,42.48046875
1771542962.3134687,30.2734375,20.99609375,16.11328125,21.97265625,45.41015625
1771542962.317375,34.1796875,37.59765625,17.08984375,29.296875,15.13671875
1771542962.3212812,22.94921875,48.33984375,33.203125,21.97265625,37.109375
1771542962.3251874,11.23046875,43.9453125,14.6484375,2.44140625,-2.9296875
1771542962.3290937,21.97265625,34.66796875,26.85546875,10.7421875,-31.73828125
1771542962.330125,27.83203125,34.66796875,51.26953125,19.04296875,31.25
1771542962.3340313,20.99609375,29.296875,26.85546875,24.90234375,-2.44140625
1771542962.3379376,13.671875,22.94921875,17.578125,19.53125,1.953125
1771542962.3418438,11.71875,26.85546875,34.66796875,5.37109375,63.4765625
1771542962.34575,29.296875,32.2265625,33.203125,26.85546875,72.75390625
1771542962.3496563,33.203125,36.62109375,13.671875,47.8515625,27.34375
1771542962.3535626,15.625,38.0859375,-5.859375,28.80859375,-39.55078125
1771542962.3574688,-4.8828125,34.1796875,20.99609375,-11.71875,14.6484375
1771542962.361375,-1.46484375,32.71484375,48.33984375,-6.8359375,30.76171875
1771542962.3652813,32.71484375,34.66796875,26.85546875,41.015625,68.84765625
1771542962.3691876,38.57421875,27.83203125,12.20703125,60.05859375,76.171875
1771542962.3730938,12.20703125,26.3671875,33.69140625,23.4375,4.39453125
1771542962.375125,8.7890625,31.25,52.24609375,4.39453125,53.22265625
1771542962.3790312,35.15625,31.73828125,27.34375,36.62109375,65.91796875
1771542962.3829374,40.0390625,34.66796875,8.30078125,50.78125,72.265625
1771542962.3868437,28.80859375,31.25,34.66796875,34.66796875,80.56640625
1771542962.39075,27.83203125,19.53125,49.8046875,28.80859375,34.1796875
1771542962.3946562,38.0859375,19.04296875,20.5078125,43.45703125,67.3828125
1771542962.3985624,31.25,30.2734375,0.9765625,45.41015625,76.171875
1771542962.4024687,0.9765625,30.2734375,15.13671875,6.8359375,-8.7890625
1771542962.406375,-3.41796875,29.296875,39.55078125,-5.859375,8.30078125
1771542962.4102812,30.2734375,27.34375,27.83203125,23.92578125,77.63671875
1771542962.4141874,55.6640625,23.92578125,0.48828125,48.33984375,33.203125
1771542962.4180937,23.4375,21.97265625,28.80859375,30.76171875,22.94921875
1771542962.435125,-3.41796875,30.2734375,40.52734375,0.48828125,12.20703125
1771542962.4390314,27.83203125,38.57421875,33.69140625,21.484375,-4.39453125
1771542962.4429376,47.8515625,32.2265625,35.64453125,54.19921875,66.40625
1771542962.4468439,42.96875,23.4375,32.71484375,56.15234375,68.359375
1771542962.45075,14.6484375,22.4609375,31.25,32.71484375,37.59765625
1771542962.4546564,20.01953125,24.4140625,9.765625,17.08984375,35.15625
1771542962.4585626,32.2265625,23.92578125,9.765625,25.87890625,18.06640625
1771542962.4624689,20.99609375,20.5078125,32.71484375,43.45703125,67.3828125
1771542962.466375,12.20703125,26.85546875,26.85546875,35.15625,95.703125
1771542962.4702814,13.671875,29.296875,27.83203125,30.2734375,34.1796875
1771542962.4741876,54.6875,26.3671875,35.64453125,44.921875,17.08984375
1771542962.4780939,50.78125,31.25,34.1796875,44.43359375,51.26953125
1771542962.480125,11.23046875,31.73828125,25.390625,28.3203125,66.40625
1771542962.4840312,13.18359375,28.80859375,33.69140625,20.01953125,50.78125
1771542962.4879375,32.71484375,30.2734375,44.921875,29.296875,-21.97265625
1771542962.4918437,30.76171875,26.3671875,37.59765625,42.96875,-6.8359375
1771542962.49575,21.97265625,31.25,20.99609375,41.9921875,28.3203125
1771542962.4996562,13.671875,41.9921875,19.04296875,21.484375,11.71875
1771542962.5035625,27.34375,37.109375,39.0625,25.390625,17.08984375
1771542962.5074687,42.96875,33.69140625,42.48046875,43.45703125,49.31640625
1771542962.511375,35.15625,37.109375,20.99609375,36.62109375,78.61328125
1771542962.5152812,24.90234375,36.62109375,19.04296875,21.97265625,29.78515625
1771542962.5191875,17.08984375,24.90234375,48.828125,12.20703125,14.6484375
1771542962.5230937,26.3671875,23.4375,49.8046875,31.25,75.68359375
1771542962.525125,28.80859375,36.1328125,20.99609375,41.9921875,86.42578125
1771542962.5290313,11.71875,41.50390625,25.87890625,11.71875,74.21875
1771542962.5329375,7.8125,43.45703125,48.33984375,-1.46484375,3.90625
1771542962.5368438,27.34375,44.921875,47.36328125,32.2265625,-43.9453125
1771542962.54075,32.71484375,36.62109375,40.52734375,44.43359375,22.94921875
1771542962.5446563,13.18359375,31.25,28.3203125,17.578125,20.5078125
1771542962.5485625,13.18359375,34.1796875,39.0625,4.8828125,7.8125
1771542962.5524688,31.73828125,37.59765625,53.7109375,16.11328125,58.10546875
1771542962.556375,39.0625,26.85546875,47.36328125,39.55078125,59.5703125
1771542962.5602813,30.2734375,19.04296875,40.52734375,48.33984375,-0.9765625
1771542962.5641875,7.32421875,32.2265625,53.22265625,6.8359375,25.87890625
1771542962.5680938,0.0,38.57421875,61.03515625,-8.7890625,99.12109375
1771542962.570125,6.8359375,41.50390625,23.92578125,20.99609375,67.3828125
1771542962.5740314,14.16015625,42.96875,19.53125,40.0390625,13.671875
1771542962.5779376,-0.9765625,39.0625,45.8984375,14.6484375,35.15625
1771542962.5818439,3.41796875,23.92578125,44.921875,11.71875,23.4375
1771542962.58575,18.06640625,15.13671875,38.57421875,40.52734375,32.2265625
1771542962.5896564,14.16015625,37.109375,30.76171875,35.15625,91.30859375
1771542962.5935626,-5.859375,50.29296875,23.92578125,-0.9765625,56.640625
1771542962.5974689,-15.13671875,42.48046875,33.203125,-10.25390625,54.6875
1771542962.601375,13.18359375,34.66796875,31.25,24.4140625,47.36328125
1771542962.6052814,33.203125,31.25,50.29296875,48.828125,63.4765625
1771542962.6091876,26.3671875,35.15625,62.01171875,31.25,76.66015625
1771542962.6130939,-2.9296875,39.55078125,50.78125,-11.23046875,30.76171875
1771542962.615125,0.48828125,41.015625,46.875,-2.44140625,14.16015625
1771542962.6190312,24.4140625,40.0390625,44.43359375,28.80859375,5.859375
1771542962.6229374,15.625,37.59765625,43.45703125,25.390625,78.125
1771542962.6268437,5.37109375,36.1328125,37.109375,8.7890625,121.09375
1771542962.63075,16.11328125,23.4375,56.15234375,13.671875,79.58984375
1771542962.6346562,22.94921875,22.4609375,49.8046875,34.66796875,12.6953125
1771542962.6385624,18.06640625,40.52734375,39.55078125,37.59765625,15.13671875
1771542962.6424687,-4.39453125,42.48046875,39.0625,-1.953125,72.265625
1771542962.646375,-9.765625,37.59765625,41.9921875,-26.85546875,74.70703125
1771542962.6502812,25.390625,34.1796875,62.01171875,15.625,32.71484375
1771542962.6541874,42.96875,31.73828125,35.64453125,53.22265625,20.01953125
1771542962.6580937,34.1796875,39.0625,31.25,39.55078125,19.53125
1771542962.660125,15.13671875,35.15625,62.98828125,16.6015625,15.13671875
1771542962.6640313,15.625,21.97265625,74.70703125,22.4609375,32.2265625
1771542962.6679375,42.48046875,20.5078125,47.8515625,49.8046875,37.109375
1771542962.6718438,38.0859375,33.203125,33.69140625,45.41015625,-2.44140625
1771542962.67575,9.27734375,38.0859375,55.17578125,0.0,-1.46484375
1771542962.6796563,14.6484375,34.66796875,54.19921875,0.0,53.7109375
1771542962.6835625,41.015625,36.62109375,36.1328125,40.0390625,81.54296875
1771542962.6874688,49.31640625,40.0390625,7.32421875,47.36328125,43.45703125
1771542962.691375,29.296875,30.2734375,43.45703125,27.34375,59.5703125
1771542962.6952813,30.2734375,20.01953125,87.40234375,26.3671875,93.75
1771542962.6991875,44.43359375,27.83203125,53.7109375,30.2734375,45.41015625
1771542962.7030938,46.875,39.55078125,35.64453125,30.2734375,36.62109375
1771542962.705125,29.78515625,42.48046875,45.8984375,12.20703125,23.92578125
1771542962.7090313,28.80859375,41.9921875,55.6640625,-0.48828125,29.296875
1771542962.7129376,46.875,41.015625,45.41015625,18.06640625,59.5703125
1771542962.7168438,62.5,39.0625,34.66796875,39.55078125,47.8515625
1771542962.72075,41.015625,35.15625,43.45703125,20.99609375,33.203125
1771542962.7246563,20.5078125,37.59765625,54.19921875,-3.90625,55.6640625
1771542962.7285626,52.24609375,36.62109375,39.0625,25.87890625,53.7109375
1771542962.7324688,73.2421875,31.25,26.3671875,63.4765625,37.59765625
1771542962.736375,48.828125,28.3203125,47.8515625,43.45703125,40.52734375
1771542962.7402813,13.671875,26.85546875,58.59375,0.48828125,49.31640625
1771542962.7441876,23.92578125,27.34375,59.5703125,13.671875,53.22265625
1771542962.7480938,49.8046875,28.80859375,60.546875,49.8046875,64.453125
1771542962.750125,46.38671875,30.2734375,57.12890625,50.29296875,81.54296875
1771542962.7540312,20.99609375,30.76171875,46.875,20.5078125,6.34765625
1771542962.7579374,16.11328125,30.76171875,49.8046875,0.48828125,-22.94921875
1771542962.7618437,34.1796875,29.296875,55.17578125,22.4609375,41.50390625
1771542962.76575,48.33984375,25.87890625,46.38671875,60.05859375,98.14453125
1771542962.7696562,40.52734375,28.3203125,33.203125,47.36328125,53.7109375
1771542962.7735624,28.3203125,22.4609375,45.8984375,25.390625,-47.36328125
1771542962.7774687,38.0859375,19.04296875,66.40625,48.828125,-2.9296875
1771542962.781375,35.64453125,26.85546875,53.22265625,59.08203125,33.203125
1771542962.7852812,13.671875,34.1796875,30.2734375,27.83203125,16.6015625
1771542962.7891874,2.9296875,38.0859375,17.08984375,6.34765625,14.16015625
1771542962.7930937,20.99609375,33.203125,52.734375,23.92578125,7.8125
1771542962.810125,40.0390625,28.3203125,52.734375,48.33984375,16.11328125
1771542962.8140314,28.3203125,26.3671875,28.80859375,48.828125,20.99609375
1771542962.8179376,25.390625,25.87890625,57.12890625,24.90234375,84.47265625
1771542962.8218439,35.15625,26.3671875,62.01171875,14.16015625,44.921875
1771542962.82575,41.50390625,29.296875,44.921875,38.57421875,73.73046875
1771542962.8296564,37.59765625,36.1328125,12.6953125,44.43359375,100.5859375
1771542962.8335626,21.97265625,38.0859375,19.53125,11.71875,52.24609375
1771542962.8374689,20.99609375,36.62109375,63.4765625,2.44140625,98.14453125
1771542962.841375,49.31640625,37.109375,53.7109375,39.0625,92.28515625
1771542962.8452814,57.6171875,41.50390625,34.1796875,57.6171875,52.734375
1771542962.8491876,27.83203125,44.43359375,40.0390625,36.62109375,27.83203125
1771542962.8530939,11.23046875,39.0625,58.59375,9.765625,82.51953125
1771542962.855125,18.06640625,41.9921875,42.48046875,19.04296875,87.890625
1771542962.8590312,31.73828125,40.52734375,18.06640625,40.0390625,19.53125
1771542962.8629375,28.80859375,34.1796875,29.296875,33.69140625,4.8828125
1771542962.8668437,3.41796875,37.59765625,44.43359375,3.41796875,-26.85546875
1771542962.87075,18.06640625,39.0625,52.734375,12.6953125,44.43359375
1771542962.8746562,54.19921875,34.1796875,35.15625,57.12890625,49.31640625
1771542962.8785625,40.52734375,33.203125,24.4140625,50.29296875,16.11328125
1771542962.8824687,2.9296875,32.71484375,40.52734375,5.859375,42.48046875
1771542962.886375,8.30078125,34.1796875,33.203125,3.41796875,28.80859375
1771542962.8902812,38.0859375,33.203125,14.16015625,41.015625,37.109375
1771542962.8941875,34.1796875,30.2734375,33.203125,53.7109375,35.15625
1771542962.8980937,17.08984375,32.2265625,51.7578125,34.1796875,38.57421875
1771542962.900125,15.13671875,27.83203125,54.6875,26.3671875,70.80078125
1771542962.9040313,31.73828125,24.4140625,50.29296875,45.8984375,87.890625
1771542962.9079375,33.203125,25.87890625,39.0625,55.17578125,61.5234375
1771542962.9118438,2.44140625,31.25,30.2734375,26.3671875,51.7578125
1771542962.91575,-1.46484375,31.73828125,29.78515625,11.23046875,52.24609375
1771542962.9196563,20.01953125,31.25,33.203125,23.92578125,55.17578125
1771542962.9235625,27.83203125,32.2265625,30.76171875,42.96875,58.59375
1771542962.9274688,30.76171875,31.73828125,31.25,51.26953125,12.20703125
1771542962.931375,27.34375,32.71484375,31.25,40.52734375,4.8828125
1771542962.9352813,26.3671875,31.25,42.96875,38.0859375,11.71875
1771542962.9391875,18.5546875,29.78515625,49.31640625,34.66796875,-4.39453125
1771542962.9430938,19.53125,38.57421875,20.5078125,37.109375,-0.9765625
1771542962.945125,24.4140625,43.9453125,28.3203125,23.4375,19.53125
1771542962.9490314,28.80859375,37.109375,48.33984375,14.6484375,34.1796875
1771542962.9529376,45.41015625,32.2265625,42.96875,38.0859375,20.01953125
1771542962.9568439,40.52734375,27.34375,33.69140625,56.15234375,44.921875
1771542962.96075,18.5546875,30.76171875,31.73828125,26.3671875,55.17578125
1771542962.9646564,6.34765625,34.66796875,38.57421875,-12.20703125,60.05859375
1771542962.9685626,24.4140625,35.15625,40.52734375,11.71875,70.3125
1771542962.9724689,36.1328125,39.55078125,25.87890625,40.52734375,39.0625
1771542962.976375,28.80859375,28.3203125,5.859375,32.71484375,50.78125
1771542962.9802814,20.01953125,13.18359375,41.9921875,20.5078125,43.45703125
1771542962.9841876,20.99609375,22.94921875,76.171875,16.6015625,50.29296875
1771542962.9880939,32.2265625,42.48046875,41.9921875,27.83203125,66.40625
1771542962.990125,22.94921875,46.38671875,30.2734375,30.2734375,59.08203125
1771542962.9940312,20.01953125,37.59765625,46.875,10.25390625,76.66015625
1771542962.9979374,37.59765625,35.64453125,46.875,17.08984375,71.2890625
1771542963.0018437,55.17578125,38.57421875,41.015625,62.01171875,69.82421875
1771542963.00575,50.29296875,32.71484375,31.25,74.21875,21.97265625
1771542963.0096562,19.53125,27.83203125,24.90234375,36.1328125,-20.5078125
1771542963.0135624,10.25390625,27.34375,50.78125,11.71875,9.765625
1771542963.0174687,33.69140625,30.2734375,25.87890625,34.66796875,57.6171875
1771542963.021375,58.59375,30.76171875,-1.46484375,62.01171875,60.05859375
1771542963.0252812,38.57421875,32.2265625,40.52734375,46.875,11.23046875
1771542963.0291874,6.8359375,34.1796875,58.59375,13.18359375,35.15625
1771542963.0330937,27.83203125,33.203125,43.45703125,22.4609375,52.734375
