timestamps,TP9,AF7,AF8,TP10,Right AUX
1771540343.228125,29.78515625,-10.7421875,91.30859375,15.625,42.48046875
1771540343.2320313,27.83203125,-4.39453125,145.01953125,10.7421875,51.7578125
1771540343.2359376,38.57421875,2.9296875,214.84375,21.484375,41.015625
1771540343.2398438,41.50390625,-7.32421875,136.23046875,22.94921875,1.953125
1771540343.24375,44.43359375,-19.04296875,22.4609375,26.85546875,-21.484375
1771540343.2476563,41.015625,-14.6484375,-61.03515625,34.1796875,-15.625
1771540343.2515626,27.83203125,-8.30078125,79.1015625,38.0859375,38.0859375
1771540343.2554688,24.4140625,-23.4375,88.37890625,44.921875,20.01953125
1771540343.259375,25.390625,-30.76171875,-117.1875,37.59765625,-10.7421875
1771540343.2632813,18.06640625,-22.94921875,-19.53125,32.71484375,18.06640625
1771540343.2671876,37.109375,-37.59765625,105.95703125,38.57421875,18.06640625
1771540343.2710938,55.6640625,-36.62109375,112.79296875,44.921875,24.4140625
1771540343.273125,35.15625,-10.25390625,139.16015625,42.96875,57.6171875
1771540343.2770312,21.97265625,0.0,200.68359375,19.53125,83.984375
1771540343.2809374,23.92578125,-2.44140625,114.74609375,17.08984375,20.5078125
1771540343.2848437,20.5078125,-7.32421875,107.91015625,24.90234375,-0.9765625
1771540343.28875,22.94921875,-13.18359375,148.4375,39.55078125,4.39453125
1771540343.2926562,15.625,-19.53125,26.85546875,33.203125,-22.4609375
1771540343.2965624,5.37109375,-18.5546875,-49.8046875,9.27734375,-3.90625
1771540343.3004687,34.66796875,-15.625,-119.140625,22.94921875,31.73828125
1771540343.304375,47.36328125,-4.8828125,-6.8359375,30.2734375,31.25
1771540343.3082812,36.1328125,5.37109375,232.91015625,26.3671875,28.80859375
1771540343.3121874,48.828125,0.0,153.3203125,30.76171875,60.546875
1771540343.3160937,60.05859375,-3.90625,92.7734375,42.48046875,44.43359375
1771540343.333125,52.24609375,0.9765625,181.640625,58.10546875,38.0859375
1771540343.3370314,53.22265625,2.44140625,238.76953125,57.12890625,27.34375
1771540343.3409376,60.05859375,-9.27734375,62.01171875,54.19921875,14.6484375
1771540343.3448439,64.453125,-12.20703125,-9.765625,66.89453125,32.71484375
1771540343.34875,76.66015625,-4.8828125,185.546875,74.21875,20.01953125
1771540343.3526564,69.82421875,-8.30078125,150.87890625,61.5234375,-1.953125
1771540343.3565626,48.828125,-15.13671875,-37.59765625,42.96875,67.87109375
1771540343.3604689,50.29296875,-17.08984375,-153.80859375,33.203125,68.84765625
1771540343.364375,69.82421875,0.9765625,104.4921875,39.0625,59.5703125
1771540343.3682814,68.84765625,-3.90625,270.01953125,49.8046875,72.75390625
1771540343.3721876,56.15234375,-20.01953125,82.51953125,45.41015625,41.50390625
1771540343.3760939,57.6171875,-10.25390625,8.30078125,42.48046875,46.38671875
1771540343.363125,66.89453125,-12.20703125,141.6015625,52.734375,29.78515625
1771540343.3670313,72.265625,-9.765625,192.3828125,53.22265625,24.90234375
1771540343.3709376,69.3359375,5.859375,59.08203125,43.9453125,39.55078125
1771540343.3748438,59.08203125,8.30078125,19.53125,39.0625,43.9453125
1771540343.37875,48.33984375,9.765625,129.39453125,34.66796875,47.8515625
1771540343.3826563,41.9921875,0.9765625,20.01953125,42.96875,-17.578125
1771540343.3865626,39.55078125,-6.34765625,-24.90234375,43.9453125,19.04296875
1771540343.3904688,42.96875,-7.8125,41.015625,33.203125,41.015625
1771540343.394375,60.05859375,-5.37109375,86.9140625,29.296875,2.9296875
1771540343.3982813,61.03515625,-0.48828125,113.76953125,41.015625,-35.64453125
1771540343.4021876,43.9453125,-13.18359375,-155.76171875,35.15625,-36.1328125
1771540343.4060938,28.3203125,-6.8359375,-172.8515625,24.90234375,40.0390625
1771540343.407125,32.71484375,10.25390625,133.7890625,35.15625,42.96875
1771540343.4110312,45.8984375,2.9296875,115.72265625,38.57421875,11.23046875
1771540343.4149375,46.875,-2.44140625,83.984375,48.33984375,0.9765625
1771540343.4188437,41.015625,0.0,145.99609375,51.7578125,41.015625
1771540343.42275,29.78515625,-1.46484375,42.96875,35.64453125,12.20703125
1771540343.4266562,33.203125,-6.8359375,-83.49609375,32.71484375,-11.23046875
1771540343.4305625,43.45703125,-9.765625,-204.58984375,35.15625,39.55078125
1771540343.4344687,41.015625,3.41796875,-24.4140625,31.25,70.80078125
1771540343.438375,39.0625,9.27734375,177.734375,22.94921875,61.03515625
1771540343.4422812,40.52734375,4.39453125,118.65234375,23.92578125,52.24609375
1771540343.4461875,52.734375,12.6953125,157.71484375,40.0390625,39.55078125
1771540343.4500937,54.19921875,20.01953125,205.078125,44.921875,23.4375
1771540343.467125,36.1328125,4.8828125,117.1875,27.83203125,25.87890625
1771540343.4710312,33.203125,-0.9765625,49.8046875,28.80859375,42.96875
1771540343.4749374,41.9921875,4.39453125,87.890625,36.62109375,10.7421875
1771540343.4788437,41.9921875,-2.44140625,158.203125,36.62109375,-5.859375
1771540343.48275,32.71484375,-7.32421875,67.87109375,37.109375,-12.6953125
1771540343.4866562,43.9453125,-4.39453125,-69.82421875,29.296875,4.8828125
1771540343.4905624,54.19921875,5.37109375,-19.04296875,28.3203125,66.89453125
1771540343.4944687,47.8515625,13.18359375,57.12890625,24.90234375,41.50390625
1771540343.498375,48.33984375,16.11328125,76.171875,21.484375,13.18359375
1771540343.5022812,46.875,-2.44140625,-188.96484375,20.5078125,44.43359375
1771540343.5061874,43.45703125,-2.9296875,-183.10546875,25.87890625,44.921875
1771540343.5100937,39.0625,16.11328125,161.62109375,38.0859375,-2.9296875
1771540343.513125,36.1328125,5.37109375,94.23828125,38.0859375,-16.11328125
1771540343.5170312,28.80859375,-3.41796875,4.39453125,31.73828125,33.69140625
1771540343.5209374,20.01953125,6.34765625,121.58203125,34.66796875,60.05859375
1771540343.5248437,26.85546875,13.671875,206.54296875,50.29296875,73.2421875
1771540343.52875,33.203125,4.39453125,101.5625,51.26953125,74.21875
1771540343.5326562,27.83203125,-8.7890625,-83.0078125,37.109375,71.2890625
1771540343.5365624,28.80859375,-11.71875,-129.39453125,43.45703125,-2.44140625
1771540343.5404687,38.57421875,-2.9296875,59.08203125,50.78125,-13.18359375
1771540343.544375,41.50390625,-3.41796875,26.85546875,36.1328125,16.11328125
1771540343.5482812,36.62109375,-29.78515625,-314.94140625,27.34375,20.5078125
1771540343.5521874,35.64453125,-27.34375,-81.0546875,37.59765625,73.73046875
1771540343.5560937,38.0859375,-8.7890625,169.43359375,42.48046875,28.3203125
1771540343.557125,43.45703125,-5.37109375,90.8203125,45.8984375,-7.32421875
1771540343.5610313,35.15625,-3.90625,77.1484375,31.25,37.109375
1771540343.5649376,20.01953125,0.9765625,81.0546875,18.5546875,46.38671875
1771540343.5688438,26.3671875,2.44140625,119.62890625,30.76171875,62.5
1771540343.57275,48.828125,1.953125,89.35546875,40.0390625,36.62109375
1771540343.5766563,49.31640625,4.39453125,13.671875,31.73828125,45.8984375
1771540343.5805626,34.66796875,4.8828125,-36.62109375,16.11328125,78.125
1771540343.5844688,42.48046875,9.765625,75.1953125,28.3203125,67.87109375
1771540343.588375,50.78125,-2.9296875,-72.75390625,40.52734375,45.8984375
1771540343.5922813,37.59765625,-1.46484375,-84.47265625,26.3671875,57.12890625
1771540343.5961876,31.73828125,6.8359375,153.3203125,22.94921875,62.98828125
1771540343.6000938,31.73828125,-10.25390625,23.92578125,25.87890625,24.90234375
1771540343.603125,23.4375,-8.7890625,-43.9453125,4.8828125,28.3203125
1771540343.6070313,24.90234375,8.30078125,88.8671875,8.30078125,0.0
1771540343.6109376,16.6015625,3.90625,96.19140625,24.90234375,-6.8359375
1771540343.6148438,12.20703125,-8.7890625,-53.22265625,21.97265625,-3.41796875
1771540343.61875,15.13671875,-4.39453125,-19.04296875,26.85546875,30.2734375
1771540343.6226563,25.390625,-0.48828125,44.43359375,23.4375,89.84375
1771540343.6265626,25.87890625,-5.859375,-27.34375,19.04296875,52.734375
1771540343.6304688,20.5078125,-21.484375,-137.20703125,21.97265625,32.71484375
1771540343.634375,18.5546875,-20.5078125,-218.26171875,22.4609375,47.36328125
1771540343.6382813,30.2734375,6.34765625,50.29296875,24.4140625,36.62109375
1771540343.6421876,37.59765625,6.34765625,209.47265625,36.62109375,79.1015625
1771540343.6460938,25.390625,-5.859375,46.875,31.25,92.28515625
1771540343.648125,31.73828125,-0.9765625,7.8125,24.90234375,57.12890625
1771540343.6520312,37.109375,1.46484375,109.86328125,23.92578125,27.83203125
1771540343.6559374,41.50390625,-10.25390625,43.45703125,23.4375,38.57421875
1771540343.6598437,39.0625,-16.11328125,-163.0859375,13.671875,9.27734375
1771540343.66375,30.2734375,-4.8828125,-89.35546875,13.18359375,0.0
1771540343.6676562,32.2265625,-2.9296875,8.7890625,15.13671875,12.6953125
1771540343.6715624,32.71484375,-6.8359375,2.9296875,21.484375,18.06640625
1771540343.6754687,25.87890625,-19.04296875,-168.45703125,21.97265625,49.8046875
1771540343.679375,26.3671875,-10.7421875,-173.33984375,14.6484375,56.15234375
1771540343.6832812,32.2265625,6.34765625,139.6484375,28.80859375,26.85546875
1771540343.6871874,37.109375,-1.46484375,142.578125,47.8515625,12.20703125
1771540343.6910937,30.76171875,-5.859375,63.96484375,48.33984375,39.55078125
1771540343.692125,18.5546875,-4.8828125,43.45703125,30.76171875,17.578125
1771540343.6960313,20.01953125,-0.9765625,97.65625,25.87890625,18.06640625
1771540343.6999376,28.3203125,-2.9296875,122.55859375,28.80859375,75.68359375
1771540343.7038438,36.1328125,-6.34765625,88.37890625,29.78515625,82.03125
1771540343.70775,20.5078125,-14.6484375,-24.90234375,30.2734375,16.6015625
1771540343.7116563,12.20703125,-21.484375,-95.21484375,28.80859375,0.48828125
1771540343.7155626,27.83203125,-18.06640625,-68.359375,34.66796875,-20.99609375
1771540343.7194688,24.90234375,-28.80859375,-230.46875,29.296875,-33.69140625
1771540343.723375,16.11328125,-13.18359375,-105.46875,7.32421875,37.109375
1771540343.7272813,22.94921875,4.8828125,141.11328125,1.46484375,31.73828125
1771540343.7311876,23.92578125,-1.953125,138.18359375,24.90234375,34.66796875
1771540343.7350938,33.203125,2.44140625,197.265625,44.921875,73.2421875
1771540343.737125,35.64453125,0.9765625,243.65234375,23.4375,131.34765625
1771540343.7410312,33.69140625,-12.20703125,162.59765625,9.27734375,155.2734375
1771540343.7449374,35.64453125,-32.71484375,80.56640625,25.87890625,93.75
1771540343.7488437,32.71484375,-29.78515625,135.7421875,26.3671875,77.63671875
1771540343.75275,23.4375,-10.7421875,73.2421875,14.6484375,-14.6484375
1771540343.7566562,7.32421875,-9.765625,-84.9609375,21.484375,-35.64453125
1771540343.7605624,9.27734375,-14.6484375,-257.8125,16.11328125,7.8125
1771540343.7644687,16.11328125,-12.20703125,-231.93359375,9.27734375,-10.7421875
1771540343.768375,14.16015625,3.41796875,68.359375,20.01953125,-57.6171875
1771540343.7722812,7.8125,-0.48828125,120.1171875,19.04296875,24.90234375
1771540343.7761874,12.20703125,-9.765625,40.52734375,21.484375,82.51953125
1771540343.7800937,18.5546875,-6.8359375,62.98828125,33.69140625,0.0
1771540343.797125,13.18359375,0.48828125,168.45703125,33.69140625,-12.6953125
1771540343.8010314,13.671875,-5.37109375,61.03515625,35.15625,3.90625
1771540343.8049376,20.5078125,-8.30078125,-0.48828125,37.109375,49.31640625
1771540343.8088439,28.80859375,-0.48828125,130.859375,13.671875,62.98828125
1771540343.81275,40.52734375,-1.46484375,211.42578125,4.8828125,68.359375
1771540343.8166564,42.48046875,-12.6953125,-9.765625,14.6484375,46.875
1771540343.8205626,39.55078125,-16.11328125,-271.484375,20.01953125,24.4140625
1771540343.8244689,47.36328125,-12.6953125,-18.06640625,27.34375,16.11328125
1771540343.828375,41.9921875,-17.08984375,197.75390625,41.50390625,3.41796875
1771540343.8322814,25.390625,-23.92578125,64.453125,37.59765625,22.4609375
1771540343.8361876,22.4609375,-20.01953125,-33.203125,30.76171875,-7.32421875
1771540343.8400939,24.4140625,-8.30078125,75.68359375,38.57421875,-29.78515625
1771540343.843125,27.34375,8.30078125,182.12890625,21.97265625,13.18359375
1771540343.8470314,29.78515625,13.18359375,67.3828125,9.765625,41.50390625
1771540343.8509376,24.4140625,8.7890625,-51.7578125,5.37109375,-4.8828125
1771540343.8548439,10.7421875,10.7421875,72.265625,0.9765625,-5.859375
1771540343.85875,18.06640625,7.32421875,158.203125,11.23046875,28.80859375
1771540343.8626564,30.76171875,-1.46484375,71.2890625,31.25,14.16015625
1771540343.8665626,18.5546875,-7.32421875,2.9296875,26.85546875,24.90234375
1771540343.8704689,20.5078125,-2.44140625,79.58984375,3.41796875,40.0390625
1771540343.874375,34.1796875,2.44140625,133.30078125,16.11328125,12.6953125
1771540343.8782814,22.4609375,-9.27734375,-31.73828125,30.76171875,44.43359375
1771540343.8821876,5.859375,-7.8125,-59.5703125,28.3203125,28.3203125
1771540343.8860939,6.34765625,2.44140625,56.640625,20.5078125,-36.62109375
1771540343.888125,19.04296875,0.48828125,74.21875,22.4609375,44.921875
1771540343.8920312,25.390625,-2.44140625,62.5,29.78515625,11.71875
1771540343.8959374,22.94921875,2.9296875,187.98828125,23.92578125,20.99609375
1771540343.8998437,23.4375,2.44140625,240.72265625,19.53125,114.2578125
1771540343.90375,38.0859375,-3.90625,102.5390625,25.390625,74.70703125
1771540343.9076562,40.52734375,-10.25390625,55.17578125,38.0859375,47.36328125
1771540343.9115624,20.99609375,-13.18359375,125.48828125,38.0859375,27.34375
1771540343.9154687,18.5546875,-0.48828125,197.75390625,33.69140625,40.52734375
1771540343.919375,32.2265625,-8.30078125,47.8515625,36.62109375,68.359375
1771540343.9232812,37.59765625,-29.78515625,-137.20703125,35.15625,46.38671875
1771540343.9271874,42.48046875,-8.7890625,133.7890625,31.73828125,31.73828125
1771540343.9310937,48.828125,8.30078125,226.5625,32.71484375,5.37109375
1771540343.934125,26.3671875,11.23046875,115.72265625,14.6484375,59.5703125
1771540343.9380312,13.18359375,13.18359375,138.671875,4.8828125,69.3359375
1771540343.9419374,31.25,19.53125,127.9296875,23.4375,13.18359375
1771540343.9458437,36.1328125,22.4609375,185.05859375,22.94921875,63.4765625
1771540343.94975,19.04296875,1.953125,29.78515625,13.18359375,40.52734375
1771540343.9536562,23.4375,-2.44140625,-44.921875,29.78515625,12.6953125
1771540343.9575624,35.15625,1.46484375,92.7734375,32.2265625,21.484375
1771540343.9614687,29.296875,1.46484375,176.7578125,27.34375,27.83203125
1771540343.965375,25.87890625,-7.32421875,-64.94140625,21.484375,24.4140625
1771540343.9692812,19.04296875,-3.41796875,-62.5,30.2734375,58.59375
1771540343.9731874,23.92578125,6.34765625,284.1796875,41.9921875,63.96484375
1771540343.9770937,28.80859375,-1.953125,245.60546875,38.0859375,50.78125
1771540343.978125,22.94921875,-5.37109375,124.51171875,35.64453125,65.91796875
1771540343.9820313,24.90234375,1.46484375,127.9296875,22.4609375,46.875
1771540343.9859376,25.87890625,6.34765625,204.58984375,24.90234375,39.0625
1771540343.9898438,26.85546875,4.39453125,171.875,28.80859375,42.96875
1771540343.99375,20.99609375,-1.46484375,43.45703125,23.4375,45.8984375
1771540343.9976563,18.5546875,-0.48828125,-11.23046875,15.13671875,45.41015625
1771540344.0015626,21.484375,0.48828125,30.76171875,11.71875,33.69140625
1771540344.0054688,23.92578125,-6.34765625,20.01953125,19.53125,9.27734375
1771540344.009375,29.296875,-17.08984375,-148.4375,15.13671875,60.05859375
1771540344.0132813,30.76171875,-9.765625,-40.0390625,19.04296875,56.15234375
1771540344.0171876,30.76171875,5.859375,226.07421875,27.34375,61.03515625
1771540344.0210938,37.109375,1.953125,159.1796875,0.0,0.48828125
1771540344.022125,29.78515625,0.48828125,132.8125,2.9296875,-31.73828125
1771540344.0260313,17.578125,4.39453125,180.6640625,15.625,59.5703125
1771540344.0299375,20.99609375,3.90625,103.515625,24.90234375,17.578125
1771540344.0338438,25.87890625,2.44140625,94.23828125,33.69140625,-6.34765625
1771540344.03775,28.3203125,-5.859375,159.66796875,26.3671875,22.4609375
1771540344.0416563,15.625,-10.25390625,54.19921875,17.578125,41.9921875
1771540344.0455625,11.23046875,-7.32421875,-37.59765625,24.4140625,61.5234375
1771540344.0494688,27.34375,-16.6015625,-147.94921875,22.4609375,45.41015625
1771540344.053375,32.71484375,-10.25390625,-93.26171875,18.5546875,68.84765625
1771540344.0572813,29.78515625,2.44140625,152.34375,21.484375,19.04296875
1771540344.0611875,35.64453125,-0.9765625,99.12109375,19.04296875,21.484375
1771540344.0650938,40.52734375,0.48828125,24.4140625,18.5546875,4.39453125
1771540344.067125,34.1796875,12.20703125,158.69140625,26.3671875,-12.20703125
1771540344.0710313,23.92578125,8.7890625,232.421875,18.06640625,42.96875
1771540344.0749376,25.87890625,-10.25390625,31.73828125,20.5078125,17.08984375
1771540344.0788438,19.04296875,-10.7421875,-9.765625,42.96875,13.18359375
1771540344.08275,22.4609375,-2.44140625,145.99609375,44.43359375,25.87890625
1771540344.0866563,39.55078125,1.953125,129.8828125,37.59765625,49.8046875
1771540344.0905626,21.484375,-9.765625,-122.55859375,28.3203125,10.25390625
1771540344.0944688,8.7890625,-31.25,-219.7265625,26.85546875,35.64453125
1771540344.098375,23.92578125,-19.04296875,13.671875,30.76171875,10.7421875
1771540344.1022813,30.2734375,-2.44140625,153.3203125,28.80859375,-18.06640625
1771540344.1061876,28.3203125,-10.7421875,5.859375,23.92578125,24.90234375
1771540344.1100938,26.3671875,-13.671875,-58.59375,18.06640625,35.15625
1771540344.113125,21.484375,-5.859375,163.57421875,32.71484375,70.80078125
1771540344.1170313,13.18359375,3.41796875,213.8671875,45.41015625,51.7578125
1771540344.1209376,11.23046875,10.25390625,99.609375,10.7421875,24.4140625
1771540344.1248438,16.11328125,14.6484375,51.26953125,-18.06640625,63.96484375
1771540344.12875,18.5546875,15.625,81.54296875,2.9296875,40.52734375
1771540344.1326563,17.578125,9.765625,64.453125,13.18359375,20.99609375
1771540344.1365626,33.203125,-1.46484375,-125.0,12.6953125,60.05859375
1771540344.1404688,29.296875,0.9765625,-154.296875,6.34765625,74.21875
1771540344.144375,26.3671875,14.6484375,82.51953125,9.765625,22.4609375
1771540344.1482813,36.1328125,1.46484375,134.27734375,21.97265625,20.01953125
1771540344.1521876,20.01953125,-6.8359375,106.4453125,36.1328125,44.43359375
1771540344.1560938,9.765625,1.953125,22.4609375,29.78515625,29.78515625
1771540344.159125,16.6015625,3.41796875,83.984375,19.53125,67.3828125
1771540344.1630313,28.80859375,1.953125,107.91015625,35.15625,82.51953125
1771540344.1669376,31.73828125,-1.953125,-13.18359375,43.9453125,14.16015625
1771540344.1708438,20.99609375,-9.27734375,63.96484375,28.80859375,29.296875
1771540344.17475,12.6953125,-17.578125,95.21484375,17.08984375,76.171875
1771540344.1786563,20.01953125,-22.4609375,-70.80078125,20.5078125,40.52734375
1771540344.1825626,35.15625,-15.13671875,-182.6171875,30.76171875,23.92578125
1771540344.1864688,35.64453125,8.7890625,18.5546875,38.0859375,9.765625
1771540344.190375,15.625,9.765625,74.70703125,20.99609375,-7.32421875
1771540344.1942813,19.53125,3.41796875,20.99609375,11.23046875,18.06640625
1771540344.1981876,35.15625,4.8828125,100.5859375,20.5078125,49.8046875
1771540344.2020938,29.78515625,3.41796875,151.85546875,17.08984375,65.4296875
1771540344.218125,13.18359375,-1.46484375,63.4765625,9.765625,24.4140625
1771540344.2220314,17.08984375,-8.7890625,-41.9921875,16.11328125,13.671875
1771540344.2259376,29.78515625,-8.30078125,21.484375,31.73828125,9.27734375
1771540344.2298439,37.59765625,-8.30078125,145.99609375,37.59765625,5.859375
1771540344.23375,41.015625,-13.18359375,107.91015625,29.78515625,1.46484375
1771540344.2376564,40.0390625,-21.484375,-157.2265625,28.3203125,36.1328125
1771540344.2415626,26.85546875,-3.90625,-226.5625,41.015625,62.5
1771540344.2454689,26.3671875,22.94921875,120.60546875,30.2734375,18.5546875
1771540344.249375,33.203125,14.16015625,160.64453125,8.30078125,25.390625
1771540344.2532814,24.90234375,4.39453125,-5.37109375,17.08984375,14.16015625
1771540344.2571876,20.5078125,8.7890625,77.1484375,23.92578125,19.53125
1771540344.2610939,19.53125,7.32421875,217.7734375,23.4375,64.453125
1771540344.262125,35.64453125,2.9296875,92.7734375,23.4375,5.37109375
1771540344.2660313,33.69140625,-3.90625,-48.828125,21.97265625,-16.6015625
1771540344.2699375,14.6484375,-20.01953125,41.50390625,24.4140625,1.46484375
1771540344.2738438,31.73828125,-19.04296875,159.1796875,37.59765625,26.85546875
1771540344.27775,62.5,-2.9296875,18.06640625,60.05859375,12.20703125
1771540344.2816563,34.1796875,-3.90625,-185.05859375,33.69140625,-1.46484375
1771540344.2855625,-5.37109375,-0.9765625,-103.515625,-18.06640625,-30.76171875
1771540344.2894688,-0.9765625,14.16015625,126.953125,-11.71875,-20.01953125
1771540344.293375,-2.44140625,-2.44140625,109.375,-2.9296875,73.73046875
1771540344.2972813,-12.20703125,-25.390625,-112.79296875,-33.69140625,106.4453125
1771540344.3011875,-31.25,-27.34375,6.8359375,-44.43359375,56.15234375
1771540344.3050938,-38.57421875,-28.3203125,192.87109375,-39.0625,84.47265625
1771540344.308125,-35.15625,-29.296875,192.3828125,-36.1328125,118.65234375
1771540344.3120313,-70.80078125,-41.50390625,102.05078125,-62.01171875,51.26953125
1771540344.3159375,-99.609375,-34.1796875,51.7578125,-87.40234375,20.5078125
1771540344.3198438,-94.23828125,-12.20703125,97.65625,-85.9375,60.546875
1771540344.32375,-80.078125,-8.7890625,96.6796875,-85.9375,46.38671875
1771540344.3276563,-76.171875,-20.99609375,27.34375,-84.9609375,50.78125
1771540344.3315625,-85.9375,-35.15625,-78.61328125,-83.984375,40.0390625
1771540344.3354688,-74.21875,-32.2265625,-66.40625,-61.03515625,7.8125
1771540344.339375,-33.69140625,-35.15625,-103.02734375,-31.25,40.0390625
1771540344.3432813,-35.15625,-40.0390625,-93.26171875,-37.109375,42.48046875
1771540344.3471875,-63.96484375,-26.85546875,125.0,-50.78125,30.76171875
1771540344.3510938,-65.91796875,-23.4375,101.07421875,-40.0390625,36.62109375
1771540344.353125,-47.8515625,-11.71875,93.26171875,-22.4609375,35.64453125
1771540344.3570313,-27.83203125,-2.9296875,227.5390625,-11.71875,52.24609375
1771540344.3609376,-20.99609375,-21.97265625,198.73046875,-12.20703125,63.96484375
1771540344.3648438,-12.20703125,-27.34375,42.96875,-4.39453125,73.73046875
1771540344.36875,-2.9296875,-8.7890625,3.90625,4.39453125,11.23046875
1771540344.3726563,1.953125,-9.765625,43.45703125,12.20703125,-8.30078125
1771540344.3765626,2.9296875,-27.83203125,59.08203125,16.11328125,20.01953125
1771540344.3804688,13.18359375,-26.85546875,-31.73828125,19.53125,31.25
1771540344.384375,19.53125,-21.484375,-160.64453125,23.4375,58.10546875
1771540344.3882813,16.6015625,-8.7890625,66.40625,33.69140625,1.46484375
1771540344.3921876,17.08984375,2.44140625,254.8828125,43.45703125,-2.44140625
1771540344.3960938,17.08984375,2.9296875,45.8984375,36.1328125,52.24609375
1771540344.398125,15.13671875,-1.953125,-3.41796875,23.92578125,66.89453125
1771540344.4020312,21.97265625,9.27734375,193.359375,33.69140625,44.43359375
1771540344.4059374,22.94921875,15.625,208.0078125,41.015625,27.34375
1771540344.4098437,22.94921875,3.41796875,109.86328125,9.765625,74.21875
1771540344.41375,24.4140625,-4.39453125,61.03515625,19.04296875,73.2421875
1771540344.4176562,30.76171875,-8.30078125,26.85546875,48.828125,3.90625
1771540344.4215624,35.64453125,-1.953125,73.2421875,43.9453125,16.11328125
1771540344.4254687,24.90234375,-12.6953125,-91.30859375,27.83203125,54.6875
1771540344.429375,12.6953125,-10.25390625,-199.21875,22.94921875,24.4140625
1771540344.4332812,24.90234375,0.0,132.32421875,31.73828125,12.20703125
1771540344.4371874,40.0390625,-12.20703125,194.82421875,44.43359375,15.13671875
1771540344.4410937,27.34375,-9.27734375,23.4375,40.52734375,-21.484375
1771540344.442125,19.53125,3.41796875,42.48046875,26.3671875,15.625
1771540344.4460313,21.97265625,5.859375,175.78125,29.78515625,66.40625
1771540344.4499376,29.296875,-0.9765625,117.1875,48.828125,39.55078125
1771540344.4538438,31.25,-1.953125,55.6640625,44.921875,27.83203125
1771540344.45775,27.83203125,6.8359375,96.19140625,26.3671875,40.52734375
1771540344.4616563,25.390625,11.71875,10.7421875,23.92578125,19.53125
1771540344.4655626,26.85546875,1.953125,-38.0859375,22.94921875,15.13671875
1771540344.4694688,27.83203125,-16.6015625,-194.82421875,13.18359375,4.8828125
1771540344.473375,24.4140625,-12.6953125,-135.7421875,14.16015625,-53.22265625
1771540344.4772813,34.66796875,-2.44140625,147.94921875,27.34375,9.27734375
1771540344.4811876,37.59765625,-1.953125,139.16015625,20.5078125,33.69140625
1771540344.4850938,33.203125,-3.41796875,151.85546875,17.578125,-5.37109375
1771540344.488125,20.01953125,5.37109375,205.56640625,27.83203125,22.4609375
1771540344.4920313,3.90625,11.71875,91.796875,25.390625,48.33984375
1771540344.4959376,11.23046875,2.9296875,-62.01171875,14.16015625,-19.53125
1771540344.4998438,21.484375,10.25390625,85.9375,18.5546875,-7.32421875
1771540344.50375,23.92578125,17.08984375,243.1640625,27.83203125,41.9921875
1771540344.5076563,17.578125,3.90625,78.125,24.90234375,40.0390625
1771540344.5115626,25.390625,-13.671875,-109.375,34.1796875,86.9140625
1771540344.5154688,48.33984375,-14.6484375,13.671875,44.921875,101.5625
1771540344.519375,50.78125,8.30078125,272.94921875,44.921875,47.8515625
1771540344.5232813,39.55078125,15.625,167.48046875,36.1328125,37.59765625
1771540344.5271876,40.52734375,15.625,71.77734375,24.4140625,66.89453125
1771540344.5310938,34.66796875,19.04296875,158.69140625,24.90234375,42.48046875
1771540344.533125,24.4140625,16.11328125,226.07421875,27.34375,16.6015625
1771540344.5370312,23.92578125,5.859375,99.12109375,26.85546875,22.4609375
1771540344.5409374,26.3671875,-5.859375,8.7890625,26.85546875,31.25
1771540344.5448437,28.80859375,-1.46484375,74.70703125,30.2734375,23.92578125
1771540344.54875,30.2734375,7.32421875,121.58203125,33.203125,17.578125
1771540344.5526562,31.73828125,2.9296875,42.48046875,33.69140625,23.92578125
1771540344.5565624,39.0625,-4.8828125,-245.1171875,44.921875,57.6171875
1771540344.5604687,41.9921875,9.765625,-39.55078125,41.9921875,92.7734375
1771540344.564375,39.0625,9.765625,304.6875,28.80859375,94.23828125
1771540344.5682812,35.64453125,-3.41796875,197.75390625,29.78515625,57.6171875
1771540344.5721874,25.390625,2.9296875,79.58984375,27.34375,16.11328125
1771540344.5760937,25.390625,6.8359375,141.11328125,21.484375,21.97265625
1771540344.593125,37.59765625,3.41796875,240.234375,31.73828125,79.58984375
1771540344.5970314,48.33984375,0.0,200.68359375,37.109375,76.171875
1771540344.6009376,51.26953125,5.859375,107.421875,36.62109375,38.0859375
1771540344.6048439,49.8046875,9.27734375,112.79296875,44.921875,27.83203125
1771540344.60875,60.546875,8.7890625,145.5078125,55.17578125,14.6484375
1771540344.6126564,67.87109375,21.484375,159.66796875,64.453125,91.30859375
1771540344.6165626,56.15234375,18.06640625,98.14453125,64.453125,149.4140625
1771540344.6204689,49.31640625,-1.953125,70.3125,46.875,106.93359375
1771540344.624375,59.08203125,-0.48828125,136.71875,41.9921875,20.01953125
1771540344.6282814,65.91796875,0.0,-33.69140625,45.41015625,31.73828125
1771540344.6321876,53.7109375,2.44140625,-86.42578125,41.50390625,81.54296875
1771540344.6360939,49.8046875,14.16015625,43.45703125,39.0625,-11.23046875
1771540344.637125,50.29296875,18.06640625,106.93359375,39.0625,42.48046875
1771540344.6410313,41.015625,16.11328125,134.765625,49.31640625,44.921875
1771540344.6449375,41.9921875,22.94921875,174.31640625,48.33984375,-12.20703125
1771540344.6488438,41.50390625,18.5546875,125.0,32.71484375,-7.32421875
1771540344.65275,35.64453125,11.23046875,42.48046875,24.90234375,27.34375
1771540344.6566563,40.52734375,10.7421875,25.87890625,24.4140625,68.84765625
1771540344.6605625,47.8515625,18.5546875,84.9609375,30.2734375,22.4609375
1771540344.6644688,32.2265625,5.37109375,111.81640625,29.78515625,-32.2265625
1771540344.668375,24.4140625,-24.90234375,-56.640625,28.3203125,-28.80859375
1771540344.6722813,35.64453125,-15.13671875,-248.53515625,25.390625,-3.90625
1771540344.6761875,29.296875,8.7890625,73.73046875,30.2734375,72.75390625
1771540344.6800938,25.87890625,6.34765625,264.6484375,39.0625,68.84765625
1771540344.684125,39.0625,13.671875,114.2578125,37.109375,78.125
1771540344.6880312,40.0390625,16.6015625,142.08984375,37.59765625,85.44921875
1771540344.6919374,26.85546875,5.859375,217.7734375,41.50390625,34.66796875
1771540344.6958437,25.87890625,4.8828125,217.28515625,42.48046875,71.77734375
1771540344.69975,23.4375,2.44140625,45.8984375,30.76171875,41.9921875
1771540344.7036562,36.1328125,7.8125,-35.64453125,42.96875,26.3671875
1771540344.7075624,52.24609375,13.671875,80.56640625,53.7109375,51.26953125
1771540344.7114687,42.48046875,11.71875,141.6015625,36.1328125,-33.203125
1771540344.715375,36.1328125,3.90625,-121.58203125,25.87890625,-2.44140625
1771540344.7192812,32.2265625,13.18359375,-156.25,23.4375,25.87890625
1771540344.7231874,36.62109375,25.87890625,191.89453125,30.2734375,35.64453125
1771540344.7270937,41.50390625,3.41796875,158.203125,34.66796875,82.03125
1771540344.728125,36.62109375,-9.765625,16.6015625,25.390625,74.70703125
1771540344.7320313,39.0625,9.765625,94.23828125,25.87890625,70.3125
1771540344.7359376,50.29296875,28.80859375,150.87890625,35.64453125,0.0
1771540344.7398438,47.8515625,25.390625,140.625,37.109375,16.6015625
1771540344.74375,45.41015625,17.578125,98.6328125,30.76171875,48.828125
1771540344.7476563,38.57421875,16.6015625,-22.94921875,21.97265625,37.109375
1771540344.7515626,34.66796875,23.92578125,31.25,16.11328125,22.4609375
1771540344.7554688,42.48046875,20.5078125,109.86328125,25.390625,66.40625
1771540344.759375,41.50390625,3.90625,-88.8671875,25.87890625,39.55078125
1771540344.7632813,31.25,14.16015625,6.8359375,23.4375,-1.46484375
1771540344.7671876,31.25,25.390625,177.24609375,26.85546875,61.5234375
1771540344.7710938,37.109375,23.4375,114.2578125,22.94921875,8.30078125
1771540344.774125,36.1328125,18.06640625,142.578125,25.390625,20.5078125
1771540344.7780313,19.04296875,7.8125,72.265625,10.7421875,50.78125
1771540344.7819376,5.859375,16.6015625,24.4140625,20.01953125,16.11328125
1771540344.7858438,12.20703125,19.04296875,32.71484375,39.55078125,15.625
1771540344.78975,25.87890625,20.99609375,99.609375,33.203125,41.015625
1771540344.7936563,31.73828125,18.5546875,11.23046875,28.3203125,-7.8125
1771540344.7975626,23.92578125,13.18359375,-47.36328125,27.83203125,-2.9296875
1771540344.8014688,28.80859375,6.8359375,-55.17578125,24.4140625,62.5
1771540344.805375,43.9453125,11.71875,-41.50390625,27.34375,16.6015625
1771540344.8092813,32.2265625,25.87890625,227.05078125,34.1796875,23.4375
1771540344.8131876,20.5078125,12.20703125,110.3515625,25.390625,22.4609375
1771540344.8170938,21.484375,5.859375,24.4140625,22.4609375,-13.18359375
1771540344.818125,29.78515625,16.11328125,202.1484375,35.64453125,33.203125
1771540344.8220313,33.69140625,7.8125,232.91015625,36.62109375,35.15625
1771540344.8259375,28.3203125,-4.8828125,72.75390625,35.64453125,30.2734375
1771540344.8298438,27.34375,3.41796875,-41.015625,32.2265625,31.25
1771540344.83375,33.203125,21.97265625,81.54296875,26.3671875,60.546875
1771540344.8376563,31.25,22.94921875,140.13671875,31.25,67.87109375
1771540344.8415625,23.92578125,9.765625,-17.08984375,17.08984375,65.91796875
1771540344.8454688,30.2734375,-4.8828125,-234.86328125,8.7890625,90.33203125
1771540344.849375,44.43359375,-17.578125,-59.5703125,16.11328125,26.3671875
1771540344.8532813,48.33984375,-17.08984375,256.34765625,39.55078125,2.9296875
1771540344.8571875,40.0390625,-11.23046875,144.53125,40.52734375,9.27734375
1771540344.8610938,36.62109375,5.37109375,44.921875,23.4375,-9.765625
1771540344.863125,34.1796875,26.3671875,148.92578125,38.57421875,5.37109375
1771540344.8670313,33.203125,26.85546875,247.0703125,40.52734375,63.4765625
1771540344.8709376,42.96875,20.99609375,148.92578125,27.34375,44.43359375
1771540344.8748438,42.48046875,27.34375,37.59765625,26.3671875,-5.859375
1771540344.87875,36.62109375,29.296875,103.515625,33.203125,19.04296875
1771540344.8826563,40.0390625,18.06640625,109.86328125,33.203125,40.0390625
1771540344.8865626,31.25,-3.90625,-124.51171875,34.66796875,-6.34765625
1771540344.8904688,10.7421875,-4.8828125,-257.8125,19.04296875,-50.78125
1771540344.894375,1.953125,13.671875,62.98828125,17.08984375,-9.765625
1771540344.8982813,20.99609375,9.765625,209.47265625,41.015625,28.3203125
1771540344.9021876,35.15625,1.953125,193.359375,49.31640625,76.66015625
1771540344.9060938,27.83203125,5.859375,152.34375,43.9453125,31.25
1771540344.908125,21.97265625,15.13671875,131.8359375,37.109375,19.04296875
1771540344.9120312,35.15625,17.08984375,125.0,34.1796875,60.546875
1771540344.9159374,43.9453125,19.04296875,86.9140625,53.7109375,17.08984375
1771540344.9198437,28.3203125,22.94921875,131.34765625,36.1328125,22.94921875
1771540344.92375,22.94921875,20.5078125,117.1875,20.99609375,41.50390625
1771540344.9276562,34.1796875,12.20703125,-51.26953125,40.0390625,-0.9765625
1771540344.9315624,40.0390625,9.765625,-145.99609375,39.0625,10.7421875
1771540344.9354687,45.41015625,20.5078125,85.9375,40.52734375,39.55078125
1771540344.939375,37.109375,2.44140625,104.00390625,29.296875,21.484375
1771540344.9432812,27.83203125,-3.90625,-34.66796875,26.3671875,19.04296875
1771540344.9471874,31.25,22.4609375,64.94140625,29.78515625,45.8984375
1771540344.9510937,29.78515625,34.1796875,205.078125,27.83203125,7.8125
1771540344.967125,27.83203125,23.92578125,157.71484375,24.90234375,27.83203125
1771540344.9710312,29.296875,11.23046875,43.45703125,18.5546875,11.23046875
1771540344.9749374,32.71484375,12.6953125,99.609375,25.390625,12.20703125
1771540344.9788437,32.2265625,21.97265625,233.88671875,31.25,82.51953125
1771540344.98275,27.34375,21.97265625,148.92578125,21.484375,58.10546875
1771540344.9866562,27.34375,12.6953125,-26.3671875,24.90234375,48.828125
1771540344.9905624,38.57421875,23.92578125,-3.90625,32.2265625,33.69140625
1771540344.9944687,48.33984375,42.48046875,172.8515625,21.484375,32.71484375
1771540344.998375,41.015625,35.64453125,130.37109375,9.765625,19.53125
1771540345.0022812,33.203125,23.92578125,-155.2734375,1.46484375,0.48828125
1771540345.0061874,29.78515625,28.3203125,-120.60546875,0.9765625,46.875
1771540345.0100937,27.83203125,29.296875,123.046875,28.3203125,38.0859375
1771540345.012125,19.04296875,23.4375,130.859375,28.3203125,33.69140625
1771540345.0160313,11.23046875,15.13671875,-35.15625,16.11328125,13.18359375
1771540345.0199375,20.5078125,19.53125,70.3125,34.66796875,14.6484375
1771540345.0238438,26.3671875,32.2265625,226.07421875,22.4609375,46.38671875
1771540345.02775,33.203125,30.2734375,136.23046875,12.20703125,35.15625
1771540345.0316563,35.64453125,17.08984375,-14.16015625,17.08984375,59.08203125
1771540345.0355625,35.64453125,15.625,-11.71875,21.97265625,58.59375
1771540345.0394688,37.59765625,35.15625,180.6640625,26.3671875,69.82421875
1771540345.043375,41.9921875,27.83203125,135.25390625,24.90234375,111.328125
1771540345.0472813,37.59765625,6.34765625,-105.46875,22.4609375,72.265625
1771540345.0511875,25.87890625,16.6015625,29.78515625,17.08984375,46.38671875
1771540345.0550938,45.41015625,27.34375,149.4140625,36.1328125,26.3671875
1771540345.058125,55.6640625,21.484375,165.52734375,38.57421875,55.17578125
1771540345.0620313,38.0859375,12.20703125,63.4765625,25.87890625,32.71484375
1771540345.0659375,21.484375,30.76171875,59.5703125,15.13671875,14.6484375
1771540345.0698438,22.4609375,37.59765625,170.41015625,12.20703125,52.734375
1771540345.07375,43.45703125,25.87890625,58.10546875,22.94921875,19.04296875
1771540345.0776563,41.9921875,21.97265625,-16.11328125,10.7421875,13.18359375
1771540345.0815625,24.4140625,10.25390625,6.8359375,1.46484375,53.7109375
1771540345.0854688,38.57421875,15.625,54.6875,29.78515625,29.78515625
1771540345.089375,50.29296875,22.94921875,-40.0390625,28.3203125,35.15625
1771540345.0932813,50.29296875,28.3203125,4.39453125,20.5078125,90.33203125
1771540345.0971875,44.43359375,39.55078125,191.89453125,20.5078125,43.45703125
1771540345.1010938,33.203125,24.4140625,95.703125,11.71875,11.23046875
1771540345.102125,40.52734375,15.625,101.07421875,27.34375,41.50390625
1771540345.1060312,66.40625,30.76171875,215.33203125,60.546875,52.24609375
1771540345.1099374,44.43359375,31.73828125,228.515625,53.22265625,81.0546875
1771540345.1138437,-4.8828125,5.37109375,43.9453125,9.27734375,125.9765625
1771540345.11775,0.0,-2.44140625,-45.41015625,3.90625,81.54296875
1771540345.1216562,9.27734375,11.23046875,32.2265625,13.671875,5.37109375
1771540345.1255624,-0.48828125,18.5546875,33.203125,14.16015625,-29.78515625
1771540345.1294687,-17.08984375,-27.83203125,-37.59765625,2.9296875,12.6953125
1771540345.133375,-33.69140625,-76.171875,-171.875,-17.08984375,-10.25390625
1771540345.1372812,-52.734375,-44.43359375,61.03515625,-26.3671875,-29.78515625
1771540345.1411874,-93.26171875,-37.109375,250.0,-57.12890625,57.6171875
1771540345.1450937,-121.09375,-41.9921875,62.98828125,-99.12109375,48.828125
1771540345.147125,-128.41796875,-37.109375,-19.53125,-119.140625,6.34765625
1771540345.1510313,-109.375,-37.59765625,110.3515625,-97.16796875,42.48046875
1771540345.1549375,-82.51953125,-28.3203125,109.86328125,-67.87109375,34.1796875
1771540345.1588438,-66.89453125,-16.11328125,-32.71484375,-56.15234375,-6.8359375
1771540345.16275,-58.10546875,-13.18359375,-57.12890625,-40.0390625,-3.41796875
1771540345.1666563,-47.36328125,-30.76171875,-64.94140625,-28.3203125,3.41796875
1771540345.1705625,-18.5546875,-24.4140625,-25.390625,8.7890625,60.05859375
1771540345.1744688,-8.30078125,-10.7421875,-178.22265625,27.83203125,40.52734375
1771540345.178375,-14.6484375,2.9296875,-284.66796875,7.32421875,0.0
1771540345.1822813,0.9765625,32.2265625,81.54296875,22.4609375,36.62109375
1771540345.1861875,-8.7890625,6.8359375,141.6015625,13.18359375,15.625
1771540345.1900938,-23.92578125,-26.85546875,-19.53125,-4.8828125,-62.98828125
1771540345.192125,7.8125,8.30078125,26.3671875,27.83203125,-39.0625
1771540345.1960313,-5.859375,0.9765625,140.13671875,21.484375,56.15234375
1771540345.1999376,-15.625,-20.99609375,60.546875,6.34765625,80.56640625
1771540345.2038438,15.625,15.13671875,-53.7109375,33.69140625,20.5078125
1771540345.20775,14.16015625,21.97265625,-50.78125,27.34375,-13.671875
1771540345.2116563,1.953125,-4.8828125,-129.39453125,15.625,8.7890625
1771540345.2155626,-3.90625,-22.4609375,-275.390625,7.8125,-11.71875
1771540345.2194688,-1.46484375,-22.94921875,-442.87109375,-17.578125,-27.83203125
1771540345.223375,1.46484375,-7.32421875,-323.2421875,-4.8828125,14.6484375
1771540345.2272813,7.8125,4.39453125,-132.32421875,10.7421875,7.32421875
1771540345.2311876,20.01953125,0.0,-204.58984375,7.32421875,35.64453125
1771540345.2350938,33.203125,12.6953125,-210.44921875,29.296875,71.77734375
1771540345.237125,28.3203125,23.4375,-90.33203125,30.76171875,74.21875
1771540345.2410312,20.5078125,5.37109375,-162.59765625,38.0859375,42.48046875
1771540345.2449374,35.64453125,-6.34765625,-245.60546875,51.26953125,-11.23046875
1771540345.2488437,46.875,8.7890625,-202.1484375,49.8046875,-8.7890625
1771540345.25275,47.8515625,21.97265625,-118.1640625,48.33984375,54.19921875
1771540345.2566562,37.59765625,-4.39453125,-230.46875,37.109375,46.875
1771540345.2605624,66.40625,-5.859375,-433.10546875,64.94140625,37.109375
1771540345.2644687,93.26171875,32.71484375,-336.9140625,79.1015625,47.8515625
1771540345.268375,50.29296875,33.203125,-29.296875,40.0390625,42.96875
1771540345.2722812,19.53125,4.8828125,-55.6640625,27.83203125,65.91796875
1771540345.2761874,28.80859375,-8.7890625,-152.83203125,39.55078125,78.61328125
1771540345.2800937,42.48046875,8.7890625,-63.4765625,51.7578125,61.5234375
1771540345.283125,41.50390625,36.1328125,26.85546875,46.38671875,41.015625
1771540345.2870312,19.53125,30.76171875,-90.33203125,22.4609375,25.390625
1771540345.2909374,3.90625,10.25390625,-227.05078125,-2.44140625,28.80859375
1771540345.2948437,1.46484375,3.90625,-50.29296875,-2.44140625,57.6171875
1771540345.29875,33.69140625,20.01953125,82.51953125,38.0859375,55.17578125
1771540345.3026562,60.05859375,18.5546875,-111.81640625,55.6640625,16.11328125
1771540345.3065624,31.25,-12.20703125,-292.48046875,14.6484375,60.546875
1771540345.3104687,2.44140625,-15.13671875,-48.828125,-12.6953125,88.8671875
1771540345.314375,7.8125,-14.6484375,119.62890625,1.46484375,40.0390625
1771540345.3182812,27.83203125,20.01953125,7.8125,36.62109375,-13.18359375
1771540345.3221874,12.6953125,41.50390625,-46.38671875,19.04296875,-24.90234375
1771540345.3260937,1.46484375,41.015625,65.91796875,4.8828125,25.390625
1771540345.343125,-7.8125,9.27734375,58.10546875,-8.30078125,27.34375
1771540345.3470314,9.27734375,-16.11328125,-130.859375,-5.37109375,-15.625
1771540345.3509376,23.92578125,3.90625,-94.23828125,14.6484375,-4.8828125
1771540345.3548439,7.8125,11.23046875,83.49609375,3.90625,33.69140625
1771540345.35875,17.578125,18.06640625,123.046875,23.92578125,48.828125
1771540345.3626564,25.87890625,7.32421875,-13.671875,36.1328125,14.6484375
1771540345.3665626,13.18359375,9.27734375,-115.72265625,30.2734375,-18.06640625
1771540345.3704689,6.8359375,27.34375,12.20703125,18.5546875,0.0
1771540345.374375,21.97265625,10.7421875,138.18359375,13.671875,44.921875
1771540345.3782814,31.25,-9.765625,-48.828125,18.5546875,44.921875
1771540345.3821876,26.85546875,16.6015625,-20.5078125,31.25,46.875
1771540345.3860939,36.1328125,38.57421875,155.2734375,41.50390625,27.34375
1771540345.387125,37.59765625,12.6953125,73.73046875,37.109375,1.953125
1771540345.3910313,45.8984375,17.08984375,77.1484375,46.875,16.11328125
1771540345.3949375,44.921875,38.0859375,163.57421875,44.43359375,33.69140625
1771540345.3988438,20.5078125,27.83203125,91.30859375,18.5546875,39.0625
1771540345.40275,18.5546875,25.87890625,17.578125,8.30078125,63.4765625
1771540345.4066563,27.83203125,21.97265625,-20.01953125,15.13671875,67.87109375
1771540345.4105625,36.62109375,20.99609375,25.87890625,28.3203125,21.484375
1771540345.4144688,49.8046875,35.15625,125.0,35.15625,-15.625
1771540345.418375,41.9921875,19.04296875,25.87890625,36.1328125,-2.44140625
1771540345.4222813,22.94921875,-12.20703125,-97.16796875,19.04296875,26.3671875
1771540345.4261875,41.50390625,14.6484375,161.1328125,41.015625,31.25
1771540345.4300938,51.26953125,43.45703125,307.12890625,62.01171875,79.1015625
1771540345.432125,23.4375,29.78515625,154.296875,35.64453125,78.125
1771540345.4360313,29.296875,21.97265625,104.00390625,31.25,-2.9296875
1771540345.4399376,56.15234375,33.69140625,197.75390625,44.921875,-11.71875
1771540345.4438438,57.12890625,46.875,212.40234375,47.8515625,29.78515625
1771540345.44775,39.0625,49.8046875,109.375,34.66796875,50.29296875
1771540345.4516563,6.8359375,10.7421875,31.73828125,0.9765625,64.94140625
1771540345.4555626,-6.8359375,-7.32421875,3.90625,-4.8828125,16.11328125
1771540345.4594688,3.41796875,10.7421875,104.00390625,9.27734375,10.7421875
1771540345.463375,10.7421875,-0.9765625,-65.91796875,19.53125,47.8515625
1771540345.4672813,11.71875,2.44140625,-164.0625,17.578125,55.17578125
1771540345.4711876,17.08984375,24.4140625,177.734375,20.99609375,48.828125
1771540345.4750938,34.66796875,22.4609375,199.70703125,38.0859375,47.36328125
1771540345.478125,49.8046875,29.78515625,120.1171875,46.875,44.921875
1771540345.4820313,43.9453125,19.53125,161.62109375,39.0625,39.55078125
1771540345.4859376,37.109375,6.34765625,218.75,33.69140625,57.12890625
1771540345.4898438,48.828125,13.671875,190.91796875,46.38671875,74.21875
1771540345.49375,53.22265625,16.6015625,125.9765625,51.7578125,62.01171875
1771540345.4976563,40.0390625,12.20703125,11.71875,42.48046875,24.4140625
1771540345.5015626,37.59765625,23.92578125,30.2734375,43.9453125,13.18359375
1771540345.5054688,45.8984375,34.66796875,94.23828125,45.8984375,16.11328125
1771540345.509375,37.59765625,8.7890625,-187.98828125,29.296875,2.9296875
1771540345.5132813,23.92578125,15.13671875,-119.140625,19.04296875,2.44140625
1771540345.5171876,23.4375,28.80859375,220.21484375,36.1328125,28.3203125
1771540345.5210938,21.484375,12.6953125,191.40625,29.296875,11.23046875
1771540345.523125,17.578125,9.765625,167.96875,4.8828125,-0.9765625
1771540345.5270312,22.4609375,1.953125,192.87109375,4.8828125,9.765625
1771540345.5309374,15.625,-3.41796875,166.015625,5.37109375,27.83203125
1771540345.5348437,12.20703125,10.25390625,154.78515625,10.25390625,27.34375
1771540345.53875,16.11328125,22.4609375,183.59375,10.7421875,17.578125
1771540345.5426562,14.6484375,20.99609375,116.2109375,9.27734375,15.13671875
1771540345.5465624,24.4140625,26.3671875,49.8046875,17.578125,9.765625
1771540345.5504687,18.5546875,23.4375,-37.109375,17.08984375,32.71484375
1771540345.554375,8.7890625,14.16015625,69.3359375,9.27734375,105.95703125
1771540345.5582812,13.671875,16.6015625,279.296875,9.27734375,43.45703125
1771540345.5621874,22.94921875,14.16015625,132.32421875,23.4375,18.06640625
1771540345.5660937,38.0859375,15.625,107.421875,37.109375,86.42578125
1771540345.567125,61.03515625,28.80859375,265.13671875,45.8984375,62.98828125
1771540345.5710313,83.49609375,46.875,333.49609375,60.546875,51.26953125
1771540345.5749376,69.82421875,31.73828125,172.8515625,53.7109375,45.41015625
1771540345.5788438,38.57421875,16.6015625,64.94140625,37.59765625,-14.6484375
1771540345.58275,35.64453125,17.08984375,201.66015625,34.1796875,5.859375
1771540345.5866563,39.55078125,10.25390625,218.26171875,38.0859375,76.66015625
1771540345.5905626,36.62109375,10.7421875,4.39453125,36.62109375,26.85546875
1771540345.5944688,36.1328125,16.6015625,-160.64453125,29.296875,-22.4609375
1771540345.598375,28.3203125,25.87890625,123.046875,28.80859375,26.85546875
1771540345.6022813,27.34375,28.3203125,323.73046875,40.52734375,45.8984375
1771540345.6061876,32.2265625,20.01953125,175.29296875,37.59765625,14.16015625
1771540345.6100938,29.296875,16.11328125,97.16796875,25.390625,-17.578125
1771540345.613125,32.2265625,24.90234375,166.50390625,20.5078125,39.0625
1771540345.6170313,63.96484375,45.41015625,253.41796875,59.5703125,97.65625
1771540345.6209376,56.640625,33.203125,120.1171875,70.3125,39.55078125
1771540345.6248438,11.71875,10.25390625,36.62109375,32.71484375,39.0625
1771540345.62875,11.71875,22.94921875,194.3359375,26.3671875,83.49609375
1771540345.6326563,21.484375,23.92578125,144.53125,29.78515625,50.78125
1771540345.6365626,24.4140625,5.859375,-76.66015625,29.78515625,32.2265625
1771540345.6404688,28.3203125,14.16015625,-42.96875,30.2734375,92.28515625
1771540345.644375,37.59765625,40.52734375,181.640625,34.66796875,49.31640625
1771540345.6482813,34.1796875,39.0625,211.9140625,30.2734375,60.05859375
1771540345.6521876,21.97265625,18.5546875,148.92578125,19.53125,61.5234375
1771540345.6560938,23.92578125,20.99609375,155.2734375,15.13671875,52.734375
1771540345.673125,34.1796875,31.73828125,173.33984375,23.92578125,84.9609375
1771540345.6770313,32.71484375,10.25390625,83.984375,25.87890625,13.18359375
1771540345.6809375,36.62109375,-2.44140625,34.66796875,26.3671875,-11.71875
1771540345.6848438,45.41015625,17.578125,58.10546875,43.45703125,-6.8359375
1771540345.68875,25.87890625,21.97265625,56.640625,30.76171875,-21.97265625
1771540345.6926563,11.71875,12.20703125,-29.78515625,9.765625,-17.08984375
1771540345.6965625,9.27734375,3.41796875,-229.00390625,-4.39453125,16.6015625
1771540345.7004688,-1.46484375,12.6953125,-70.3125,-9.765625,34.66796875
1771540345.704375,-6.8359375,12.6953125,179.6875,-10.7421875,60.546875
1771540345.7082813,7.8125,0.0,122.0703125,4.8828125,98.6328125
1771540345.7121875,16.11328125,9.765625,129.39453125,16.6015625,81.0546875
1771540345.7160938,14.16015625,19.04296875,184.08203125,12.20703125,56.640625
1771540345.773125,20.5078125,20.5078125,110.3515625,16.11328125,37.109375
1771540345.7770312,27.34375,20.5078125,23.92578125,23.4375,30.2734375
1771540345.7809374,33.203125,24.90234375,83.49609375,33.69140625,53.7109375
1771540345.7848437,44.921875,35.64453125,161.62109375,39.55078125,58.10546875
1771540345.78875,47.36328125,35.15625,129.39453125,38.57421875,73.73046875
1771540345.7926562,42.48046875,21.97265625,-17.08984375,35.15625,49.31640625
1771540345.7965624,38.0859375,16.6015625,-69.82421875,37.109375,30.2734375
1771540345.8004687,50.78125,21.484375,39.55078125,44.43359375,16.6015625
1771540345.804375,48.828125,37.109375,130.859375,44.921875,-13.18359375
1771540345.8082812,27.34375,20.01953125,-121.09375,43.45703125,22.4609375
1771540345.8121874,35.64453125,0.9765625,-149.4140625,57.6171875,11.23046875
1771540345.8160937,39.0625,32.71484375,198.73046875,66.89453125,-5.859375
1771540345.775125,25.87890625,26.85546875,149.90234375,49.8046875,-19.04296875
1771540345.7790313,31.25,-3.41796875,-47.8515625,47.8515625,-8.7890625
1771540345.7829375,50.29296875,21.97265625,96.19140625,58.59375,57.12890625
1771540345.7868438,41.015625,46.875,237.3046875,38.57421875,41.50390625
1771540345.79075,27.34375,42.96875,157.2265625,18.5546875,39.55078125
1771540345.7946563,20.99609375,34.1796875,-3.41796875,20.5078125,37.109375
1771540345.7985625,20.01953125,31.73828125,-2.44140625,25.390625,41.015625
1771540345.8024688,29.296875,30.2734375,79.1015625,30.2734375,0.9765625
1771540345.806375,33.69140625,21.97265625,51.26953125,35.64453125,16.6015625
1771540345.8102813,32.71484375,6.34765625,-141.11328125,25.390625,65.4296875
1771540345.8141875,27.34375,20.5078125,-52.734375,13.671875,8.30078125
1771540345.8180938,41.015625,40.52734375,206.0546875,23.4375,-7.32421875
1771540345.823125,48.33984375,34.66796875,161.62109375,36.62109375,-29.78515625
1771540345.8270311,31.73828125,27.83203125,187.01171875,37.59765625,12.20703125
1771540345.8309374,28.80859375,28.3203125,186.03515625,30.76171875,26.85546875
1771540345.8348436,41.50390625,31.73828125,145.5078125,37.59765625,0.0
1771540345.83875,44.921875,31.73828125,171.38671875,40.0390625,35.15625
1771540345.8426561,33.203125,17.08984375,108.88671875,35.64453125,43.45703125
1771540345.8465624,19.04296875,4.8828125,48.828125,29.78515625,14.16015625
1771540345.8504686,21.484375,22.4609375,136.71875,24.4140625,5.37109375
1771540345.854375,26.3671875,25.390625,-6.8359375,21.97265625,44.921875
1771540345.8582811,16.6015625,23.4375,-58.59375,14.6484375,34.1796875
1771540345.8621874,21.97265625,47.36328125,192.87109375,17.08984375,89.35546875
1771540345.8660936,19.04296875,44.43359375,135.7421875,20.5078125,81.54296875
1771540345.865125,10.25390625,28.80859375,24.90234375,14.16015625,-17.578125
1771540345.8690312,15.625,38.0859375,174.31640625,16.11328125,7.8125
1771540345.8729374,19.04296875,35.64453125,249.51171875,13.671875,60.05859375
1771540345.8768437,21.484375,15.13671875,83.49609375,2.9296875,46.875
1771540345.88075,25.390625,15.13671875,45.8984375,3.41796875,35.15625
1771540345.8846562,33.69140625,25.390625,99.609375,19.53125,42.48046875
1771540345.8885624,33.69140625,33.69140625,152.34375,25.390625,47.8515625
1771540345.8924687,36.1328125,28.80859375,60.546875,16.11328125,41.015625
1771540345.896375,29.296875,18.06640625,-145.5078125,19.53125,2.44140625
1771540345.9002812,20.99609375,39.55078125,146.97265625,27.34375,48.828125
1771540345.9041874,30.76171875,39.0625,309.5703125,29.296875,78.125
1771540345.9080937,30.76171875,16.6015625,99.12109375,26.3671875,25.390625
1771540345.920125,35.64453125,21.97265625,53.7109375,22.4609375,30.2734375
1771540345.9240313,51.26953125,34.66796875,179.19921875,42.48046875,15.13671875
1771540345.9279375,45.8984375,34.1796875,255.37109375,43.9453125,12.6953125
1771540345.9318438,32.71484375,39.55078125,104.4921875,28.80859375,51.26953125
1771540345.93575,30.76171875,51.7578125,80.078125,31.25,99.12109375
1771540345.9396563,26.3671875,45.41015625,105.46875,28.80859375,63.96484375
1771540345.9435625,24.4140625,30.76171875,91.796875,25.390625,-18.06640625
1771540345.9474688,31.73828125,20.99609375,13.671875,20.01953125,65.4296875
1771540345.951375,47.8515625,38.57421875,-37.59765625,32.71484375,125.0
1771540345.9552813,45.41015625,53.7109375,220.21484375,35.15625,92.7734375
1771540345.9591875,26.85546875,30.76171875,229.4921875,15.625,85.44921875
1771540345.9630938,25.87890625,24.4140625,128.90625,20.5078125,52.734375
1771540345.957125,19.04296875,28.3203125,83.0078125,17.08984375,2.9296875
1771540345.9610312,20.99609375,17.578125,135.7421875,14.6484375,36.1328125
1771540345.9649374,49.8046875,28.80859375,94.7265625,43.45703125,58.59375
1771540345.9688437,53.7109375,46.875,20.99609375,50.29296875,48.828125
1771540345.97275,28.80859375,45.8984375,90.33203125,33.203125,39.0625
1771540345.9766562,24.4140625,32.71484375,28.3203125,30.2734375,8.30078125
1771540345.9805624,30.76171875,14.16015625,-18.5546875,34.1796875,47.36328125
1771540345.9844687,24.4140625,5.37109375,-38.57421875,25.87890625,102.05078125
1771540345.988375,27.83203125,30.76171875,77.1484375,26.3671875,44.921875
1771540345.9922812,28.3203125,41.50390625,131.8359375,23.4375,-10.25390625
1771540345.9961874,24.90234375,35.64453125,79.58984375,26.85546875,1.46484375
1771540346.0000937,29.78515625,35.15625,145.99609375,31.73828125,46.875
1771540346.013125,30.2734375,34.66796875,189.94140625,17.08984375,52.24609375
1771540346.0170312,22.4609375,33.203125,127.9296875,9.765625,57.6171875
1771540346.0209374,9.765625,29.78515625,94.23828125,18.5546875,88.8671875
1771540346.0248437,10.7421875,26.3671875,125.0,24.4140625,63.4765625
1771540346.02875,14.6484375,22.94921875,161.62109375,26.3671875,51.7578125
1771540346.0326562,20.01953125,16.11328125,47.36328125,35.15625,46.38671875
1771540346.0365624,26.3671875,9.27734375,-199.21875,27.34375,11.71875
1771540346.0404687,29.296875,19.04296875,-186.03515625,20.99609375,25.87890625
1771540346.044375,32.2265625,40.52734375,131.8359375,30.76171875,9.765625
1771540346.0482812,25.390625,28.80859375,148.4375,28.3203125,0.48828125
1771540346.0521874,19.53125,19.04296875,39.55078125,24.90234375,14.16015625
1771540346.0560937,21.97265625,34.66796875,96.19140625,36.1328125,-29.78515625
1771540346.032125,25.87890625,38.57421875,199.21875,32.71484375,8.7890625
1771540346.0360312,26.85546875,20.01953125,102.05078125,29.78515625,32.2265625
1771540346.0399375,18.5546875,19.04296875,-27.34375,36.62109375,2.44140625
1771540346.0438437,19.53125,33.69140625,100.09765625,34.66796875,41.9921875
1771540346.04775,27.34375,23.4375,139.6484375,33.69140625,-5.859375
1771540346.0516562,29.78515625,12.20703125,-15.625,34.1796875,-13.18359375
1771540346.0555625,32.71484375,17.578125,-208.0078125,28.3203125,36.1328125
1771540346.0594687,38.0859375,29.78515625,-77.63671875,23.4375,3.90625
1771540346.063375,45.8984375,43.9453125,196.2890625,29.78515625,35.15625
1771540346.0672812,43.45703125,41.015625,102.5390625,29.78515625,41.50390625
1771540346.0711875,37.59765625,35.64453125,-7.8125,23.4375,44.43359375
1771540346.0750937,22.4609375,49.31640625,152.83203125,23.4375,80.078125
1771540346.110125,21.484375,51.7578125,210.9375,24.4140625,92.7734375
1771540346.1140313,29.296875,48.33984375,150.390625,36.1328125,65.4296875
1771540346.1179376,20.01953125,40.52734375,58.10546875,29.78515625,-4.39453125
1771540346.1218438,15.13671875,34.66796875,46.38671875,28.80859375,-15.625
1771540346.12575,25.87890625,30.76171875,103.02734375,40.52734375,-10.25390625
1771540346.1296563,40.52734375,13.18359375,-97.16796875,35.15625,-45.8984375
1771540346.1335626,38.57421875,20.5078125,-126.953125,33.203125,-2.44140625
1771540346.1374688,32.2265625,37.109375,83.0078125,31.73828125,-6.8359375
1771540346.141375,37.59765625,31.73828125,123.53515625,40.0390625,12.6953125
1771540346.1452813,39.55078125,33.69140625,35.64453125,42.48046875,18.5546875
1771540346.1491876,34.66796875,38.0859375,41.015625,30.2734375,11.71875
1771540346.1530938,24.90234375,39.55078125,166.50390625,22.94921875,78.61328125
1771540346.139125,24.4140625,32.71484375,91.796875,21.97265625,67.87109375
1771540346.1430314,34.1796875,32.2265625,12.20703125,38.57421875,30.76171875
1771540346.1469376,31.25,39.0625,142.578125,38.0859375,39.55078125
1771540346.1508439,34.1796875,26.3671875,167.96875,26.3671875,44.43359375
1771540346.15475,40.52734375,9.27734375,36.62109375,28.80859375,35.15625
1771540346.1586564,36.1328125,12.6953125,-25.390625,35.64453125,38.57421875
1771540346.1625626,49.31640625,22.4609375,56.640625,41.9921875,20.99609375
1771540346.1664689,47.36328125,14.16015625,179.6875,39.55078125,53.22265625
1771540346.170375,27.34375,15.625,7.8125,28.3203125,52.24609375
1771540346.1742814,30.2734375,39.55078125,-159.66796875,11.23046875,35.15625
1771540346.1781876,33.69140625,61.03515625,83.984375,20.99609375,9.765625
1771540346.1820939,20.01953125,64.94140625,250.9765625,32.71484375,61.5234375
1771540346.196125,4.39453125,44.43359375,19.04296875,20.01953125,93.26171875
1771540346.2000313,3.90625,33.69140625,-11.23046875,4.8828125,52.734375
1771540346.2039375,11.23046875,38.0859375,208.984375,6.8359375,56.15234375
1771540346.2078438,14.16015625,34.66796875,210.9375,16.6015625,58.59375
1771540346.21175,15.625,26.85546875,89.84375,9.27734375,69.3359375
1771540346.2156563,19.04296875,19.53125,-32.2265625,11.71875,34.66796875
1771540346.2195625,27.83203125,25.87890625,15.13671875,24.90234375,3.41796875
1771540346.2234688,28.80859375,36.1328125,177.734375,36.1328125,11.71875
1771540346.227375,15.625,18.06640625,-55.6640625,30.2734375,27.83203125
1771540346.2312813,6.8359375,2.9296875,-171.38671875,27.83203125,34.1796875
1771540346.2351875,17.578125,19.04296875,195.3125,34.1796875,54.19921875
1771540346.2390938,33.203125,28.3203125,228.02734375,23.92578125,61.03515625
1771540346.258125,30.2734375,40.52734375,118.65234375,24.4140625,62.5
1771540346.2620313,22.94921875,39.55078125,113.28125,26.85546875,54.19921875
1771540346.2659376,20.99609375,21.97265625,89.35546875,23.4375,29.296875
1771540346.2698438,28.80859375,28.3203125,86.9140625,28.3203125,73.2421875
1771540346.27375,29.78515625,28.3203125,45.41015625,26.3671875,67.3828125
1771540346.2776563,26.85546875,23.92578125,-32.2265625,27.34375,-2.44140625
1771540346.2815626,39.0625,40.0390625,11.71875,37.109375,1.953125
1771540346.2854688,43.9453125,38.57421875,68.84765625,35.15625,54.19921875
1771540346.289375,38.57421875,10.7421875,-62.5,20.5078125,34.66796875
1771540346.2932813,33.203125,5.37109375,17.578125,20.01953125,-26.85546875
1771540346.2971876,37.109375,25.87890625,170.8984375,31.73828125,16.6015625
1771540346.3010938,35.15625,42.48046875,146.484375,34.1796875,52.24609375
1771540346.282125,20.99609375,47.8515625,158.203125,38.0859375,35.64453125
1771540346.2860312,18.06640625,39.0625,185.05859375,32.71484375,57.12890625
1771540346.2899375,27.83203125,29.296875,112.3046875,34.1796875,51.7578125
1771540346.2938437,31.25,31.25,77.63671875,38.0859375,19.53125
1771540346.29775,25.390625,33.203125,98.14453125,32.71484375,32.71484375
1771540346.3016562,13.18359375,25.87890625,-15.625,22.4609375,-16.11328125
1771540346.3055625,9.765625,24.90234375,-63.96484375,22.94921875,-26.3671875
1771540346.3094687,27.34375,25.390625,-134.27734375,37.59765625,-7.32421875
1771540346.313375,40.0390625,37.109375,-92.28515625,40.52734375,40.0390625
1771540346.3172812,40.0390625,42.48046875,225.5859375,46.38671875,86.42578125
1771540346.3211875,26.3671875,27.34375,163.0859375,28.80859375,27.83203125
1771540346.3250937,28.3203125,37.109375,58.10546875,11.71875,19.53125
1771540346.325125,29.78515625,40.0390625,160.64453125,19.04296875,27.34375
1771540346.3290312,16.6015625,31.73828125,190.91796875,24.90234375,12.20703125
1771540346.3329375,17.08984375,28.3203125,60.05859375,31.73828125,20.5078125
1771540346.3368437,20.5078125,30.76171875,-7.8125,27.83203125,18.06640625
1771540346.34075,26.3671875,32.71484375,103.515625,23.4375,25.87890625
1771540346.3446562,40.52734375,30.76171875,82.03125,32.71484375,38.57421875
1771540346.3485625,32.71484375,19.53125,-22.94921875,27.34375,62.98828125
1771540346.3524687,13.18359375,0.0,-266.6015625,12.20703125,39.0625
1771540346.356375,11.23046875,20.5078125,-91.796875,11.71875,41.015625
1771540346.3602812,21.484375,33.203125,208.49609375,22.94921875,14.6484375
1771540346.3641875,31.25,18.06640625,92.28515625,25.87890625,-19.04296875
1771540346.3680937,23.92578125,20.5078125,61.5234375,30.2734375,44.921875
1771540346.364125,21.97265625,31.25,121.09375,32.2265625,32.71484375
1771540346.3680313,32.2265625,23.4375,132.8125,36.1328125,-9.765625
1771540346.3719375,31.25,11.23046875,87.890625,39.0625,2.44140625
1771540346.3758438,26.3671875,16.11328125,19.53125,31.25,-9.765625
1771540346.37975,25.87890625,27.34375,71.77734375,27.83203125,34.66796875
1771540346.3836563,29.296875,32.71484375,45.8984375,35.64453125,22.4609375
1771540346.3875625,45.41015625,27.83203125,-145.5078125,33.203125,9.765625
1771540346.3914688,32.2265625,33.203125,-130.859375,14.16015625,63.4765625
1771540346.395375,13.671875,41.50390625,112.79296875,12.6953125,61.5234375
1771540346.3992813,30.76171875,39.0625,71.2890625,22.4609375,24.4140625
1771540346.4031875,33.203125,40.0390625,-26.85546875,24.4140625,-15.625
1771540346.4070938,24.4140625,39.55078125,88.37890625,20.99609375,19.53125
1771540346.408125,27.83203125,44.921875,149.4140625,26.85546875,58.10546875
1771540346.4120312,31.25,41.015625,73.73046875,28.3203125,30.2734375
1771540346.4159374,30.76171875,30.76171875,84.9609375,23.4375,54.19921875
1771540346.4198437,25.87890625,43.9453125,149.90234375,20.01953125,65.4296875
1771540346.42375,20.5078125,46.38671875,80.078125,16.6015625,19.53125
1771540346.4276562,24.90234375,31.73828125,-61.5234375,16.11328125,20.01953125
1771540346.4315624,26.3671875,19.04296875,-166.015625,6.34765625,49.8046875
1771540346.4354687,21.484375,15.13671875,45.41015625,19.04296875,54.6875
1771540346.439375,22.4609375,23.4375,172.8515625,33.203125,61.5234375
1771540346.4432812,26.85546875,39.55078125,92.28515625,31.25,107.91015625
1771540346.4471874,23.4375,47.36328125,93.75,24.4140625,55.17578125
1771540346.4510937,23.4375,45.8984375,83.0078125,10.7421875,10.25390625
1771540346.468125,21.97265625,43.9453125,24.4140625,13.671875,13.18359375
1771540346.4720314,26.85546875,43.45703125,-29.296875,16.11328125,41.50390625
1771540346.4759376,31.25,31.73828125,-21.484375,27.83203125,10.7421875
1771540346.4798439,33.69140625,27.34375,125.0,36.1328125,-20.01953125
1771540346.48375,34.1796875,30.2734375,163.0859375,30.76171875,35.15625
1771540346.4876564,27.83203125,24.4140625,-125.9765625,23.92578125,16.11328125
1771540346.4915626,36.62109375,33.69140625,-153.3203125,20.01953125,-4.39453125
1771540346.4954689,28.3203125,47.36328125,198.2421875,26.85546875,50.29296875
1771540346.499375,16.6015625,39.55078125,177.24609375,29.78515625,61.5234375
1771540346.5032814,19.53125,34.1796875,16.11328125,21.97265625,39.0625
1771540346.5071876,24.90234375,40.52734375,87.890625,24.90234375,67.87109375
1771540346.5110939,27.34375,42.96875,219.23828125,43.45703125,116.2109375
1771540346.528125,26.3671875,32.2265625,118.1640625,41.015625,54.19921875
1771540346.5320313,24.90234375,28.3203125,-27.83203125,21.97265625,-0.9765625
1771540346.5359375,32.2265625,33.203125,-23.92578125,20.99609375,21.484375
1771540346.5398438,42.96875,38.0859375,107.421875,26.85546875,36.62109375
1771540346.54375,38.57421875,31.25,75.1953125,32.71484375,16.6015625
1771540346.5476563,25.390625,13.18359375,-151.85546875,26.3671875,-32.71484375
1771540346.5515625,18.5546875,17.08984375,-73.73046875,22.4609375,20.01953125
1771540346.5554688,26.85546875,31.73828125,138.671875,28.80859375,45.8984375
1771540346.559375,39.0625,29.78515625,41.50390625,20.01953125,-14.16015625
1771540346.5632813,32.71484375,26.3671875,-140.13671875,7.8125,10.7421875
1771540346.5671875,13.671875,39.55078125,18.06640625,7.8125,41.015625
1771540346.5710938,19.53125,46.38671875,129.8828125,16.11328125,18.5546875
1771540346.557125,35.15625,42.48046875,116.2109375,24.90234375,57.6171875
1771540346.5610313,40.0390625,36.1328125,119.140625,34.1796875,65.91796875
1771540346.5649376,26.85546875,30.76171875,110.3515625,41.50390625,51.26953125
1771540346.5688438,38.0859375,25.87890625,124.51171875,56.640625,81.54296875
1771540346.57275,53.7109375,20.01953125,59.08203125,66.40625,52.24609375
1771540346.5766563,29.296875,23.92578125,-32.2265625,50.29296875,26.3671875
1771540346.5805626,16.11328125,44.921875,9.27734375,36.1328125,41.015625
1771540346.5844688,26.3671875,53.22265625,70.80078125,40.0390625,32.2265625
1771540346.588375,30.2734375,41.9921875,-11.23046875,35.64453125,35.15625
1771540346.5922813,33.69140625,47.36328125,33.203125,39.55078125,38.57421875
1771540346.5961876,30.2734375,56.15234375,148.4375,44.43359375,58.59375
1771540346.6000938,29.78515625,51.7578125,73.2421875,34.1796875,50.29296875
1771540346.602125,37.59765625,36.62109375,-193.359375,22.4609375,-20.5078125
1771540346.6060312,29.78515625,40.52734375,-83.49609375,16.11328125,20.99609375
1771540346.6099374,20.5078125,49.8046875,203.125,18.5546875,95.703125
1771540346.6138437,18.06640625,34.1796875,29.296875,14.16015625,36.1328125
1771540346.61775,23.92578125,32.71484375,-40.0390625,20.01953125,-19.04296875
1771540346.6216562,32.2265625,40.52734375,17.578125,21.484375,20.01953125
1771540346.6255624,37.59765625,38.57421875,58.10546875,14.6484375,54.19921875
1771540346.6294687,33.69140625,32.2265625,-11.23046875,10.7421875,63.96484375
1771540346.633375,27.83203125,24.4140625,-271.97265625,7.8125,36.1328125
1771540346.6372812,29.78515625,35.64453125,-95.703125,20.5078125,-11.23046875
1771540346.6411874,20.99609375,44.43359375,224.12109375,34.66796875,32.2265625
1771540346.6450937,16.6015625,30.76171875,98.6328125,31.25,31.25
1771540346.648125,15.13671875,29.78515625,46.38671875,33.69140625,16.6015625
1771540346.6520312,15.625,45.8984375,185.05859375,39.55078125,79.1015625
1771540346.6559374,20.01953125,43.9453125,150.390625,34.66796875,17.578125
1771540346.6598437,20.01953125,37.109375,53.22265625,25.87890625,-8.7890625
1771540346.66375,15.625,35.15625,49.8046875,19.53125,56.640625
1771540346.6676562,28.3203125,32.71484375,3.90625,27.34375,36.1328125
1771540346.6715624,41.015625,37.59765625,58.59375,39.55078125,-3.41796875
1771540346.6754687,27.83203125,29.78515625,-50.78125,36.1328125,-2.9296875
1771540346.679375,20.5078125,29.296875,-137.20703125,19.04296875,30.2734375
1771540346.6832812,21.97265625,39.0625,62.5,14.6484375,22.4609375
1771540346.6871874,19.53125,34.1796875,113.76953125,19.04296875,5.37109375
1771540346.6910937,20.99609375,33.203125,73.73046875,34.1796875,9.765625
1771540346.692125,24.4140625,39.0625,43.9453125,28.80859375,-30.2734375
1771540346.6960313,24.90234375,44.43359375,146.97265625,13.671875,35.64453125
1771540346.6999376,31.73828125,40.0390625,133.7890625,16.6015625,75.68359375
1771540346.7038438,41.015625,38.57421875,107.421875,40.52734375,45.41015625
1771540346.70775,39.55078125,41.50390625,137.6953125,38.0859375,51.7578125
1771540346.7116563,31.25,38.57421875,-4.39453125,16.6015625,15.13671875
1771540346.7155626,30.2734375,34.1796875,-85.44921875,24.90234375,1.953125
1771540346.7194688,44.921875,35.64453125,-80.078125,26.3671875,49.31640625
1771540346.723375,40.0390625,48.828125,65.91796875,21.484375,30.2734375
1771540346.7272813,24.90234375,44.921875,146.97265625,25.390625,24.90234375
1771540346.7311876,27.83203125,40.0390625,88.37890625,37.109375,56.15234375
1771540346.7350938,32.2265625,43.45703125,23.92578125,42.96875,24.90234375
1771540346.738125,32.2265625,50.29296875,81.0546875,45.41015625,26.3671875
1771540346.7420313,30.76171875,49.8046875,111.81640625,27.83203125,18.06640625
1771540346.7459376,29.296875,38.0859375,-47.36328125,18.06640625,-23.4375
1771540346.7498438,27.34375,39.55078125,28.80859375,23.4375,25.87890625
1771540346.75375,31.25,41.9921875,190.4296875,21.97265625,46.875
1771540346.7576563,26.85546875,37.109375,66.89453125,23.4375,37.59765625
1771540346.7615626,23.92578125,26.85546875,-196.2890625,13.18359375,-0.48828125
1771540346.7654688,26.85546875,32.2265625,-105.46875,9.27734375,10.25390625
1771540346.769375,33.69140625,44.43359375,252.44140625,25.87890625,64.453125
1771540346.7732813,29.78515625,35.64453125,198.73046875,26.3671875,53.7109375
1771540346.7771876,16.11328125,35.64453125,77.1484375,22.4609375,65.4296875
1771540346.7810938,19.53125,41.9921875,136.23046875,20.99609375,52.734375
1771540346.784125,24.90234375,43.45703125,209.9609375,26.85546875,35.64453125
1771540346.7880313,35.64453125,35.15625,141.6015625,23.4375,67.3828125
1771540346.7919376,32.2265625,29.296875,-0.48828125,20.01953125,66.40625
1771540346.7958438,18.5546875,40.52734375,105.95703125,32.2265625,87.890625
1771540346.79975,27.34375,42.48046875,174.31640625,38.0859375,50.78125
1771540346.8036563,38.0859375,31.25,45.8984375,39.0625,18.06640625
1771540346.8075626,36.1328125,19.53125,-259.765625,19.04296875,14.16015625
1771540346.8114688,33.203125,34.1796875,-117.67578125,9.765625,28.80859375
1771540346.815375,38.0859375,44.921875,211.42578125,27.34375,-10.25390625
1771540346.8192813,28.3203125,33.69140625,165.52734375,33.203125,-43.45703125
1771540346.8231876,26.3671875,30.2734375,143.5546875,32.2265625,11.23046875
1771540346.8270938,35.64453125,33.69140625,175.29296875,31.25,12.20703125
1771540346.843125,46.38671875,42.48046875,221.6796875,29.296875,0.0
1771540346.8470314,51.7578125,46.38671875,218.26171875,47.8515625,-1.46484375
1771540346.8509376,40.52734375,41.9921875,201.171875,45.41015625,4.39453125
1771540346.8548439,40.52734375,40.52734375,209.9609375,25.390625,11.23046875
1771540346.85875,41.9921875,48.828125,249.0234375,27.83203125,27.83203125
1771540346.8626564,40.0390625,40.0390625,135.25390625,18.06640625,47.8515625
1771540346.8665626,41.015625,28.3203125,94.23828125,-4.8828125,23.4375
1771540346.8704689,29.296875,36.1328125,387.6953125,-2.44140625,8.7890625
1771540346.874375,16.6015625,41.9921875,563.96484375,19.04296875,52.734375
1771540346.8782814,4.8828125,47.8515625,614.2578125,5.859375,57.6171875
1771540346.8821876,-10.7421875,52.24609375,703.125,-12.20703125,34.1796875
1771540346.8860939,-38.57421875,48.828125,729.98046875,-44.921875,45.41015625
1771540346.888125,-67.87109375,41.50390625,675.29296875,-65.4296875,35.64453125
1771540346.8920312,-72.265625,43.45703125,772.94921875,-69.3359375,50.78125
1771540346.8959374,-82.51953125,50.78125,965.33203125,-101.5625,66.89453125
1771540346.8998437,-101.07421875,49.31640625,-986.328125,-120.1171875,33.203125
1771540346.90375,-104.98046875,47.36328125,965.8203125,-130.37109375,17.08984375
1771540346.9076562,-104.4921875,46.875,919.43359375,-136.71875,24.4140625
1771540346.9115624,-109.375,48.828125,971.19140625,-139.16015625,16.6015625
1771540346.9154687,-124.51171875,58.10546875,-968.75,-155.76171875,-4.39453125
1771540346.919375,-150.87890625,52.734375,885.25390625,-172.36328125,20.99609375
1771540346.9232812,-142.08984375,46.38671875,518.06640625,-163.0859375,60.546875
1771540346.9271874,-128.41796875,65.91796875,671.875,-147.94921875,65.91796875
1771540346.9310937,-116.69921875,74.70703125,919.43359375,-136.23046875,66.40625
1771540346.932125,-107.421875,67.3828125,683.10546875,-121.58203125,56.15234375
1771540346.9360313,-109.375,66.89453125,577.63671875,-101.5625,65.4296875
1771540346.9399376,-85.9375,70.3125,606.4453125,-90.8203125,64.94140625
1771540346.9438438,-62.5,68.359375,518.5546875,-70.80078125,48.33984375
1771540346.94775,-50.78125,60.05859375,262.6953125,-60.05859375,28.80859375
1771540346.9516563,-38.57421875,60.546875,32.71484375,-46.875,30.2734375
1771540346.9555626,-24.90234375,64.453125,-11.23046875,-41.50390625,55.17578125
1771540346.9594688,-5.859375,66.89453125,92.28515625,-30.2734375,91.796875
1771540346.963375,13.18359375,45.8984375,-214.35546875,-6.34765625,52.24609375
1771540346.9672813,12.20703125,43.9453125,-476.5625,-0.9765625,24.4140625
1771540346.9711876,21.484375,60.05859375,-146.97265625,6.34765625,54.19921875
1771540346.9750938,47.36328125,44.921875,-84.47265625,26.3671875,50.78125
1771540346.978125,61.5234375,35.64453125,-304.19921875,43.9453125,5.859375
1771540346.9820313,55.6640625,40.0390625,-312.01171875,45.8984375,-0.9765625
1771540346.9859376,68.84765625,41.9921875,-116.69921875,71.77734375,-6.34765625
1771540346.9898438,87.890625,34.66796875,81.54296875,86.42578125,-1.46484375
1771540346.99375,95.703125,37.109375,424.8046875,98.14453125,-8.7890625
1771540346.9976563,75.1953125,31.73828125,854.00390625,86.42578125,-13.671875
1771540347.0015626,64.453125,18.5546875,-995.1171875,71.2890625,24.90234375
1771540347.0054688,101.5625,26.85546875,990.234375,110.83984375,16.11328125
1771540347.009375,108.88671875,39.0625,997.55859375,112.3046875,50.29296875
1771540347.0132813,101.5625,37.59765625,-1000.0,86.9140625,29.78515625
1771540347.0171876,92.7734375,34.1796875,999.51171875,81.54296875,-26.85546875
1771540347.0210938,89.84375,29.296875,999.51171875,78.61328125,27.83203125
1771540347.023125,98.6328125,25.87890625,999.51171875,82.03125,62.98828125
1771540347.0270312,84.47265625,46.38671875,999.51171875,95.21484375,47.8515625
1771540347.0309374,52.734375,49.8046875,999.51171875,80.078125,6.8359375
1771540347.0348437,54.19921875,41.015625,999.51171875,59.5703125,28.80859375
1771540347.03875,57.12890625,33.69140625,999.51171875,71.77734375,49.31640625
1771540347.0426562,51.7578125,29.296875,999.51171875,79.1015625,11.23046875
1771540347.0465624,65.91796875,37.59765625,999.51171875,66.89453125,32.71484375
1771540347.0504687,71.2890625,39.55078125,999.51171875,53.7109375,13.18359375
1771540347.054375,63.96484375,40.0390625,999.0234375,46.875,21.97265625
1771540347.0582812,75.1953125,53.22265625,996.09375,74.70703125,26.85546875
1771540347.0621874,86.42578125,56.640625,991.2109375,79.1015625,33.69140625
1771540347.0660937,67.3828125,57.6171875,917.48046875,64.94140625,104.00390625
1771540347.068125,43.9453125,70.3125,623.53515625,65.4296875,114.74609375
1771540347.0720313,56.640625,80.078125,-122.0703125,65.4296875,29.78515625
1771540347.0759375,64.453125,66.40625,-858.88671875,67.3828125,-13.18359375
1771540347.0798438,59.5703125,58.59375,-980.46875,68.84765625,-1.46484375
1771540347.08375,72.265625,73.73046875,-949.70703125,76.66015625,24.4140625
1771540347.0876563,56.640625,71.77734375,-974.12109375,79.1015625,8.30078125
1771540347.0915625,38.0859375,65.4296875,-970.21484375,66.40625,1.46484375
1771540347.0954688,35.64453125,62.01171875,-970.21484375,42.96875,-3.41796875
1771540347.099375,28.3203125,73.2421875,-970.21484375,20.99609375,-44.921875
1771540347.1032813,50.29296875,82.51953125,-970.21484375,13.18359375,-23.92578125
1771540347.1071875,46.875,75.68359375,-970.21484375,13.18359375,-7.32421875
1771540347.1110938,14.16015625,63.4765625,-970.21484375,25.87890625,-4.39453125
1771540347.113125,7.8125,60.05859375,-970.21484375,28.3203125,31.25
1771540347.1170313,16.6015625,64.453125,-970.21484375,38.0859375,69.82421875
1771540347.1209376,27.83203125,64.453125,-970.21484375,31.73828125,18.5546875
1771540347.1248438,26.85546875,65.4296875,-970.21484375,2.9296875,3.90625
1771540347.12875,13.18359375,65.4296875,-970.21484375,0.0,39.55078125
1771540347.1326563,12.6953125,62.5,-970.21484375,21.484375,46.38671875
1771540347.1365626,25.87890625,59.08203125,-970.21484375,21.97265625,11.23046875
1771540347.1404688,31.73828125,54.6875,-970.21484375,16.6015625,-24.90234375
1771540347.144375,36.62109375,63.4765625,-970.21484375,14.16015625,-12.20703125
1771540347.1482813,30.2734375,63.4765625,-970.21484375,12.6953125,33.69140625
1771540347.1521876,20.99609375,64.94140625,-970.21484375,31.25,55.6640625
1771540347.1560938,16.11328125,68.84765625,-970.21484375,25.390625,41.50390625
1771540347.158125,-5.37109375,69.82421875,-970.21484375,20.01953125,68.84765625
1771540347.1620312,-11.71875,64.453125,-970.21484375,32.2265625,93.75
1771540347.1659374,-1.953125,60.546875,-970.21484375,30.76171875,40.0390625
1771540347.1698437,6.34765625,61.03515625,-970.21484375,18.5546875,31.25
1771540347.17375,7.8125,50.29296875,-970.21484375,17.08984375,38.0859375
1771540347.1776562,0.0,32.2265625,-970.21484375,15.13671875,44.921875
1771540347.1815624,10.25390625,15.625,-970.21484375,12.20703125,66.40625
1771540347.1854687,31.73828125,25.390625,-970.703125,19.53125,54.6875
1771540347.189375,26.85546875,31.73828125,-964.84375,26.3671875,9.765625
1771540347.1932812,7.32421875,18.06640625,-975.09765625,30.76171875,-5.859375
1771540347.1971874,13.671875,20.01953125,-939.453125,31.25,29.296875
1771540347.2010937,26.3671875,26.3671875,-771.97265625,32.2265625,67.3828125
1771540347.217125,30.76171875,19.04296875,-667.96875,33.203125,106.93359375
1771540347.2210312,31.25,8.7890625,-837.40234375,28.3203125,62.01171875
1771540347.2249374,33.203125,16.11328125,-818.359375,27.34375,40.52734375
1771540347.2288437,37.59765625,25.87890625,-559.5703125,30.2734375,106.93359375
1771540347.23275,29.296875,24.90234375,-625.48828125,33.69140625,47.8515625
1771540347.2366562,25.87890625,14.16015625,-925.29296875,16.11328125,7.32421875
1771540347.2405624,27.34375,12.20703125,-900.390625,17.08984375,31.73828125
1771540347.2444687,17.08984375,23.92578125,-610.83984375,40.52734375,20.01953125
1771540347.248375,27.83203125,22.4609375,-545.41015625,44.43359375,14.16015625
1771540347.2522812,42.96875,13.671875,-741.2109375,36.62109375,57.12890625
1771540347.2561874,31.73828125,20.01953125,-634.765625,21.484375,49.8046875
1771540347.2600937,39.55078125,33.69140625,-255.37109375,23.4375,49.8046875
1771540347.262125,31.25,33.203125,-144.53125,34.66796875,49.31640625
1771540347.2660313,25.390625,23.4375,-197.75390625,33.203125,50.29296875
1771540347.2699375,38.0859375,23.4375,-144.04296875,35.64453125,57.6171875
1771540347.2738438,31.25,30.2734375,-3.90625,51.26953125,30.2734375
1771540347.27775,36.1328125,30.2734375,72.265625,43.9453125,34.66796875
1771540347.2816563,41.9921875,23.4375,-20.99609375,33.203125,50.78125
1771540347.2855625,32.71484375,24.90234375,-37.109375,37.59765625,31.73828125
1771540347.2894688,27.83203125,33.203125,198.73046875,41.9921875,23.92578125
1771540347.293375,35.15625,26.85546875,270.01953125,42.48046875,38.57421875
1771540347.2972813,37.59765625,20.01953125,23.92578125,48.33984375,32.71484375
1771540347.3011875,28.80859375,33.69140625,124.0234375,39.55078125,29.78515625
1771540347.3050938,29.296875,38.0859375,327.63671875,32.2265625,18.5546875
1771540347.308125,38.57421875,36.62109375,314.94140625,40.52734375,34.1796875
1771540347.3120313,37.59765625,43.45703125,416.015625,32.2265625,68.84765625
1771540347.3159375,26.3671875,42.48046875,485.83984375,28.3203125,47.36328125
1771540347.3198438,23.4375,41.50390625,425.78125,30.2734375,38.57421875
1771540347.32375,33.203125,44.43359375,424.8046875,27.83203125,38.57421875
1771540347.3276563,41.9921875,47.36328125,416.50390625,43.45703125,40.52734375
1771540347.3315625,35.64453125,47.8515625,314.94140625,62.01171875,30.76171875
1771540347.3354688,23.4375,45.41015625,326.171875,36.1328125,43.45703125
1771540347.339375,36.62109375,35.15625,141.6015625,24.4140625,37.109375
1771540347.3432813,48.33984375,42.48046875,169.921875,39.0625,88.37890625
1771540347.3471875,33.69140625,57.12890625,434.5703125,32.71484375,18.5546875
1771540347.3510938,26.85546875,51.26953125,289.55078125,24.4140625,-41.9921875
1771540347.353125,30.2734375,52.734375,317.87109375,37.109375,41.015625
1771540347.3570313,36.1328125,54.19921875,412.109375,33.69140625,37.59765625
1771540347.3609376,36.62109375,53.7109375,476.5625,33.69140625,24.90234375
1771540347.3648438,23.4375,44.921875,400.87890625,41.015625,61.5234375
1771540347.36875,26.3671875,39.55078125,209.9609375,27.34375,35.15625
1771540347.3726563,34.1796875,50.78125,287.109375,31.25,35.64453125
1771540347.3765626,33.203125,51.7578125,362.79296875,54.6875,26.85546875
1771540347.3804688,25.390625,41.50390625,232.421875,45.41015625,0.0
1771540347.384375,15.625,38.57421875,8.7890625,23.92578125,44.43359375
1771540347.3882813,26.85546875,53.7109375,231.4453125,34.1796875,46.875
1771540347.3921876,36.1328125,62.98828125,522.4609375,45.41015625,68.84765625
1771540347.3960938,23.4375,56.640625,364.74609375,36.62109375,56.15234375
1771540347.398125,22.94921875,50.29296875,194.3359375,29.78515625,-9.765625
1771540347.4020312,33.203125,55.6640625,327.1484375,45.41015625,28.3203125
1771540347.4059374,36.62109375,54.19921875,414.55078125,47.36328125,22.94921875
1771540347.4098437,36.1328125,47.36328125,325.68359375,34.66796875,3.41796875
1771540347.41375,16.11328125,50.29296875,206.54296875,30.2734375,77.63671875
1771540347.4176562,8.7890625,55.6640625,200.68359375,35.64453125,86.42578125
1771540347.4215624,30.76171875,52.734375,298.33984375,42.48046875,64.453125
1771540347.4254687,33.69140625,41.50390625,109.86328125,33.203125,19.04296875
1771540347.429375,19.53125,41.50390625,-60.546875,26.85546875,8.7890625
1771540347.4332812,20.01953125,59.08203125,240.234375,34.66796875,60.05859375
1771540347.4371874,19.04296875,60.05859375,317.87109375,19.53125,23.4375
1771540347.4410937,17.578125,58.10546875,196.2890625,31.25,5.859375
1771540347.443125,13.18359375,62.01171875,166.9921875,34.66796875,20.01953125
1771540347.4470313,9.765625,63.96484375,140.625,15.625,-12.20703125
1771540347.4509375,21.484375,62.5,119.62890625,29.78515625,31.25
1771540347.4548438,23.92578125,60.05859375,87.890625,39.55078125,6.34765625
1771540347.45875,11.71875,56.640625,93.26171875,32.71484375,-19.53125
1771540347.4626563,13.671875,52.734375,-44.921875,25.87890625,15.625
1771540347.4665625,20.01953125,52.24609375,-77.63671875,23.4375,77.1484375
1771540347.4704688,30.76171875,41.015625,-204.1015625,36.62109375,90.8203125
1771540347.474375,25.87890625,56.640625,-89.84375,25.390625,67.87109375
1771540347.4782813,-0.9765625,59.5703125,146.484375,11.23046875,48.33984375
1771540347.4821875,-3.41796875,40.52734375,35.64453125,24.4140625,15.625
1771540347.4860938,21.484375,46.875,96.19140625,34.1796875,11.71875
1771540347.487125,33.69140625,52.24609375,207.03125,42.48046875,-15.13671875
1771540347.4910312,24.90234375,49.8046875,146.97265625,34.1796875,5.859375
1771540347.4949374,16.6015625,45.41015625,57.6171875,18.06640625,69.82421875
1771540347.4988437,29.296875,49.8046875,80.078125,26.85546875,34.1796875
1771540347.50275,34.1796875,62.98828125,205.078125,40.52734375,20.01953125
1771540347.5066562,26.3671875,51.26953125,136.23046875,39.0625,66.40625
1771540347.5105624,34.66796875,26.85546875,-196.2890625,35.15625,58.10546875
1771540347.5144687,43.45703125,33.69140625,-162.109375,45.8984375,23.4375
1771540347.518375,51.26953125,54.19921875,215.8203125,47.8515625,27.83203125
1771540347.5222812,57.6171875,49.31640625,246.58203125,44.921875,24.90234375
1771540347.5261874,11.71875,46.38671875,144.04296875,25.87890625,6.34765625
1771540347.5300937,-1.953125,52.734375,282.2265625,17.08984375,2.44140625
1771540347.533125,27.83203125,53.22265625,524.90234375,33.69140625,-10.25390625
1771540347.5370312,17.578125,54.19921875,545.41015625,47.8515625,0.48828125
1771540347.5409374,10.25390625,54.19921875,480.95703125,39.55078125,41.015625
1771540347.5448437,19.53125,57.6171875,563.4765625,33.69140625,29.78515625
1771540347.54875,20.99609375,60.546875,728.02734375,46.38671875,3.90625
1771540347.5526562,21.97265625,50.29296875,647.4609375,41.9921875,-10.25390625
1771540347.5565624,24.4140625,40.52734375,369.140625,34.66796875,13.671875
1771540347.5604687,20.5078125,54.19921875,564.453125,22.94921875,67.87109375
1771540347.564375,22.94921875,54.19921875,837.890625,13.671875,48.828125
1771540347.5682812,22.94921875,42.48046875,757.32421875,17.08984375,-6.34765625
1771540347.5721874,13.671875,37.109375,657.71484375,23.92578125,-2.44140625
1771540347.5760937,20.01953125,32.2265625,533.69140625,13.671875,19.53125
1771540347.579125,32.71484375,37.109375,612.3046875,11.71875,62.5
1771540347.5830312,35.64453125,30.76171875,564.453125,33.203125,46.875
1771540347.5869374,45.41015625,27.83203125,443.359375,35.15625,18.5546875
1771540347.5908437,27.34375,31.73828125,512.20703125,14.16015625,45.8984375
1771540347.59475,23.92578125,28.3203125,520.99609375,20.01953125,13.18359375
1771540347.5986562,46.38671875,21.484375,366.2109375,42.96875,-7.8125
1771540347.6025624,12.20703125,26.3671875,336.9140625,31.25,-14.16015625
1771540347.6064687,-0.48828125,33.69140625,538.57421875,15.13671875,7.8125
1771540347.610375,26.3671875,28.80859375,564.94140625,23.92578125,37.59765625
1771540347.6142812,39.0625,21.484375,476.07421875,31.73828125,66.40625
1771540347.6181874,46.38671875,30.2734375,501.953125,21.97265625,26.85546875
1771540347.6220937,39.0625,32.71484375,609.86328125,24.90234375,18.5546875
1771540347.638125,30.76171875,15.625,523.4375,35.64453125,62.5
1771540347.6420312,32.71484375,15.13671875,423.828125,44.43359375,31.25
1771540347.6459374,37.109375,31.25,586.42578125,48.828125,51.26953125
1771540347.6498437,29.78515625,34.66796875,684.08203125,24.4140625,44.921875
1771540347.65375,26.3671875,24.4140625,547.8515625,18.5546875,58.10546875
1771540347.6576562,27.83203125,16.6015625,363.28125,28.80859375,52.24609375
1771540347.6615624,33.69140625,34.1796875,513.18359375,32.71484375,-4.39453125
1771540347.6654687,34.1796875,50.29296875,822.75390625,32.71484375,28.3203125
1771540347.669375,27.83203125,31.73828125,654.296875,29.296875,42.48046875
1771540347.6732812,34.1796875,25.87890625,496.09375,27.34375,30.2734375
1771540347.6771874,28.80859375,38.0859375,830.56640625,21.97265625,107.91015625
1771540347.6810937,22.94921875,36.62109375,878.90625,17.578125,66.89453125
1771540347.683125,16.11328125,35.64453125,661.1328125,16.6015625,38.57421875
1771540347.6870313,7.32421875,26.85546875,623.046875,20.99609375,61.03515625
1771540347.6909375,19.53125,25.87890625,763.18359375,29.296875,35.64453125
1771540347.6948438,39.0625,25.390625,770.99609375,33.203125,53.22265625
1771540347.69875,25.87890625,20.01953125,456.54296875,27.83203125,20.01953125
1771540347.7026563,7.32421875,24.90234375,275.87890625,19.53125,13.671875
1771540347.7065625,18.5546875,33.69140625,410.15625,14.16015625,28.80859375
1771540347.7104688,20.99609375,39.0625,571.2890625,23.4375,32.71484375
1771540347.714375,25.390625,23.4375,221.19140625,30.76171875,17.578125
1771540347.7182813,25.390625,19.53125,-46.38671875,22.4609375,9.765625
1771540347.7221875,12.6953125,36.1328125,249.51171875,21.484375,29.78515625
1771540347.7260938,18.5546875,34.1796875,302.734375,31.25,32.71484375
1771540347.728125,31.73828125,33.69140625,210.9375,38.0859375,44.921875
1771540347.7320313,25.87890625,36.1328125,141.11328125,22.4609375,49.8046875
1771540347.7359376,15.13671875,35.64453125,106.4453125,8.7890625,23.92578125
1771540347.7398438,16.11328125,35.64453125,87.890625,24.90234375,30.2734375
1771540347.74375,36.62109375,36.62109375,80.56640625,32.71484375,64.453125
1771540347.7476563,26.85546875,31.25,-92.7734375,20.5078125,35.15625
1771540347.7515626,18.5546875,33.203125,-189.94140625,21.484375,41.50390625
1771540347.7554688,33.203125,39.55078125,-95.703125,35.15625,13.671875
1771540347.759375,30.76171875,29.296875,-239.2578125,28.3203125,8.30078125
1771540347.7632813,22.4609375,36.62109375,-141.11328125,23.4375,2.9296875
1771540347.7671876,24.4140625,50.78125,174.8046875,36.1328125,15.13671875
1771540347.7710938,30.2734375,50.78125,215.33203125,32.2265625,51.26953125
1771540347.773125,27.83203125,54.19921875,265.625,29.296875,36.1328125
1771540347.7770312,28.80859375,55.17578125,318.359375,33.69140625,37.59765625
1771540347.7809374,33.69140625,46.38671875,156.73828125,30.2734375,4.39453125
1771540347.7848437,29.78515625,47.36328125,76.171875,24.4140625,44.921875
1771540347.78875,29.296875,50.78125,137.20703125,27.83203125,47.36328125
1771540347.7926562,26.85546875,44.921875,74.70703125,30.76171875,33.69140625
1771540347.7965624,19.04296875,43.45703125,-64.453125,18.06640625,17.08984375
1771540347.8004687,19.53125,37.109375,-228.515625,11.23046875,49.31640625
1771540347.804375,20.5078125,47.8515625,-229.98046875,15.625,99.12109375
1771540347.8082812,18.06640625,64.453125,95.21484375,42.48046875,46.38671875
1771540347.8121874,7.8125,53.22265625,85.9375,24.4140625,21.484375
1771540347.8160937,6.34765625,43.45703125,-111.81640625,-0.9765625,38.57421875
1771540347.818125,18.06640625,49.8046875,-56.640625,16.11328125,-14.16015625
1771540347.8220313,25.390625,60.546875,110.83984375,21.484375,-27.34375
1771540347.8259375,10.25390625,50.78125,18.5546875,20.5078125,4.8828125
1771540347.8298438,3.90625,43.9453125,-118.1640625,16.11328125,19.53125
1771540347.83375,19.04296875,53.7109375,-10.25390625,33.69140625,20.5078125
1771540347.8376563,22.94921875,52.24609375,51.26953125,45.8984375,57.12890625
1771540347.8415625,10.7421875,42.96875,-120.60546875,43.45703125,43.9453125
1771540347.8454688,9.765625,38.0859375,-431.640625,31.73828125,-8.30078125
1771540347.849375,4.8828125,53.22265625,-232.91015625,33.203125,11.23046875
1771540347.8532813,13.18359375,62.01171875,151.85546875,41.9921875,64.94140625
1771540347.8571875,40.0390625,56.15234375,148.92578125,40.52734375,100.5859375
1771540347.8610938,19.53125,53.22265625,14.6484375,32.71484375,118.1640625
1771540347.863125,9.27734375,56.15234375,50.29296875,19.04296875,98.6328125
1771540347.8670313,17.08984375,60.05859375,164.55078125,32.2265625,81.54296875
1771540347.8709376,17.578125,55.17578125,19.04296875,38.0859375,94.7265625
1771540347.8748438,3.90625,52.24609375,-124.0234375,18.5546875,123.53515625
1771540347.87875,0.48828125,51.7578125,-135.25390625,12.6953125,50.29296875
1771540347.8826563,10.7421875,52.24609375,-221.6796875,20.01953125,-13.671875
1771540347.8865626,17.08984375,46.875,-359.375,33.69140625,39.55078125
1771540347.8904688,8.7890625,45.41015625,-429.6875,23.4375,41.015625
1771540347.894375,-5.37109375,57.12890625,-280.76171875,-3.90625,6.8359375
1771540347.8982813,-8.30078125,56.640625,-240.72265625,0.9765625,22.4609375
1771540347.9021876,9.765625,56.640625,-211.9140625,15.625,90.33203125
1771540347.9060938,20.99609375,58.10546875,-239.2578125,18.5546875,31.25
1771540347.908125,9.765625,57.12890625,-338.8671875,17.08984375,-2.44140625
1771540347.9120312,12.20703125,48.828125,-492.1875,26.3671875,50.29296875
1771540347.9159374,8.30078125,48.33984375,-602.5390625,34.1796875,14.16015625
1771540347.9198437,-1.953125,60.546875,-419.921875,23.4375,44.43359375
1771540347.92375,0.48828125,52.734375,-350.5859375,10.25390625,64.453125
1771540347.9276562,7.8125,39.55078125,-509.765625,14.16015625,35.64453125
1771540347.9315624,11.71875,40.0390625,-625.48828125,19.04296875,11.71875
1771540347.9354687,12.20703125,60.05859375,-260.25390625,20.5078125,54.19921875
1771540347.939375,9.765625,66.89453125,-7.8125,20.01953125,76.66015625
1771540347.9432812,14.6484375,56.640625,-223.14453125,25.390625,6.8359375
1771540347.9471874,24.4140625,63.96484375,-207.03125,37.109375,3.90625
1771540347.9510937,12.6953125,69.82421875,-11.71875,30.2734375,48.33984375
1771540347.970125,14.6484375,57.6171875,-58.59375,30.76171875,5.859375
1771540347.9740312,15.625,47.8515625,-215.8203125,23.92578125,0.9765625
1771540347.9779375,1.46484375,53.7109375,-99.12109375,4.8828125,94.23828125
1771540347.9818437,15.625,53.7109375,54.6875,16.11328125,132.32421875
1771540347.98575,18.5546875,53.7109375,147.4609375,36.62109375,81.0546875
1771540347.9896562,16.6015625,43.45703125,-26.3671875,25.87890625,47.8515625
1771540347.9935625,19.53125,38.0859375,-235.83984375,25.87890625,27.83203125
1771540347.9974687,19.53125,60.546875,189.453125,37.109375,47.8515625
1771540348.001375,21.484375,65.4296875,431.640625,40.0390625,85.44921875
1771540348.0052812,2.44140625,49.8046875,248.046875,40.0390625,51.7578125
1771540348.0091875,15.625,46.38671875,190.91796875,32.71484375,32.2265625
1771540348.0130937,19.53125,55.6640625,301.26953125,16.11328125,57.12890625
1771540348.013125,17.578125,58.59375,325.1953125,15.625,67.87109375
1771540348.0170312,15.625,52.734375,161.62109375,28.80859375,29.78515625
1771540348.0209374,-1.46484375,55.17578125,66.89453125,33.69140625,-2.9296875
1771540348.0248437,4.8828125,57.12890625,123.53515625,32.71484375,5.37109375
1771540348.02875,14.16015625,55.17578125,116.69921875,16.6015625,33.203125
1771540348.0326562,11.71875,50.78125,-30.2734375,-1.953125,50.29296875
1771540348.0365624,11.71875,47.8515625,-137.6953125,9.27734375,47.36328125
1771540348.0404687,23.92578125,54.19921875,-109.86328125,28.3203125,20.5078125
1771540348.044375,35.15625,55.6640625,-53.7109375,28.80859375,23.4375
1771540348.0482812,41.50390625,45.8984375,-297.8515625,22.94921875,55.17578125
1771540348.0521874,43.9453125,56.640625,-312.5,26.3671875,18.06640625
1771540348.0560937,41.50390625,65.91796875,-52.734375,21.484375,-6.8359375
1771540348.058125,26.85546875,58.59375,-5.859375,36.1328125,54.19921875
1771540348.0620313,27.34375,59.08203125,28.3203125,68.359375,58.59375
1771540348.0659375,34.1796875,63.96484375,8.30078125,38.57421875,45.41015625
1771540348.0698438,27.83203125,63.4765625,-88.8671875,18.5546875,50.78125
1771540348.07375,31.73828125,63.4765625,-162.109375,27.34375,19.53125
1771540348.0776563,31.73828125,66.40625,-283.69140625,28.3203125,-1.46484375
1771540348.0815625,24.4140625,62.01171875,-451.66015625,34.1796875,-3.41796875
1771540348.0854688,12.20703125,59.08203125,-454.58984375,21.97265625,39.0625
1771540348.089375,17.08984375,43.9453125,-637.6953125,16.6015625,54.6875
1771540348.0932813,17.08984375,43.45703125,-806.640625,19.53125,38.0859375
1771540348.0971875,19.53125,63.96484375,-592.7734375,27.34375,20.01953125
1771540348.1010938,20.99609375,57.12890625,-659.66796875,30.76171875,40.52734375
1771540348.103125,12.20703125,54.19921875,-803.7109375,21.484375,30.76171875
1771540348.1070313,16.11328125,65.91796875,-701.171875,23.4375,28.80859375
1771540348.1109376,25.390625,65.91796875,-661.1328125,39.55078125,58.59375
1771540348.1148438,22.4609375,54.19921875,-851.5625,34.66796875,38.57421875
1771540348.11875,20.01953125,47.36328125,-977.05078125,16.6015625,50.78125
1771540348.1226563,11.23046875,49.8046875,-965.8203125,21.97265625,47.36328125
1771540348.1265626,11.23046875,55.6640625,-967.7734375,34.66796875,-14.6484375
1771540348.1304688,22.4609375,52.734375,-971.19140625,35.15625,-17.08984375
1771540348.134375,18.06640625,46.875,-970.21484375,24.4140625,-26.3671875
1771540348.1382813,22.94921875,62.5,-970.21484375,26.85546875,11.71875
1771540348.1421876,40.0390625,60.05859375,-970.21484375,49.31640625,8.30078125
1771540348.1460938,42.48046875,51.26953125,-970.21484375,51.26953125,-35.15625
1771540348.148125,32.2265625,57.6171875,-970.21484375,19.53125,33.203125
1771540348.1520312,31.73828125,59.08203125,-970.21484375,27.34375,-7.8125
1771540348.1559374,36.62109375,61.5234375,-970.21484375,51.26953125,0.0
1771540348.1598437,41.50390625,61.03515625,-969.7265625,45.8984375,72.265625
1771540348.16375,39.0625,57.12890625,-969.23828125,40.52734375,35.64453125
1771540348.1676562,29.296875,60.546875,-975.09765625,43.9453125,55.17578125
1771540348.1715624,24.90234375,63.4765625,-940.91796875,46.38671875,83.49609375
1771540348.1754687,30.76171875,49.31640625,-938.96484375,28.3203125,70.80078125
1771540348.179375,28.80859375,43.45703125,-980.46875,23.4375,27.83203125
1771540348.1832812,23.92578125,58.10546875,-949.21875,26.85546875,-19.53125
1771540348.1871874,36.62109375,58.59375,-847.16796875,22.94921875,42.48046875
1771540348.1910937,43.45703125,58.59375,-768.5546875,33.69140625,94.23828125
1771540348.193125,31.73828125,58.59375,-801.7578125,28.80859375,41.015625
1771540348.1970313,32.71484375,55.17578125,-921.38671875,30.2734375,-0.9765625
1771540348.2009375,35.64453125,57.12890625,-889.6484375,38.57421875,38.0859375
1771540348.2048438,38.0859375,59.08203125,-839.84375,38.0859375,34.1796875
1771540348.20875,40.52734375,63.96484375,-767.578125,39.0625,30.76171875
1771540348.2126563,37.109375,62.01171875,-858.88671875,33.69140625,35.15625
1771540348.2165625,42.48046875,56.640625,-971.6796875,39.0625,10.25390625
1771540348.2204688,42.96875,53.22265625,-970.21484375,53.7109375,-16.11328125
1771540348.224375,32.71484375,65.91796875,-781.73828125,54.19921875,40.0390625
1771540348.2282813,32.71484375,69.3359375,-656.73828125,37.109375,105.46875
1771540348.2321875,30.76171875,62.01171875,-802.24609375,36.62109375,58.10546875
1771540348.2360938,16.11328125,63.96484375,-791.9921875,38.0859375,6.34765625
1771540348.237125,10.7421875,65.91796875,-663.0859375,22.4609375,34.1796875
1771540348.2410312,14.6484375,64.453125,-719.23828125,23.92578125,40.52734375
1771540348.2449374,23.4375,61.5234375,-870.60546875,34.66796875,33.69140625
1771540348.2488437,26.3671875,62.98828125,-890.13671875,26.85546875,51.26953125
1771540348.25275,28.3203125,65.4296875,-806.15234375,23.4375,-8.7890625
1771540348.2566562,26.85546875,64.453125,-860.3515625,28.3203125,43.9453125
1771540348.2605624,12.20703125,55.17578125,-969.7265625,31.73828125,83.49609375
1771540348.2644687,17.08984375,51.7578125,-977.5390625,23.4375,42.96875
1771540348.268375,28.80859375,65.91796875,-841.30859375,26.85546875,7.8125
1771540348.2722812,28.80859375,62.5,-774.90234375,34.66796875,2.44140625
1771540348.2761874,28.3203125,51.26953125,-922.36328125,26.3671875,6.34765625
1771540348.2800937,24.90234375,56.15234375,-838.8671875,20.01953125,66.89453125
1771540348.283125,31.73828125,61.5234375,-673.828125,36.1328125,99.609375
1771540348.2870312,32.71484375,57.12890625,-728.515625,46.875,66.40625
1771540348.2909374,24.4140625,50.29296875,-919.921875,36.1328125,30.2734375
1771540348.2948437,27.34375,57.12890625,-950.1953125,38.57421875,-28.3203125
1771540348.29875,30.76171875,65.91796875,-824.70703125,51.7578125,18.06640625
1771540348.3026562,34.1796875,61.5234375,-858.3984375,53.7109375,78.61328125
1771540348.3065624,33.69140625,45.41015625,-981.93359375,41.015625,35.15625
1771540348.3104687,30.76171875,52.734375,-939.94140625,27.83203125,-11.71875
1771540348.314375,45.8984375,69.82421875,-777.34375,30.2734375,6.34765625
1771540348.3182812,55.6640625,63.4765625,-759.765625,46.38671875,27.83203125
1771540348.3221874,38.0859375,56.640625,-830.078125,34.1796875,35.64453125
1771540348.3260937,27.34375,60.05859375,-836.9140625,30.2734375,41.50390625
1771540348.343125,31.73828125,67.87109375,-809.08203125,43.45703125,20.5078125
1771540348.3470314,29.296875,68.84765625,-734.86328125,40.52734375,38.0859375
1771540348.3509376,27.83203125,68.359375,-629.39453125,44.921875,90.8203125
1771540348.3548439,26.3671875,64.94140625,-617.1875,40.52734375,54.19921875
1771540348.35875,30.76171875,66.89453125,-572.265625,43.9453125,2.44140625
1771540348.3626564,33.69140625,57.6171875,-692.3828125,48.828125,4.39453125
1771540348.3665626,33.203125,62.98828125,-683.59375,38.57421875,29.296875
1771540348.3704689,26.3671875,73.73046875,-421.875,39.55078125,65.91796875
1771540348.374375,15.13671875,54.19921875,-479.00390625,39.55078125,103.02734375
1771540348.3782814,11.23046875,47.8515625,-590.33203125,30.76171875,100.5859375
1771540348.3821876,20.99609375,62.01171875,-519.04296875,36.1328125,36.62109375
1771540348.3860939,19.53125,58.10546875,-437.5,32.2265625,9.27734375
1771540348.388125,10.25390625,51.7578125,-529.296875,24.4140625,33.203125
1771540348.3920312,13.18359375,56.640625,-525.390625,23.92578125,62.98828125
1771540348.3959374,16.11328125,56.15234375,-450.68359375,15.13671875,34.1796875
1771540348.3998437,21.97265625,56.15234375,-513.18359375,14.16015625,-19.53125
1771540348.40375,23.92578125,55.6640625,-702.1484375,26.3671875,-1.46484375
1771540348.4076562,17.08984375,51.7578125,-859.375,29.78515625,7.8125
1771540348.4115624,22.94921875,55.6640625,-811.03515625,29.296875,19.04296875
1771540348.4154687,31.25,62.5,-717.7734375,26.85546875,14.16015625
1771540348.419375,28.3203125,52.24609375,-856.4453125,20.99609375,-21.97265625
1771540348.4232812,30.2734375,47.36328125,-970.703125,21.484375,43.45703125
1771540348.4271874,32.71484375,57.12890625,-869.62890625,32.71484375,83.49609375
1771540348.4310937,34.1796875,60.05859375,-779.78515625,31.73828125,21.97265625
1771540348.433125,33.69140625,46.38671875,-884.27734375,31.25,-23.92578125
1771540348.4370313,25.390625,48.33984375,-889.16015625,34.66796875,30.76171875
1771540348.4409375,31.25,64.453125,-694.82421875,26.3671875,53.22265625
1771540348.4448438,44.921875,64.453125,-582.03125,29.296875,58.10546875
1771540348.44875,40.0390625,58.59375,-707.51953125,34.1796875,20.99609375
1771540348.4526563,47.8515625,53.7109375,-871.09375,29.296875,18.06640625
1771540348.4565625,55.17578125,58.10546875,-782.71484375,32.71484375,102.05078125
1771540348.4604688,29.78515625,62.5,-615.72265625,36.62109375,69.3359375
1771540348.464375,35.15625,48.33984375,-785.15625,31.73828125,12.20703125
1771540348.4682813,36.62109375,48.33984375,-918.9453125,31.73828125,36.1328125
1771540348.4721875,24.90234375,63.4765625,-663.0859375,36.1328125,31.25
1771540348.4760938,31.73828125,55.6640625,-552.734375,43.9453125,29.296875
1771540348.478125,33.69140625,46.38671875,-645.99609375,38.0859375,44.921875
1771540348.4820313,12.20703125,42.96875,-735.83984375,32.2265625,22.4609375
1771540348.4859376,12.20703125,52.24609375,-607.421875,35.15625,20.01953125
1771540348.4898438,49.8046875,53.7109375,-568.84765625,29.78515625,5.859375
1771540348.49375,45.41015625,46.875,-622.0703125,28.3203125,15.13671875
1771540348.4976563,25.390625,45.41015625,-615.234375,28.80859375,38.57421875
1771540348.5015626,24.90234375,50.29296875,-597.65625,33.203125,51.26953125
1771540348.5054688,16.11328125,51.26953125,-559.5703125,30.76171875,37.109375
1771540348.509375,24.90234375,46.38671875,-675.78125,22.4609375,-23.92578125
1771540348.5132813,29.78515625,59.08203125,-492.67578125,27.83203125,-2.44140625
1771540348.5171876,10.7421875,64.94140625,-273.92578125,37.59765625,49.31640625
1771540348.5210938,24.90234375,61.5234375,-258.7890625,36.62109375,53.7109375
1771540348.523125,32.2265625,59.5703125,-203.61328125,39.0625,-10.7421875
1771540348.5270312,35.15625,62.98828125,-77.1484375,35.15625,3.41796875
1771540348.5309374,34.1796875,55.17578125,-108.3984375,24.4140625,50.29296875
1771540348.5348437,30.2734375,47.36328125,-302.734375,29.296875,12.6953125
1771540348.53875,43.9453125,58.10546875,-117.67578125,31.73828125,41.9921875
1771540348.5426562,48.828125,63.4765625,77.1484375,35.64453125,79.58984375
1771540348.5465624,40.0390625,59.08203125,16.11328125,36.1328125,33.203125
1771540348.5504687,34.1796875,49.31640625,-115.234375,29.78515625,47.36328125
1771540348.554375,34.1796875,49.8046875,-102.05078125,23.92578125,58.10546875
1771540348.5582812,42.48046875,64.453125,255.37109375,26.85546875,55.6640625
1771540348.5621874,37.59765625,58.10546875,211.9140625,31.73828125,26.3671875
1771540348.5660937,27.83203125,52.734375,55.17578125,36.62109375,13.671875
1771540348.568125,34.1796875,56.640625,185.05859375,37.59765625,40.0390625
1771540348.5720313,30.76171875,58.59375,327.1484375,38.0859375,23.4375
1771540348.5759375,27.34375,53.7109375,264.16015625,32.71484375,20.5078125
1771540348.5798438,25.390625,50.78125,157.71484375,20.99609375,44.921875
1771540348.58375,32.71484375,54.6875,252.9296875,22.4609375,52.734375
1771540348.5876563,34.66796875,54.19921875,291.9921875,33.203125,46.875
1771540348.5915625,20.5078125,48.828125,233.3984375,35.64453125,54.6875
1771540348.5954688,21.484375,37.109375,-133.7890625,14.16015625,7.32421875
1771540348.599375,17.578125,50.78125,-92.28515625,17.08984375,-34.66796875
1771540348.6032813,14.6484375,69.3359375,399.90234375,26.3671875,25.390625
1771540348.6071875,19.53125,59.5703125,432.6171875,28.80859375,55.6640625
1771540348.6110938,20.5078125,52.734375,311.03515625,40.0390625,7.8125
1771540348.613125,20.5078125,58.10546875,382.8125,29.296875,48.33984375
1771540348.6170313,18.5546875,59.08203125,452.1484375,18.5546875,56.15234375
1771540348.6209376,25.87890625,55.17578125,401.3671875,29.78515625,24.4140625
1771540348.6248438,27.34375,53.7109375,365.72265625,34.1796875,51.7578125
1771540348.62875,22.4609375,49.8046875,338.37890625,31.25,61.03515625
1771540348.6326563,30.2734375,45.8984375,257.32421875,33.203125,37.109375
1771540348.6365626,35.15625,41.50390625,78.125,29.78515625,33.203125
1771540348.6404688,39.0625,38.57421875,-68.359375,31.73828125,8.7890625
1771540348.644375,42.48046875,48.33984375,101.5625,36.62109375,20.01953125
1771540348.6482813,37.109375,50.78125,254.39453125,43.45703125,49.31640625
1771540348.6521876,34.1796875,47.36328125,192.87109375,53.7109375,54.19921875
1771540348.6560938,37.59765625,50.78125,196.77734375,45.41015625,41.015625
1771540348.658125,33.69140625,49.31640625,149.90234375,43.9453125,-18.5546875
1771540348.6620312,27.34375,41.015625,47.36328125,33.69140625,4.39453125
1771540348.6659374,39.0625,41.015625,64.94140625,36.62109375,51.7578125
1771540348.6698437,39.0625,45.41015625,120.1171875,50.78125,26.3671875
1771540348.67375,30.2734375,43.9453125,71.77734375,44.43359375,44.921875
1771540348.6776562,33.203125,43.9453125,-134.27734375,41.015625,81.0546875
1771540348.6815624,37.59765625,35.15625,-526.85546875,40.52734375,-0.9765625
1771540348.6854687,45.8984375,46.38671875,-395.5078125,42.96875,-6.34765625
1771540348.689375,34.1796875,53.7109375,-95.21484375,35.64453125,77.63671875
1771540348.6932812,23.4375,35.15625,-326.66015625,26.85546875,92.28515625
1771540348.6971874,27.34375,32.2265625,-464.35546875,35.64453125,81.0546875
1771540348.7010937,27.83203125,41.015625,-380.859375,34.1796875,35.15625
1771540348.718125,29.78515625,46.875,-361.81640625,28.3203125,40.0390625
1771540348.7220314,24.90234375,41.50390625,-642.578125,29.296875,70.80078125
1771540348.7259376,23.92578125,35.64453125,-754.39453125,26.85546875,69.3359375
1771540348.7298439,27.83203125,39.0625,-579.1015625,28.80859375,30.2734375
1771540348.73375,31.25,39.0625,-611.328125,30.76171875,0.48828125
1771540348.7376564,21.484375,24.90234375,-860.83984375,25.390625,-16.6015625
1771540348.7415626,20.5078125,26.85546875,-932.6171875,26.85546875,4.8828125
1771540348.7454689,30.2734375,43.9453125,-740.234375,28.3203125,39.55078125
1771540348.749375,39.55078125,44.921875,-708.0078125,30.76171875,11.71875
1771540348.7532814,36.1328125,41.50390625,-822.265625,34.66796875,73.73046875
1771540348.7571876,31.73828125,41.015625,-890.13671875,28.3203125,81.0546875
1771540348.7610939,39.0625,41.9921875,-842.28515625,30.2734375,12.20703125
1771540348.763125,44.43359375,38.57421875,-882.32421875,41.50390625,-13.18359375
1771540348.7670312,38.57421875,34.66796875,-975.09765625,44.43359375,-44.921875
1771540348.7709374,33.69140625,41.9921875,-949.21875,38.0859375,-4.8828125
1771540348.7748437,40.0390625,46.875,-827.1484375,39.0625,50.78125
1771540348.77875,47.8515625,46.875,-784.1796875,41.015625,70.3125
1771540348.7826562,45.41015625,42.48046875,-916.015625,48.33984375,29.296875
1771540348.7865624,34.66796875,41.015625,-1000.0,46.875,-11.71875
1771540348.7904687,32.71484375,49.31640625,-876.46484375,34.1796875,8.30078125
1771540348.794375,37.109375,45.41015625,-834.9609375,38.57421875,-8.30078125
1771540348.7982812,45.8984375,39.55078125,-964.84375,41.9921875,-5.37109375
1771540348.8021874,39.55078125,47.36328125,-854.4921875,31.73828125,3.41796875
1771540348.8060937,26.3671875,50.29296875,-696.2890625,27.83203125,-2.9296875
1771540348.808125,36.62109375,49.31640625,-664.0625,41.015625,13.18359375
1771540348.8120313,44.921875,52.734375,-527.83203125,56.15234375,53.22265625
1771540348.8159375,37.109375,47.36328125,-524.4140625,41.9921875,74.70703125
1771540348.8198438,35.64453125,41.50390625,-680.17578125,35.64453125,-17.578125
1771540348.82375,46.38671875,51.7578125,-622.0703125,44.43359375,26.3671875
1771540348.8276563,41.9921875,48.828125,-569.3359375,39.55078125,68.84765625
1771540348.8315625,25.87890625,41.50390625,-481.4453125,41.9921875,8.7890625
1771540348.8354688,24.4140625,41.9921875,-374.0234375,42.48046875,36.1328125
1771540348.839375,34.66796875,34.1796875,-589.84375,50.29296875,37.109375
1771540348.8432813,40.0390625,37.109375,-606.4453125,49.31640625,16.11328125
1771540348.8471875,30.76171875,49.31640625,-247.0703125,35.64453125,41.50390625
1771540348.8510938,20.01953125,40.52734375,-317.87109375,39.55078125,66.89453125
1771540348.867125,20.99609375,40.0390625,-368.65234375,33.203125,76.66015625
1771540348.8710313,37.109375,46.38671875,-189.94140625,15.625,85.9375
1771540348.8749375,32.71484375,46.38671875,-104.98046875,28.80859375,58.59375
1771540348.8788438,23.4375,41.015625,-251.46484375,40.0390625,36.1328125
1771540348.88275,24.4140625,37.109375,-358.88671875,35.64453125,26.3671875
1771540348.8866563,25.87890625,39.55078125,-279.296875,23.4375,40.52734375
1771540348.8905625,37.59765625,43.9453125,-217.7734375,31.25,35.64453125
1771540348.8944688,38.0859375,39.0625,-272.94921875,42.48046875,41.015625
1771540348.898375,31.73828125,31.25,-470.703125,29.78515625,-9.27734375
1771540348.9022813,27.83203125,45.41015625,-225.5859375,29.78515625,2.9296875
1771540348.9061875,35.64453125,54.19921875,109.375,46.38671875,76.171875
1771540348.9100938,39.55078125,39.55078125,-82.51953125,51.7578125,62.98828125
1771540348.898125,23.92578125,33.203125,-313.96484375,29.296875,41.015625
1771540348.9020312,23.92578125,46.38671875,-144.53125,24.90234375,-3.41796875
1771540348.9059374,31.73828125,49.31640625,-13.18359375,34.66796875,-13.18359375
1771540348.9098437,32.2265625,49.8046875,-26.85546875,33.203125,12.6953125
1771540348.91375,24.4140625,48.828125,-87.40234375,15.625,20.01953125
1771540348.9176562,19.53125,45.41015625,-119.140625,13.671875,38.57421875
1771540348.9215624,27.34375,44.43359375,-93.26171875,33.69140625,65.91796875
1771540348.9254687,27.34375,46.38671875,-32.71484375,33.203125,78.125
1771540348.929375,19.53125,46.38671875,17.08984375,22.4609375,78.125
1771540348.9332812,16.6015625,43.9453125,14.16015625,20.5078125,33.69140625
1771540348.9371874,25.390625,45.8984375,111.328125,19.53125,48.828125
1771540348.9410937,36.1328125,35.15625,-60.546875,17.08984375,68.359375
1771540348.943125,32.2265625,35.15625,-240.72265625,8.7890625,6.8359375
1771540348.9470313,21.484375,50.29296875,34.1796875,18.06640625,5.859375
1771540348.9509375,24.90234375,46.875,114.2578125,35.15625,7.32421875
1771540348.9548438,41.015625,47.8515625,142.578125,45.41015625,21.484375
1771540348.95875,40.52734375,50.78125,256.8359375,29.78515625,93.26171875
1771540348.9626563,33.203125,42.96875,62.5,17.08984375,35.15625
1771540348.9665625,31.25,36.62109375,-97.65625,20.5078125,-18.06640625
1771540348.9704688,37.109375,38.57421875,-112.79296875,21.97265625,2.9296875
1771540348.974375,34.1796875,52.734375,132.32421875,27.34375,45.8984375
1771540348.9782813,22.4609375,50.29296875,254.8828125,21.484375,76.171875
1771540348.9821875,30.2734375,37.59765625,-28.3203125,26.85546875,-16.6015625
1771540348.9860938,43.45703125,44.43359375,17.08984375,38.57421875,-41.015625
1771540348.988125,36.62109375,50.29296875,250.9765625,43.9453125,30.2734375
1771540348.9920313,23.92578125,44.921875,197.265625,43.9453125,22.94921875
1771540348.9959376,28.80859375,39.0625,-27.83203125,28.3203125,31.73828125
1771540348.9998438,36.1328125,47.36328125,17.578125,30.2734375,70.80078125
1771540349.00375,36.1328125,56.15234375,236.81640625,36.62109375,68.84765625
1771540349.0076563,33.203125,47.8515625,120.60546875,37.109375,39.0625
1771540349.0115626,27.83203125,31.25,-186.03515625,27.34375,28.80859375
1771540349.0154688,27.34375,37.59765625,-169.921875,27.83203125,39.0625
1771540349.019375,34.1796875,49.8046875,204.58984375,45.8984375,54.19921875
1771540349.0232813,42.48046875,30.76171875,242.67578125,51.26953125,33.203125
1771540349.0271876,30.2734375,29.296875,91.796875,42.48046875,8.7890625
1771540349.0310938,22.4609375,51.26953125,156.25,23.4375,18.06640625
1771540349.041125,26.85546875,54.19921875,263.18359375,19.04296875,28.3203125
1771540349.0450313,22.94921875,44.921875,303.22265625,27.34375,21.484375
1771540349.0489376,20.5078125,43.45703125,219.7265625,22.94921875,22.94921875
1771540349.0528438,18.5546875,47.8515625,263.671875,13.671875,29.78515625
1771540349.05675,38.57421875,47.36328125,428.22265625,21.97265625,26.85546875
1771540349.0606563,42.48046875,41.9921875,359.86328125,42.48046875,9.765625
1771540349.0645626,19.04296875,34.1796875,159.1796875,31.73828125,64.453125
1771540349.0684688,12.6953125,41.015625,277.34375,23.92578125,94.23828125
1771540349.072375,26.85546875,52.734375,480.46875,33.69140625,43.9453125
1771540349.0762813,37.59765625,51.26953125,452.1484375,32.2265625,44.43359375
1771540349.0801876,37.59765625,50.29296875,400.87890625,28.3203125,37.59765625
1771540349.0840938,36.1328125,48.33984375,368.65234375,32.71484375,5.37109375
1771540349.094125,41.9921875,43.9453125,371.09375,41.015625,6.34765625
1771540349.0980313,47.36328125,43.9453125,398.92578125,45.8984375,35.15625
1771540349.1019375,32.71484375,36.62109375,349.12109375,46.875,44.921875
1771540349.1058438,20.99609375,33.203125,256.34765625,44.921875,17.578125
1771540349.10975,25.390625,41.9921875,316.89453125,50.29296875,-11.23046875
1771540349.1136563,25.390625,32.71484375,250.0,50.78125,57.12890625
1771540349.1175625,36.1328125,27.83203125,119.62890625,44.43359375,101.07421875
1771540349.1214688,36.1328125,43.9453125,311.03515625,38.0859375,76.66015625
1771540349.125375,19.53125,40.52734375,345.703125,23.92578125,31.25
1771540349.1292813,23.92578125,38.57421875,294.921875,31.25,10.25390625
1771540349.1331875,27.34375,48.33984375,358.88671875,35.64453125,-11.23046875
1771540349.1370938,23.4375,52.734375,395.5078125,25.87890625,45.41015625
1771540349.138125,26.85546875,42.48046875,265.625,21.97265625,58.10546875
1771540349.1420312,27.34375,41.9921875,214.35546875,21.97265625,31.25
1771540349.1459374,39.55078125,51.26953125,348.14453125,32.2265625,58.59375
1771540349.1498437,42.96875,48.33984375,346.19140625,28.3203125,25.390625
1771540349.15375,27.83203125,35.15625,206.54296875,19.53125,49.31640625
1771540349.1576562,19.04296875,29.296875,93.26171875,23.92578125,44.43359375
1771540349.1615624,26.85546875,41.50390625,147.4609375,33.69140625,19.04296875
1771540349.1654687,27.34375,59.5703125,309.08203125,34.66796875,63.4765625
1771540349.169375,18.06640625,50.78125,227.05078125,20.01953125,59.08203125
1771540349.1732812,16.6015625,26.3671875,-136.71875,16.11328125,9.27734375
1771540349.1771874,28.3203125,40.52734375,71.77734375,10.25390625,45.41015625
1771540349.1810937,31.25,55.6640625,410.64453125,20.5078125,55.17578125
1771540349.183125,21.97265625,43.45703125,255.859375,25.87890625,32.2265625
1771540349.1870313,22.94921875,34.1796875,160.15625,14.6484375,31.25
1771540349.1909375,28.3203125,32.71484375,258.7890625,20.99609375,32.2265625
1771540349.1948438,39.0625,43.45703125,305.6640625,30.76171875,10.25390625
1771540349.19875,32.2265625,48.828125,203.125,29.78515625,-5.37109375
1771540349.2026563,21.484375,32.2265625,47.36328125,20.99609375,11.71875
1771540349.2065625,19.53125,21.97265625,52.734375,15.625,25.390625
1771540349.2104688,17.08984375,37.59765625,202.1484375,26.3671875,37.59765625
1771540349.214375,18.5546875,41.50390625,58.10546875,28.80859375,33.203125
1771540349.2182813,5.37109375,38.0859375,-161.62109375,10.7421875,23.4375
1771540349.2221875,-0.9765625,50.78125,69.3359375,6.8359375,-29.296875
1771540349.2260938,14.16015625,51.26953125,259.765625,15.625,22.4609375
1771540349.228125,21.484375,48.828125,245.1171875,21.97265625,81.0546875
1771540349.2320313,11.71875,43.9453125,197.265625,13.18359375,63.4765625
1771540349.2359376,18.06640625,38.0859375,180.17578125,12.20703125,44.921875
1771540349.2398438,29.296875,41.9921875,158.69140625,23.4375,18.06640625
1771540349.24375,29.296875,49.31640625,158.69140625,24.90234375,19.04296875
1771540349.2476563,17.08984375,47.36328125,80.56640625,20.5078125,10.7421875
1771540349.2515626,4.8828125,48.33984375,63.4765625,13.671875,14.16015625
1771540349.2554688,17.08984375,49.8046875,133.7890625,20.01953125,47.8515625
1771540349.259375,27.83203125,44.921875,-27.83203125,30.2734375,-8.7890625
1771540349.2632813,21.484375,52.734375,64.94140625,30.76171875,0.9765625
1771540349.2671876,17.08984375,52.24609375,149.90234375,30.2734375,44.43359375
1771540349.2710938,24.90234375,45.41015625,6.8359375,19.53125,0.9765625
1771540349.273125,32.2265625,50.78125,78.61328125,19.53125,9.27734375
1771540349.2770312,33.69140625,60.05859375,264.16015625,20.99609375,40.52734375
1771540349.2809374,22.94921875,55.17578125,158.203125,18.5546875,31.73828125
1771540349.2848437,13.671875,52.734375,78.125,36.62109375,52.24609375
1771540349.28875,24.4140625,61.03515625,120.1171875,42.96875,48.33984375
1771540349.2926562,25.87890625,62.01171875,45.41015625,34.1796875,14.6484375
1771540349.2965624,19.53125,57.12890625,-6.34765625,7.32421875,18.06640625
1771540349.3004687,25.390625,42.48046875,-186.03515625,-2.9296875,3.41796875
1771540349.304375,26.85546875,40.52734375,-183.59375,-0.9765625,44.43359375
1771540349.3082812,23.4375,55.17578125,148.92578125,12.20703125,47.36328125
1771540349.3121874,17.578125,53.22265625,118.65234375,24.90234375,20.01953125
1771540349.3160937,25.87890625,47.8515625,-47.36328125,19.53125,63.96484375
1771540349.318125,40.52734375,48.33984375,-51.26953125,26.85546875,46.875
1771540349.3220313,28.80859375,55.17578125,121.09375,30.76171875,23.92578125
1771540349.3259375,17.08984375,48.828125,69.82421875,21.484375,25.87890625
1771540349.3298438,20.5078125,44.921875,-156.25,9.27734375,-6.8359375
1771540349.33375,17.08984375,54.6875,-45.41015625,18.06640625,20.5078125
1771540349.3376563,19.53125,53.22265625,13.671875,35.64453125,-2.44140625
1771540349.3415625,28.3203125,48.33984375,-64.453125,28.80859375,9.27734375
1771540349.3454688,24.4140625,42.96875,-250.48828125,26.3671875,20.01953125
1771540349.349375,20.99609375,53.22265625,-94.23828125,24.4140625,49.8046875
1771540349.3532813,26.3671875,61.03515625,174.8046875,31.25,74.21875
1771540349.3571875,29.78515625,59.08203125,107.421875,48.33984375,53.7109375
1771540349.3610938,29.296875,60.05859375,7.32421875,50.78125,20.01953125
1771540349.363125,25.390625,64.453125,32.2265625,57.6171875,25.390625
1771540349.3670313,27.34375,64.94140625,96.6796875,51.26953125,60.05859375
1771540349.3709376,27.34375,62.5,11.23046875,38.0859375,40.0390625
1771540349.3748438,17.08984375,63.96484375,-5.859375,41.9921875,35.64453125
1771540349.37875,20.01953125,59.08203125,14.6484375,28.3203125,40.52734375
1771540349.3826563,26.85546875,56.15234375,-55.17578125,18.06640625,21.97265625
1771540349.3865626,34.1796875,52.24609375,-208.49609375,25.390625,-12.20703125
1771540349.3904688,43.9453125,56.15234375,-239.74609375,28.80859375,-9.27734375
1771540349.394375,35.15625,70.3125,20.01953125,32.2265625,58.10546875
1771540349.3982813,25.390625,64.94140625,96.19140625,33.69140625,86.42578125
1771540349.4021876,25.87890625,64.453125,64.94140625,38.0859375,75.1953125
1771540349.4060938,21.484375,64.453125,101.07421875,40.52734375,64.453125
1771540349.428125,7.8125,52.24609375,38.0859375,27.34375,29.296875
1771540349.4320312,8.7890625,46.875,-59.5703125,13.18359375,31.25
1771540349.4359374,10.7421875,52.734375,-50.78125,19.04296875,44.921875
1771540349.4398437,7.8125,59.5703125,81.0546875,21.97265625,63.4765625
1771540349.44375,8.30078125,53.7109375,34.66796875,15.625,90.33203125
1771540349.4476562,9.765625,46.875,-148.92578125,29.296875,73.2421875
1771540349.4515624,19.53125,36.1328125,-354.98046875,32.2265625,14.6484375
1771540349.4554687,27.83203125,41.9921875,-162.59765625,26.3671875,45.41015625
1771540349.459375,26.85546875,54.6875,155.76171875,31.73828125,76.66015625
1771540349.4632812,22.94921875,47.36328125,-7.8125,35.15625,41.015625
1771540349.4671874,18.5546875,53.7109375,-28.3203125,35.15625,40.0390625
1771540349.4710937,18.5546875,63.96484375,123.53515625,45.8984375,51.26953125
1771540349.480125,19.04296875,64.94140625,104.00390625,46.875,25.87890625
1771540349.4840312,21.484375,59.5703125,-33.69140625,36.1328125,46.38671875
1771540349.4879375,18.5546875,54.6875,-52.734375,26.85546875,59.5703125
1771540349.4918437,25.87890625,61.03515625,85.9375,34.66796875,69.3359375
1771540349.49575,37.109375,62.98828125,138.671875,52.24609375,51.26953125
1771540349.4996562,33.69140625,44.43359375,-167.96875,39.55078125,20.99609375
1771540349.5035625,25.390625,42.96875,-278.3203125,34.1796875,40.0390625
1771540349.5074687,29.296875,58.10546875,-2.44140625,49.8046875,28.80859375
1771540349.511375,33.203125,59.08203125,134.765625,37.109375,42.48046875
1771540349.5152812,24.90234375,49.8046875,-47.8515625,22.4609375,41.9921875
1771540349.5191875,20.5078125,54.6875,-79.1015625,34.1796875,76.66015625
