timestamps,TP9,AF7,AF8,TP10,Right AUX
1771544710.219125,-230.46875,-696.2890625,14.16015625,-240.72265625,23.92578125
1771544710.2230313,-226.5625,-577.1484375,14.6484375,-233.88671875,-14.6484375
1771544710.2269375,-151.85546875,-689.94140625,18.06640625,-229.00390625,29.296875
1771544710.2308438,-149.90234375,-808.10546875,15.625,-235.3515625,81.54296875
1771544710.23475,-213.8671875,-890.625,6.8359375,-243.1640625,25.87890625
1771544710.2386563,-201.66015625,-694.82421875,10.7421875,-212.890625,43.9453125
1771544710.2425625,-128.41796875,-602.5390625,13.18359375,-205.56640625,73.2421875
1771544710.2464688,-112.79296875,-815.4296875,4.39453125,-217.7734375,34.1796875
1771544710.250375,-179.6875,-979.98046875,5.37109375,-209.9609375,70.80078125
1771544710.2542813,-183.10546875,-697.75390625,7.8125,-180.6640625,38.57421875
1771544710.2581875,-105.95703125,-379.8828125,2.9296875,-174.8046875,52.734375
1771544710.2620938,-74.70703125,-698.73046875,3.90625,-169.43359375,79.1015625
1771544710.263125,-121.09375,-937.98828125,2.9296875,-157.71484375,19.53125
1771544710.2670312,-158.203125,-603.515625,-3.90625,-141.6015625,7.8125
1771544710.2709374,-104.00390625,-368.65234375,-12.20703125,-144.04296875,45.41015625
1771544710.2748437,-73.2421875,-706.54296875,-11.23046875,-185.05859375,6.34765625
1771544710.27875,-92.7734375,-1000.0,-12.20703125,-151.85546875,-40.0390625
1771544710.2826562,-125.9765625,-919.43359375,-11.71875,-103.02734375,-3.41796875
1771544710.2865624,-112.79296875,-645.99609375,-10.25390625,-121.58203125,8.7890625
1771544710.2904687,-22.94921875,-717.28515625,-9.27734375,-117.67578125,32.2265625
1771544710.294375,-7.32421875,-1000.0,-8.7890625,-104.4921875,83.49609375
1771544710.2982812,-83.984375,-822.265625,-5.859375,-97.16796875,65.4296875
1771544710.3021874,-57.12890625,-424.8046875,-3.41796875,-62.98828125,56.640625
1771544710.3060937,15.13671875,-505.859375,-18.5546875,-63.96484375,60.05859375
1771544710.308125,33.203125,-792.96875,-16.11328125,-69.82421875,50.78125
1771544710.3120313,-3.90625,-772.4609375,-8.7890625,-21.484375,46.38671875
1771544710.3159375,-21.97265625,-544.921875,-23.4375,10.7421875,44.921875
1771544710.3198438,84.9609375,-511.23046875,-29.78515625,36.62109375,81.54296875
1771544710.32375,151.85546875,-741.69921875,-23.4375,52.734375,57.6171875
1771544710.3276563,101.07421875,-947.75390625,-26.85546875,35.15625,21.484375
1771544710.3315625,69.82421875,-877.9296875,-38.57421875,79.58984375,62.01171875
1771544710.3354688,137.6953125,-894.04296875,-42.96875,124.51171875,47.36328125
1771544710.339375,209.9609375,-984.375,-40.52734375,116.2109375,16.11328125
1771544710.3432813,181.640625,-918.45703125,-43.45703125,125.9765625,33.69140625
1771544710.3471875,142.578125,-852.05078125,-50.78125,164.0625,19.53125
1771544710.3510938,187.98828125,-672.36328125,-47.36328125,211.42578125,-8.30078125
1771544710.353125,233.3984375,-638.18359375,-35.64453125,209.47265625,-5.37109375
1771544710.3570313,252.44140625,-855.95703125,-39.0625,202.1484375,7.8125
1771544710.3609376,204.58984375,-908.69140625,-44.921875,228.02734375,57.6171875
1771544710.3648438,184.08203125,-628.41796875,-48.33984375,226.5625,94.23828125
1771544710.36875,256.34765625,-527.83203125,-42.96875,221.19140625,77.63671875
1771544710.3726563,297.8515625,-866.2109375,-32.71484375,235.83984375,44.921875
1771544710.3765626,245.60546875,-1000.0,-29.296875,257.8125,40.0390625
1771544710.3804688,200.68359375,-833.0078125,-24.90234375,266.11328125,39.55078125
1771544710.384375,270.5078125,-636.71875,-14.16015625,280.2734375,77.63671875
1771544710.3882813,310.05859375,-823.2421875,-8.7890625,272.4609375,74.70703125
1771544710.3921876,274.4140625,-990.234375,-11.23046875,267.08984375,41.9921875
1771544710.3960938,216.30859375,-790.0390625,-18.5546875,290.52734375,33.203125
1771544710.399125,239.2578125,-449.21875,-16.6015625,279.78515625,69.82421875
1771544710.4030313,304.19921875,-646.97265625,-4.8828125,256.34765625,24.90234375
1771544710.4069376,293.45703125,-990.72265625,-2.9296875,246.58203125,-16.11328125
1771544710.4108438,215.8203125,-842.7734375,-9.765625,266.11328125,25.390625
1771544710.41475,216.796875,-513.18359375,-11.23046875,295.8984375,57.6171875
1771544710.4186563,281.73828125,-729.00390625,-8.7890625,275.87890625,20.01953125
1771544710.4225626,285.64453125,-1000.0,-10.25390625,236.81640625,-47.8515625
1771544710.4264688,215.8203125,-916.50390625,-11.23046875,243.1640625,-31.25
1771544710.430375,204.58984375,-561.5234375,-5.37109375,261.23046875,28.80859375
1771544710.4342813,264.16015625,-558.10546875,-5.37109375,251.46484375,39.0625
1771544710.4381876,268.06640625,-915.52734375,-7.8125,242.1875,14.6484375
1771544710.4420938,208.49609375,-1000.0,-3.41796875,230.95703125,26.3671875
1771544710.445125,163.0859375,-724.609375,0.9765625,248.53515625,-1.46484375
1771544710.4490314,209.47265625,-627.44140625,0.48828125,242.67578125,18.06640625
1771544710.4529376,259.27734375,-958.0078125,-2.9296875,202.1484375,34.66796875
1771544710.4568439,223.14453125,-998.53515625,-1.953125,202.63671875,-11.71875
1771544710.46075,144.53125,-701.66015625,0.9765625,214.84375,39.55078125
1771544710.4646564,168.45703125,-696.2890625,0.48828125,212.40234375,49.8046875
1771544710.4685626,248.046875,-981.93359375,3.90625,198.2421875,32.71484375
1771544710.4724689,244.140625,-962.890625,9.27734375,181.640625,22.94921875
1771544710.476375,157.2265625,-763.671875,11.23046875,185.546875,31.73828125
1771544710.4802814,132.8125,-558.59375,9.765625,191.89453125,28.3203125
1771544710.4841876,204.1015625,-558.10546875,11.71875,179.6875,43.9453125
1771544710.4880939,229.00390625,-747.55859375,15.625,168.9453125,23.4375
1771544710.503125,159.1796875,-808.59375,12.6953125,175.78125,23.92578125
1771544710.5070312,109.86328125,-685.546875,13.18359375,178.22265625,18.06640625
1771544710.5109375,165.0390625,-594.23828125,15.13671875,161.62109375,-1.46484375
1771544710.5148437,208.984375,-655.76171875,13.18359375,145.99609375,54.19921875
1771544710.51875,146.484375,-792.48046875,11.71875,149.4140625,78.125
1771544710.5226562,81.0546875,-855.46875,12.20703125,147.4609375,96.19140625
1771544710.5265625,113.76953125,-773.92578125,15.625,138.18359375,30.76171875
1771544710.5304687,161.1328125,-661.1328125,16.6015625,123.046875,36.1328125
1771544710.534375,130.859375,-824.70703125,14.16015625,116.2109375,66.40625
1771544710.5382812,57.12890625,-939.94140625,17.08984375,132.8125,61.03515625
1771544710.5421875,73.2421875,-589.35546875,20.5078125,123.046875,61.5234375
1771544710.5460937,143.06640625,-441.89453125,18.5546875,110.3515625,66.40625
1771544710.548125,144.04296875,-777.34375,16.6015625,105.46875,85.44921875
1771544710.5520313,68.359375,-833.984375,20.01953125,108.3984375,46.38671875
1771544710.5559375,60.05859375,-441.89453125,20.5078125,110.83984375,35.64453125
1771544710.5598438,111.328125,-473.6328125,14.16015625,90.33203125,42.96875
1771544710.56375,130.37109375,-853.02734375,16.11328125,70.80078125,32.71484375
1771544710.5676563,84.47265625,-983.3984375,21.97265625,82.03125,50.78125
1771544710.5715625,34.66796875,-709.47265625,25.390625,104.4921875,41.9921875
1771544710.5754688,81.54296875,-459.47265625,26.3671875,84.9609375,-8.30078125
1771544710.579375,119.140625,-756.34765625,21.97265625,70.80078125,8.7890625
1771544710.5832813,70.80078125,-1000.0,23.92578125,73.73046875,0.9765625
1771544710.5871875,13.671875,-675.29296875,28.3203125,89.35546875,-4.39453125
1771544710.5910938,41.015625,-433.59375,25.390625,85.9375,15.625
1771544710.593125,104.98046875,-661.62109375,26.3671875,70.80078125,9.27734375
1771544710.5970314,95.21484375,-832.51953125,28.80859375,75.68359375,28.3203125
1771544710.6009376,18.06640625,-609.86328125,28.3203125,71.77734375,52.734375
1771544710.6048439,12.20703125,-375.0,33.203125,67.87109375,47.36328125
1771544710.60875,84.9609375,-573.2421875,30.2734375,55.6640625,20.99609375
1771544710.6126564,93.75,-887.6953125,25.87890625,44.921875,30.76171875
1771544710.6165626,12.6953125,-968.26171875,27.83203125,44.43359375,10.25390625
1771544710.6204689,6.34765625,-736.81640625,27.34375,50.29296875,39.55078125
1771544710.624375,67.87109375,-817.87109375,21.97265625,49.8046875,83.0078125
1771544710.6282814,80.56640625,-955.078125,22.4609375,42.96875,35.15625
1771544710.6321876,36.1328125,-737.79296875,21.484375,38.57421875,5.37109375
1771544710.6360939,1.46484375,-651.85546875,22.94921875,42.96875,0.48828125
1771544710.638125,38.0859375,-563.96484375,25.87890625,45.8984375,14.6484375
1771544710.6420312,68.359375,-486.81640625,24.4140625,50.78125,48.828125
1771544710.6459374,38.57421875,-550.78125,26.85546875,51.26953125,82.51953125
1771544710.6498437,2.44140625,-641.11328125,26.3671875,33.203125,66.40625
1771544710.65375,22.4609375,-565.91796875,23.4375,32.2265625,23.92578125
1771544710.6576562,63.4765625,-656.25,27.83203125,59.08203125,9.27734375
1771544710.6615624,57.12890625,-803.22265625,28.80859375,43.45703125,-8.7890625
1771544710.6654687,12.20703125,-866.69921875,25.87890625,19.53125,-8.7890625
1771544710.669375,8.30078125,-931.15234375,27.83203125,23.4375,17.08984375
1771544710.6732812,35.15625,-586.42578125,35.15625,29.78515625,58.10546875
1771544710.6771874,35.15625,-496.09375,36.1328125,20.01953125,35.64453125
1771544710.6810937,-7.32421875,-741.2109375,35.15625,7.8125,-26.85546875
1771544710.683125,-20.5078125,-602.5390625,37.59765625,1.46484375,9.765625
1771544710.6870313,0.48828125,-385.25390625,36.1328125,-8.30078125,10.7421875
1771544710.6909375,-0.48828125,-446.77734375,36.1328125,-16.6015625,59.5703125
1771544710.6948438,-41.015625,-604.00390625,38.0859375,-25.390625,92.7734375
1771544710.69875,-60.05859375,-560.05859375,43.9453125,-38.57421875,25.390625
1771544710.7026563,-22.94921875,-546.38671875,49.8046875,-24.90234375,-6.8359375
1771544710.7065625,23.92578125,-664.55078125,46.38671875,9.765625,48.33984375
1771544710.7104688,1.46484375,-894.04296875,41.50390625,-18.06640625,90.33203125
1771544710.714375,-91.796875,-781.73828125,41.50390625,-91.30859375,84.47265625
1771544710.7182813,-80.078125,-312.5,36.62109375,-83.0078125,63.4765625
1771544710.7221875,21.484375,-475.09765625,32.71484375,-17.578125,4.8828125
1771544710.7260938,44.921875,-718.26171875,37.59765625,6.34765625,51.26953125
1771544710.728125,-27.83203125,-510.25390625,42.96875,-16.6015625,71.77734375
1771544710.7320313,-20.5078125,-341.30859375,47.36328125,-3.90625,0.0
1771544710.7359376,59.08203125,-376.953125,44.921875,50.78125,37.109375
1771544710.7398438,76.171875,-494.140625,37.59765625,46.875,61.03515625
1771544710.74375,45.8984375,-536.62109375,43.9453125,25.87890625,-3.90625
1771544710.7476563,30.2734375,-526.3671875,47.8515625,51.26953125,-2.9296875
1771544710.7515626,76.66015625,-663.0859375,38.57421875,75.68359375,27.83203125
1771544710.7554688,114.2578125,-834.47265625,40.0390625,70.3125,60.05859375
1771544710.759375,96.19140625,-601.5625,37.59765625,88.37890625,60.05859375
1771544710.7632813,70.3125,-444.82421875,35.15625,107.421875,-12.6953125
1771544710.7671876,102.05078125,-386.71875,25.390625,87.40234375,11.23046875
1771544710.7710938,157.2265625,-348.6328125,19.04296875,109.86328125,69.82421875
1771544710.774125,176.26953125,-422.8515625,19.53125,145.01953125,25.390625
1771544710.7780313,143.06640625,-620.60546875,24.90234375,130.859375,-21.484375
1771544710.7819376,129.39453125,-568.359375,32.2265625,118.1640625,96.6796875
1771544710.7858438,163.0859375,-410.15625,37.109375,145.99609375,88.37890625
1771544710.78975,175.78125,-436.5234375,36.1328125,175.78125,18.5546875
1771544710.7936563,146.484375,-609.86328125,23.92578125,164.0625,41.9921875
1771544710.7975626,137.20703125,-898.92578125,24.90234375,138.671875,12.20703125
1771544710.8014688,179.6875,-753.41796875,33.69140625,168.9453125,6.8359375
1771544710.805375,217.28515625,-422.8515625,45.41015625,205.078125,19.53125
1771544710.8092813,172.8515625,-562.98828125,34.1796875,172.8515625,20.99609375
1771544710.8131876,135.7421875,-539.0625,15.13671875,154.296875,57.6171875
1771544710.8170938,179.19921875,-334.9609375,25.87890625,188.96484375,28.3203125
1771544710.833125,209.47265625,-384.765625,39.55078125,217.28515625,-10.7421875
1771544710.8370314,197.75390625,-628.90625,31.73828125,223.14453125,-16.6015625
1771544710.8409376,149.90234375,-655.2734375,20.99609375,174.8046875,-9.765625
1771544710.8448439,178.22265625,-493.1640625,14.6484375,181.15234375,3.41796875
1771544710.84875,229.4921875,-447.265625,22.94921875,217.28515625,31.73828125
1771544710.8526564,204.1015625,-701.171875,31.73828125,204.1015625,79.1015625
1771544710.8565626,164.55078125,-1000.0,22.4609375,186.03515625,63.4765625
1771544710.8604689,191.40625,-702.63671875,17.08984375,193.359375,5.37109375
1771544710.864375,222.65625,-375.48828125,24.4140625,198.73046875,42.96875
1771544710.8682814,209.47265625,-562.98828125,29.78515625,195.3125,21.484375
1771544710.8721876,166.9921875,-646.97265625,26.85546875,193.84765625,15.625
1771544710.8760939,176.7578125,-421.875,30.76171875,212.890625,57.6171875
1771544710.878125,217.7734375,-330.56640625,28.80859375,227.5390625,84.9609375
1771544710.8820312,214.84375,-514.16015625,25.390625,224.12109375,85.44921875
1771544710.8859375,193.359375,-631.34765625,30.76171875,245.1171875,41.50390625
1771544710.8898437,171.38671875,-546.875,37.59765625,222.65625,-2.9296875
1771544710.89375,199.70703125,-469.7265625,32.71484375,211.42578125,13.671875
1771544710.8976562,240.72265625,-646.484375,24.90234375,236.328125,39.0625
1771544710.9015625,222.65625,-837.890625,33.203125,232.91015625,24.4140625
1771544710.9054687,146.484375,-849.12109375,42.48046875,193.84765625,-8.30078125
1771544710.909375,159.1796875,-757.32421875,44.921875,197.265625,-17.08984375
1771544710.9132812,233.88671875,-891.11328125,43.45703125,234.375,45.8984375
1771544710.9171875,212.890625,-923.828125,38.0859375,210.9375,49.31640625
1771544710.9210937,146.484375,-638.18359375,37.109375,189.94140625,18.5546875
1771544710.924125,139.6484375,-506.8359375,37.59765625,176.26953125,53.7109375
1771544710.9280312,175.78125,-447.75390625,40.0390625,166.9921875,102.05078125
1771544710.9319375,174.8046875,-482.91015625,41.50390625,182.12890625,47.36328125
1771544710.9358437,124.51171875,-572.265625,40.0390625,156.73828125,9.765625
1771544710.93975,101.07421875,-557.6171875,41.015625,145.01953125,47.8515625
1771544710.9436562,143.06640625,-637.6953125,39.55078125,155.76171875,26.3671875
1771544710.9475625,155.76171875,-703.125,34.1796875,139.16015625,70.80078125
1771544710.9514687,113.76953125,-690.4296875,32.2265625,139.16015625,78.61328125
1771544710.955375,91.796875,-829.58984375,38.0859375,137.20703125,8.7890625
1771544710.9592812,108.88671875,-976.07421875,33.203125,121.58203125,20.5078125
1771544710.9631875,132.8125,-735.3515625,29.296875,128.41796875,-1.46484375
1771544710.9670937,128.41796875,-569.3359375,37.59765625,128.41796875,6.8359375
1771544710.969125,97.16796875,-637.20703125,39.0625,114.74609375,32.71484375
1771544710.9730313,94.23828125,-505.37109375,35.64453125,106.93359375,18.5546875
1771544710.9769375,123.046875,-399.90234375,31.25,120.1171875,10.7421875
1771544710.9808438,128.90625,-529.78515625,29.296875,126.46484375,27.83203125
1771544710.98475,88.37890625,-700.1953125,35.64453125,106.4453125,0.9765625
1771544710.9886563,73.73046875,-713.8671875,37.109375,88.37890625,-19.04296875
1771544710.9925625,106.93359375,-661.62109375,33.69140625,103.515625,5.859375
1771544710.9964688,116.69921875,-623.046875,32.71484375,112.3046875,49.31640625
1771544711.000375,79.58984375,-897.4609375,33.203125,82.51953125,34.66796875
1771544711.0042813,38.57421875,-784.66796875,31.25,70.80078125,16.6015625
1771544711.0081875,68.359375,-437.5,28.3203125,74.70703125,38.0859375
1771544711.0120938,87.40234375,-661.62109375,30.76171875,76.171875,69.82421875
1771544711.014125,65.91796875,-827.1484375,31.73828125,68.359375,46.875
1771544711.0180314,40.0390625,-595.21484375,28.3203125,69.3359375,2.9296875
1771544711.0219376,49.31640625,-367.1875,27.34375,66.40625,33.69140625
1771544711.0258439,96.6796875,-483.88671875,28.80859375,70.80078125,30.2734375
1771544711.02975,91.30859375,-615.72265625,33.69140625,79.1015625,20.99609375
1771544711.0336564,49.31640625,-688.4765625,21.484375,64.94140625,22.94921875
1771544711.0375626,75.1953125,-590.8203125,4.39453125,80.56640625,33.69140625
1771544711.0414689,108.3984375,-630.37109375,26.3671875,87.40234375,64.453125
1771544711.045375,81.0546875,-901.3671875,47.8515625,72.265625,-0.48828125
1771544711.0492814,39.0625,-640.13671875,43.9453125,61.03515625,0.9765625
1771544711.0531876,40.52734375,-382.32421875,49.31640625,65.4296875,38.57421875
1771544711.0570939,74.21875,-370.60546875,56.15234375,78.61328125,29.78515625
1771544711.059125,88.8671875,-515.625,55.6640625,94.23828125,16.11328125
1771544711.0630312,75.68359375,-562.98828125,69.3359375,99.609375,35.15625
1771544711.0669374,53.22265625,-388.671875,78.61328125,94.7265625,75.68359375
1771544711.0708437,54.6875,-426.7578125,79.1015625,92.7734375,73.2421875
1771544711.07475,75.1953125,-447.265625,81.54296875,96.19140625,48.33984375
1771544711.0786562,64.453125,-549.31640625,76.66015625,84.47265625,25.390625
1771544711.0825624,18.5546875,-687.01171875,70.80078125,65.4296875,24.90234375
1771544711.0864687,32.2265625,-851.5625,68.84765625,68.84765625,-16.6015625
1771544711.090375,69.3359375,-706.54296875,66.89453125,82.51953125,16.6015625
1771544711.0942812,64.453125,-387.20703125,67.3828125,66.40625,20.5078125
1771544711.0981874,21.97265625,-513.671875,66.89453125,46.38671875,4.39453125
1771544711.1020937,21.484375,-463.8671875,64.453125,68.84765625,32.71484375
1771544711.104125,60.546875,-290.0390625,61.03515625,83.49609375,15.13671875
1771544711.1080313,72.75390625,-284.1796875,62.01171875,87.890625,35.64453125
1771544711.1119375,24.90234375,-456.0546875,56.640625,57.12890625,64.94140625
1771544711.1158438,9.765625,-541.015625,55.17578125,49.8046875,61.5234375
1771544711.11975,70.80078125,-382.8125,56.640625,82.51953125,7.8125
1771544711.1236563,93.75,-428.22265625,52.24609375,82.03125,0.48828125
1771544711.1275625,58.10546875,-728.02734375,53.7109375,71.77734375,61.5234375
1771544711.1314688,16.11328125,-848.6328125,57.12890625,56.15234375,20.5078125
1771544711.135375,52.734375,-449.70703125,52.24609375,59.5703125,-8.7890625
1771544711.1392813,72.75390625,-218.26171875,48.33984375,68.84765625,9.27734375
1771544711.1431875,41.015625,-510.7421875,51.26953125,60.05859375,64.94140625
1771544711.1470938,12.6953125,-616.2109375,50.78125,44.43359375,82.51953125
1771544711.148125,32.2265625,-263.671875,50.29296875,35.15625,54.19921875
1771544711.1520312,71.77734375,-225.09765625,49.31640625,52.24609375,24.4140625
1771544711.1559374,62.5,-392.08984375,48.828125,70.3125,24.90234375
1771544711.1598437,21.484375,-412.59765625,45.8984375,51.7578125,40.0390625
1771544711.16375,19.04296875,-318.359375,42.48046875,43.45703125,15.13671875
1771544711.1676562,68.359375,-347.65625,41.015625,66.89453125,39.55078125
1771544711.1715624,82.03125,-765.13671875,40.0390625,63.4765625,53.22265625
1771544711.1754687,42.96875,-926.7578125,41.9921875,46.875,-11.23046875
1771544711.179375,7.8125,-459.9609375,39.55078125,46.38671875,-7.32421875
1771544711.1832812,52.734375,-287.109375,42.48046875,55.6640625,30.76171875
1771544711.1871874,89.35546875,-382.8125,40.52734375,51.26953125,8.7890625
1771544711.1910937,41.50390625,-381.8359375,37.59765625,57.12890625,-22.4609375
1771544711.208125,-7.32421875,-308.10546875,40.52734375,38.57421875,31.25
1771544711.2120314,21.97265625,-291.50390625,39.0625,24.4140625,73.2421875
1771544711.2159376,60.546875,-335.44921875,34.66796875,39.0625,63.96484375
1771544711.2198439,45.41015625,-294.921875,34.1796875,35.64453125,75.68359375
1771544711.22375,6.8359375,-311.5234375,37.59765625,27.83203125,62.01171875
1771544711.2276564,18.06640625,-591.796875,40.0390625,38.57421875,32.2265625
1771544711.2315626,56.15234375,-789.55078125,38.0859375,33.203125,35.15625
1771544711.2354689,48.33984375,-553.22265625,31.25,23.4375,62.01171875
1771544711.239375,7.8125,-529.78515625,33.203125,17.08984375,42.48046875
1771544711.2432814,-4.8828125,-583.0078125,37.109375,14.6484375,12.20703125
1771544711.2471876,35.64453125,-459.47265625,33.69140625,30.76171875,24.90234375
1771544711.2510939,60.546875,-270.01953125,33.69140625,42.96875,91.30859375
1771544711.254125,27.34375,-359.86328125,33.69140625,33.203125,98.6328125
1771544711.2580314,-1.953125,-532.2265625,34.66796875,21.97265625,72.265625
1771544711.2619376,28.3203125,-388.18359375,32.71484375,32.2265625,118.1640625
1771544711.2658439,57.6171875,-276.3671875,29.296875,36.1328125,111.328125
1771544711.26975,38.0859375,-424.8046875,29.296875,22.4609375,100.09765625
1771544711.2736564,-7.32421875,-744.140625,31.73828125,10.7421875,22.94921875
1771544711.2775626,10.25390625,-798.828125,37.59765625,15.625,-13.671875
1771544711.2814689,52.24609375,-556.640625,33.203125,40.0390625,24.4140625
1771544711.285375,43.9453125,-563.96484375,27.83203125,44.921875,50.29296875
1771544711.2892814,-3.41796875,-903.80859375,35.15625,15.13671875,50.29296875
1771544711.2931876,-2.9296875,-907.2265625,34.66796875,5.859375,3.41796875
1771544711.2970939,42.48046875,-520.99609375,33.69140625,17.578125,52.734375
1771544711.299125,53.22265625,-600.5859375,39.55078125,36.1328125,95.703125
1771544711.3030312,4.39453125,-877.44140625,34.66796875,19.04296875,67.3828125
1771544711.3069375,-7.32421875,-645.99609375,33.203125,-5.37109375,80.078125
1771544711.3108437,46.38671875,-521.484375,33.69140625,15.13671875,31.25
1771544711.31475,47.8515625,-723.14453125,28.3203125,14.6484375,-7.32421875
1771544711.3186562,0.0,-949.21875,31.25,8.7890625,-14.6484375
1771544711.3225625,-15.625,-970.703125,34.66796875,1.953125,12.6953125
1771544711.3264687,11.71875,-803.7109375,31.25,12.20703125,66.89453125
1771544711.330375,28.3203125,-823.73046875,33.203125,23.4375,0.9765625
1771544711.3342812,11.23046875,-967.28515625,41.9921875,14.6484375,-36.62109375
1771544711.3381875,-11.23046875,-897.94921875,48.33984375,19.04296875,-53.7109375
1771544711.3420937,7.8125,-738.76953125,37.109375,28.3203125,-35.64453125
1771544711.344125,5.859375,-825.1953125,26.3671875,4.39453125,33.69140625
1771544711.3480313,-11.23046875,-982.421875,30.2734375,-29.296875,14.6484375
1771544711.3519375,-62.01171875,-909.66796875,26.85546875,-55.17578125,-27.34375
1771544711.3558438,-102.05078125,-793.9453125,34.1796875,-76.171875,12.20703125
1771544711.35975,-88.8671875,-890.13671875,39.55078125,-105.46875,14.6484375
1771544711.3636563,-100.5859375,-992.1875,34.66796875,-125.9765625,2.44140625
1771544711.3675625,-137.20703125,-961.42578125,33.203125,-139.16015625,15.13671875
1771544711.3714688,-178.7109375,-921.875,37.59765625,-166.50390625,-11.23046875
1771544711.375375,-163.57421875,-945.80078125,44.43359375,-172.36328125,6.34765625
1771544711.3792813,-155.2734375,-959.47265625,37.59765625,-181.640625,2.44140625
1771544711.3831875,-232.421875,-860.83984375,32.71484375,-232.91015625,0.48828125
1771544711.3870938,-276.3671875,-810.546875,32.71484375,-276.85546875,71.77734375
1771544711.388125,-235.83984375,-767.08984375,38.0859375,-251.953125,41.9921875
1771544711.3920312,-227.05078125,-697.75390625,44.43359375,-234.86328125,25.87890625
1771544711.3959374,-261.23046875,-811.03515625,38.0859375,-262.20703125,7.8125
1771544711.3998437,-295.41015625,-969.23828125,40.52734375,-296.38671875,20.01953125
1771544711.40375,-311.03515625,-846.19140625,33.69140625,-328.125,63.96484375
1771544711.4076562,-292.48046875,-830.56640625,25.390625,-329.1015625,34.66796875
1771544711.4115624,-277.34375,-954.58984375,33.69140625,-309.5703125,2.44140625
1771544711.4154687,-305.6640625,-954.58984375,43.45703125,-318.84765625,50.29296875
1771544711.419375,-331.0546875,-867.67578125,50.29296875,-327.1484375,103.02734375
1771544711.4232812,-300.78125,-683.10546875,51.26953125,-300.78125,8.7890625
1771544711.4271874,-281.73828125,-724.609375,43.9453125,-307.12890625,-31.25
1771544711.4310937,-334.47265625,-882.32421875,42.96875,-344.23828125,25.390625
1771544711.433125,-349.609375,-777.34375,43.9453125,-333.0078125,20.5078125
1771544711.4370313,-293.9453125,-539.55078125,46.38671875,-306.15234375,12.20703125
1771544711.4409375,-268.06640625,-599.609375,43.9453125,-313.96484375,48.828125
1771544711.4448438,-298.33984375,-812.98828125,38.57421875,-320.3125,41.015625
1771544711.44875,-320.3125,-763.18359375,44.921875,-315.4296875,6.8359375
1771544711.4526563,-301.7578125,-695.3125,52.24609375,-305.17578125,11.23046875
1771544711.4565625,-276.3671875,-851.07421875,57.12890625,-288.57421875,25.87890625
1771544711.4604688,-279.296875,-975.5859375,54.19921875,-295.8984375,39.55078125
1771544711.464375,-317.3828125,-905.76171875,50.29296875,-311.03515625,16.11328125
1771544711.4682813,-310.05859375,-575.68359375,49.8046875,-302.24609375,13.18359375
1771544711.4721875,-260.25390625,-572.75390625,38.0859375,-287.109375,20.01953125
1771544711.4760938,-235.3515625,-721.19140625,37.109375,-266.6015625,55.6640625
1771544711.478125,-264.6484375,-653.80859375,52.24609375,-264.16015625,44.43359375
1771544711.4820313,-285.15625,-503.90625,57.6171875,-273.4375,29.296875
1771544711.4859376,-234.375,-527.34375,55.17578125,-246.58203125,57.6171875
1771544711.4898438,-199.21875,-674.31640625,51.26953125,-228.02734375,58.59375
1771544711.49375,-232.91015625,-643.06640625,49.31640625,-249.0234375,78.125
1771544711.4976563,-260.7421875,-623.046875,47.36328125,-255.37109375,94.23828125
1771544711.5015626,-235.3515625,-755.859375,44.43359375,-248.53515625,86.9140625
1771544711.5054688,-195.3125,-963.8671875,46.875,-227.5390625,94.7265625
1771544711.509375,-196.77734375,-813.96484375,48.828125,-223.6328125,74.21875
1771544711.5132813,-216.796875,-542.48046875,42.48046875,-228.515625,47.36328125
1771544711.5171876,-202.1484375,-601.07421875,43.9453125,-206.54296875,35.64453125
1771544711.5210938,-165.52734375,-700.1953125,57.6171875,-188.4765625,2.9296875
1771544711.523125,-154.78515625,-639.16015625,51.7578125,-191.89453125,-3.90625
1771544711.5270312,-216.796875,-642.578125,41.50390625,-212.40234375,5.37109375
1771544711.5309374,-213.8671875,-566.89453125,45.8984375,-206.54296875,35.64453125
1771544711.5348437,-149.4140625,-505.859375,42.96875,-188.96484375,27.83203125
1771544711.53875,-151.3671875,-561.03515625,37.59765625,-174.31640625,33.203125
1771544711.5426562,-189.94140625,-746.09375,52.734375,-174.31640625,37.59765625
1771544711.5465624,-197.75390625,-971.6796875,58.59375,-193.359375,16.6015625
1771544711.5504687,-161.62109375,-812.01171875,45.41015625,-184.5703125,48.33984375
1771544711.554375,-152.34375,-541.50390625,45.41015625,-170.41015625,57.6171875
1771544711.5582812,-172.8515625,-686.03515625,50.78125,-179.19921875,57.12890625
1771544711.5621874,-206.54296875,-778.80859375,44.921875,-205.56640625,61.03515625
1771544711.5660937,-188.4765625,-578.125,37.109375,-196.77734375,23.92578125
1771544711.583125,-142.578125,-515.625,39.55078125,-164.0625,-10.25390625
1771544711.5870314,-169.43359375,-734.86328125,46.38671875,-173.828125,70.3125
1771544711.5909376,-191.89453125,-885.7421875,50.29296875,-191.89453125,47.8515625
1771544711.5948439,-167.96875,-555.17578125,50.29296875,-168.9453125,24.90234375
1771544711.59875,-150.87890625,-488.28125,51.7578125,-159.66796875,16.11328125
1771544711.6026564,-167.96875,-855.95703125,47.8515625,-184.5703125,-35.15625
1771544711.6065626,-199.21875,-955.078125,41.9921875,-184.08203125,13.18359375
1771544711.6104689,-179.19921875,-646.484375,41.015625,-167.48046875,14.6484375
1771544711.614375,-123.046875,-469.23828125,51.26953125,-141.11328125,13.18359375
1771544711.6182814,-114.2578125,-613.76953125,57.6171875,-130.37109375,74.70703125
1771544711.6221876,-163.57421875,-676.26953125,47.36328125,-164.0625,102.5390625
1771544711.6260939,-182.6171875,-501.46484375,39.55078125,-195.80078125,67.87109375
1771544711.629125,-144.04296875,-534.1796875,42.48046875,-158.69140625,60.05859375
1771544711.6330314,-122.55859375,-822.265625,46.38671875,-131.8359375,76.171875
1771544711.6369376,-143.5546875,-846.19140625,41.50390625,-148.4375,43.45703125
1771544711.6408439,-168.45703125,-600.5859375,40.52734375,-153.80859375,33.203125
1771544711.64475,-131.8359375,-471.19140625,41.015625,-141.6015625,49.8046875
1771544711.6486564,-103.02734375,-696.77734375,36.62109375,-142.578125,36.1328125
1771544711.6525626,-124.51171875,-954.1015625,46.875,-127.44140625,9.765625
1771544711.6564689,-157.71484375,-820.80078125,50.29296875,-128.90625,-1.953125
1771544711.660375,-136.71875,-571.2890625,44.43359375,-136.71875,26.85546875
1771544711.6642814,-91.796875,-852.5390625,44.921875,-121.58203125,-5.37109375
1771544711.6681876,-105.95703125,-891.6015625,43.45703125,-114.74609375,5.859375
1771544711.6720939,-142.578125,-630.859375,43.9453125,-132.8125,27.34375
1771544711.673125,-143.06640625,-600.5859375,41.9921875,-153.3203125,4.8828125
1771544711.6770313,-118.1640625,-556.15234375,47.8515625,-133.30078125,13.671875
1771544711.6809375,-107.421875,-614.2578125,56.640625,-113.28125,36.62109375
1771544711.6848438,-139.6484375,-727.05078125,61.5234375,-118.1640625,39.55078125
1771544711.68875,-161.62109375,-680.6640625,54.19921875,-136.23046875,57.6171875
1771544711.6926563,-126.953125,-710.9375,41.50390625,-135.7421875,45.8984375
1771544711.6965625,-103.515625,-761.71875,39.0625,-123.046875,36.62109375
1771544711.7004688,-124.0234375,-665.52734375,44.921875,-134.765625,51.26953125
1771544711.704375,-146.484375,-708.49609375,43.45703125,-128.41796875,85.44921875
1771544711.7082813,-116.2109375,-892.578125,39.0625,-112.3046875,70.3125
1771544711.7121875,-88.8671875,-665.0390625,41.9921875,-116.69921875,-4.8828125
1771544711.7160938,-96.19140625,-561.5234375,42.48046875,-120.60546875,15.625
1771544711.719125,-133.7890625,-647.4609375,40.0390625,-122.55859375,30.2734375
1771544711.7230313,-141.11328125,-467.7734375,51.7578125,-130.859375,23.4375
1771544711.7269375,-89.84375,-376.953125,51.7578125,-117.1875,-6.34765625
1771544711.7308438,-76.171875,-505.859375,46.875,-94.7265625,48.828125
1771544711.73475,-114.74609375,-671.38671875,47.8515625,-100.5859375,38.57421875
1771544711.7386563,-118.65234375,-648.92578125,41.9921875,-100.09765625,-2.9296875
1771544711.7425625,-65.91796875,-574.70703125,43.45703125,-65.91796875,47.36328125
1771544711.7464688,-46.875,-689.94140625,48.828125,-68.84765625,55.17578125
1771544711.750375,-91.796875,-953.125,44.43359375,-103.515625,27.34375
1771544711.7542813,-109.86328125,-841.796875,38.0859375,-102.5390625,44.921875
1771544711.7581875,-55.17578125,-347.16796875,40.52734375,-72.265625,83.49609375
1771544711.7620938,-16.6015625,-431.640625,40.52734375,-49.31640625,41.9921875
1771544711.763125,-48.828125,-708.0078125,33.69140625,-72.75390625,-27.34375
1771544711.7670312,-83.984375,-507.8125,28.80859375,-88.37890625,24.90234375
1771544711.7709374,-47.8515625,-343.75,28.80859375,-65.4296875,-2.44140625
1771544711.7748437,-15.13671875,-481.93359375,37.59765625,-53.7109375,-11.23046875
1771544711.77875,-19.53125,-575.68359375,43.45703125,-52.24609375,73.73046875
1771544711.7826562,-54.19921875,-658.203125,42.96875,-39.0625,66.89453125
1771544711.7865624,-59.08203125,-597.16796875,41.9921875,-32.71484375,24.90234375
1771544711.7904687,-13.18359375,-671.875,34.66796875,-31.25,-3.41796875
1771544711.794375,5.37109375,-988.28125,31.73828125,-19.53125,25.390625
1771544711.7982812,-27.34375,-769.53125,38.0859375,-23.4375,36.1328125
1771544711.8021874,-47.36328125,-350.5859375,46.38671875,-15.625,56.640625
1771544711.8060937,-16.6015625,-310.05859375,48.33984375,-0.48828125,73.73046875
1771544711.809125,-0.48828125,-416.50390625,43.45703125,2.9296875,81.0546875
1771544711.8130312,-27.83203125,-428.22265625,36.1328125,-4.39453125,80.56640625
1771544711.8169374,-69.82421875,-421.875,33.69140625,-24.90234375,33.69140625
1771544711.8208437,-34.66796875,-391.6015625,32.71484375,-11.23046875,37.109375
1771544711.82475,12.20703125,-390.625,37.109375,-8.7890625,72.265625
1771544711.8286562,-14.16015625,-576.171875,46.38671875,-17.578125,72.75390625
1771544711.8325624,-57.12890625,-740.234375,46.38671875,-26.3671875,13.671875
1771544711.8364687,-28.80859375,-869.140625,41.9921875,-24.90234375,5.37109375
1771544711.840375,20.99609375,-777.34375,39.55078125,-3.41796875,1.953125
1771544711.8442812,3.90625,-574.21875,39.55078125,-2.9296875,-7.32421875
1771544711.8481874,-42.48046875,-769.53125,41.50390625,-19.04296875,14.16015625
1771544711.8520937,-42.48046875,-696.2890625,42.96875,-18.06640625,22.4609375
1771544711.854125,4.8828125,-389.16015625,41.50390625,8.7890625,17.08984375
1771544711.8580313,20.99609375,-420.8984375,27.83203125,2.9296875,4.8828125
1771544711.8619375,4.39453125,-609.86328125,30.2734375,-19.53125,25.87890625
1771544711.8658438,-33.69140625,-508.7890625,43.9453125,-21.97265625,47.8515625
1771544711.86975,-24.90234375,-302.24609375,40.0390625,-20.5078125,33.69140625
1771544711.8736563,23.92578125,-541.50390625,41.50390625,6.8359375,1.46484375
1771544711.8775625,14.6484375,-891.6015625,41.50390625,16.6015625,7.8125
1771544711.8814688,-23.4375,-865.72265625,30.2734375,-9.765625,38.57421875
1771544711.885375,-13.18359375,-445.80078125,26.85546875,3.41796875,38.0859375
1771544711.8892813,18.5546875,-355.95703125,23.4375,22.4609375,10.25390625
1771544711.8931875,26.3671875,-578.125,20.5078125,11.71875,20.99609375
1771544711.8970938,-14.16015625,-548.33984375,31.25,8.30078125,51.26953125
1771544711.899125,-16.11328125,-410.64453125,38.0859375,13.18359375,56.640625
1771544711.9030313,30.2734375,-373.046875,38.0859375,34.66796875,70.80078125
1771544711.9069376,44.43359375,-641.6015625,36.62109375,45.41015625,37.109375
1771544711.9108438,0.9765625,-745.60546875,34.66796875,32.71484375,-17.578125
1771544711.91475,-16.11328125,-408.203125,35.64453125,15.625,13.671875
1771544711.9186563,30.76171875,-439.453125,43.9453125,28.3203125,22.4609375
1771544711.9225626,57.12890625,-887.6953125,49.8046875,59.5703125,-1.46484375
1771544711.9264688,7.32421875,-848.6328125,37.59765625,41.50390625,53.22265625
1771544711.930375,-28.80859375,-427.734375,22.94921875,13.671875,26.85546875
1771544711.9342813,23.92578125,-367.1875,24.90234375,29.296875,19.04296875
1771544711.9381876,50.29296875,-503.41796875,25.87890625,24.90234375,48.828125
1771544711.9420938,21.97265625,-519.53125,23.4375,-5.859375,43.9453125
1771544711.960125,4.39453125,-424.31640625,27.83203125,1.46484375,46.38671875
1771544711.9640312,38.57421875,-372.55859375,33.69140625,39.0625,37.59765625
1771544711.9679375,62.98828125,-545.8984375,23.92578125,41.50390625,48.828125
1771544711.9718437,45.41015625,-706.54296875,18.5546875,19.04296875,9.765625
1771544711.97575,13.671875,-583.0078125,20.01953125,11.71875,-20.01953125
1771544711.9796562,18.06640625,-617.67578125,21.484375,18.5546875,16.11328125
1771544711.9835625,60.05859375,-943.84765625,35.64453125,18.5546875,25.390625
1771544711.9874687,53.7109375,-790.52734375,39.0625,22.4609375,44.921875
1771544711.991375,15.625,-474.12109375,31.73828125,41.9921875,81.0546875
1771544711.9952812,15.625,-408.203125,33.69140625,50.78125,65.91796875
1771544711.9991875,55.17578125,-375.48828125,32.71484375,58.59375,18.5546875
1771544712.0030937,81.0546875,-384.765625,29.296875,66.89453125,43.45703125
1771544712.004125,33.203125,-500.9765625,25.390625,25.87890625,42.48046875
1771544712.0080314,-16.11328125,-552.24609375,20.99609375,15.625,-8.30078125
1771544712.0119376,14.6484375,-375.9765625,27.34375,41.015625,28.3203125
1771544712.0158439,60.546875,-308.59375,37.59765625,46.875,74.70703125
1771544712.01975,37.109375,-531.25,30.2734375,45.41015625,63.96484375
1771544712.0236564,-3.90625,-760.7421875,21.484375,19.53125,16.11328125
1771544712.0275626,17.578125,-616.69921875,26.3671875,20.01953125,44.43359375
1771544712.0314689,39.55078125,-421.38671875,25.390625,37.59765625,62.98828125
1771544712.035375,30.76171875,-505.859375,16.6015625,12.6953125,38.0859375
1771544712.0392814,9.765625,-905.2734375,12.6953125,2.9296875,61.03515625
1771544712.0431876,12.20703125,-744.140625,22.4609375,20.5078125,77.63671875
1771544712.0470939,31.73828125,-308.10546875,28.3203125,19.53125,38.0859375
1771544712.049125,33.203125,-499.0234375,28.80859375,19.04296875,29.296875
1771544712.0530312,15.13671875,-595.21484375,26.85546875,16.6015625,70.80078125
1771544712.0569375,20.01953125,-370.1171875,25.87890625,19.04296875,41.9921875
1771544712.0608437,54.6875,-243.1640625,27.83203125,38.0859375,25.390625
1771544712.06475,52.734375,-430.17578125,28.3203125,28.3203125,61.5234375
1771544712.0686562,23.4375,-675.78125,27.34375,32.2265625,98.6328125
1771544712.0725625,3.90625,-673.828125,26.85546875,33.69140625,45.8984375
1771544712.0764687,36.62109375,-496.58203125,28.80859375,43.9453125,9.27734375
1771544712.080375,68.84765625,-637.6953125,35.15625,59.5703125,50.78125
1771544712.0842812,47.8515625,-998.046875,33.69140625,38.0859375,46.875
1771544712.0881875,10.25390625,-708.49609375,25.87890625,17.08984375,20.5078125
1771544712.0920937,30.2734375,-281.73828125,23.92578125,37.109375,27.83203125
1771544712.108125,78.125,-384.27734375,27.83203125,67.3828125,8.30078125
1771544712.1120312,63.96484375,-513.671875,34.66796875,78.61328125,18.5546875
1771544712.1159375,6.34765625,-446.77734375,34.66796875,43.9453125,26.3671875
1771544712.1198437,-3.90625,-303.22265625,36.62109375,29.296875,51.26953125
1771544712.12375,47.36328125,-338.8671875,35.64453125,43.9453125,69.3359375
1771544712.1276562,61.03515625,-599.12109375,30.76171875,49.31640625,32.71484375
1771544712.1315625,24.4140625,-750.0,30.2734375,45.41015625,17.578125
1771544712.1354687,0.0,-570.3125,25.390625,19.04296875,35.64453125
1771544712.139375,21.97265625,-644.04296875,21.484375,25.390625,81.0546875
1771544712.1432812,53.7109375,-784.66796875,18.5546875,47.36328125,83.984375
1771544712.1471875,41.9921875,-629.8828125,20.99609375,30.2734375,34.66796875
1771544712.1510937,-3.41796875,-572.265625,23.4375,-3.41796875,20.5078125
1771544712.138125,14.16015625,-507.32421875,24.4140625,3.41796875,46.875
1771544712.1420312,58.10546875,-377.44140625,26.3671875,22.4609375,43.9453125
1771544712.1459374,43.9453125,-415.52734375,24.90234375,14.6484375,58.59375
1771544712.1498437,2.44140625,-515.625,28.3203125,8.30078125,53.22265625
1771544712.15375,-1.953125,-448.2421875,29.78515625,10.7421875,-14.6484375
1771544712.1576562,38.0859375,-437.98828125,27.34375,22.4609375,47.36328125
1771544712.1615624,55.17578125,-541.50390625,25.390625,43.9453125,102.05078125
1771544712.1654687,24.90234375,-657.2265625,22.4609375,44.43359375,19.04296875
1771544712.169375,15.13671875,-542.48046875,28.3203125,30.2734375,-10.7421875
1771544712.1732812,62.5,-285.64453125,37.109375,53.22265625,33.203125
1771544712.1771874,79.58984375,-351.07421875,34.66796875,67.3828125,56.640625
1771544712.1810937,34.1796875,-650.87890625,19.04296875,40.0390625,65.91796875
1771544712.184125,25.390625,-674.31640625,15.13671875,39.55078125,64.94140625
1771544712.1880312,68.359375,-351.5625,27.83203125,52.734375,34.66796875
1771544712.1919374,48.828125,-344.23828125,35.64453125,28.80859375,31.25
1771544712.1958437,10.25390625,-761.71875,32.71484375,28.80859375,32.71484375
1771544712.19975,-2.44140625,-858.88671875,34.66796875,40.0390625,21.97265625
1771544712.2036562,30.76171875,-537.109375,38.57421875,48.828125,1.953125
1771544712.2075624,61.03515625,-561.5234375,41.9921875,70.3125,26.85546875
1771544712.2114687,29.78515625,-866.69921875,37.109375,47.8515625,82.51953125
1771544712.215375,-15.625,-787.109375,29.78515625,2.9296875,62.5
1771544712.2192812,-2.44140625,-302.24609375,27.34375,-2.9296875,29.78515625
1771544712.2231874,45.8984375,-393.5546875,25.390625,16.11328125,-6.8359375
1771544712.2270937,48.828125,-610.3515625,28.3203125,23.4375,43.45703125
1771544712.229125,-3.41796875,-511.71875,28.80859375,8.7890625,59.5703125
1771544712.2330313,-5.859375,-274.90234375,34.66796875,25.87890625,74.21875
1771544712.2369375,47.8515625,-450.1953125,39.55078125,41.9921875,73.2421875
1771544712.2408438,62.98828125,-742.67578125,31.25,9.765625,41.015625
1771544712.24475,31.73828125,-606.93359375,18.5546875,-3.41796875,27.34375
1771544712.2486563,3.41796875,-526.3671875,21.484375,2.44140625,47.36328125
1771544712.2525625,24.90234375,-677.24609375,27.34375,16.6015625,38.0859375
1771544712.2564688,63.96484375,-880.859375,34.66796875,41.015625,25.390625
1771544712.260375,63.4765625,-695.80078125,38.57421875,57.12890625,31.73828125
1771544712.2642813,16.6015625,-472.65625,27.83203125,25.87890625,20.99609375
1771544712.2681875,18.06640625,-404.296875,21.484375,27.83203125,39.0625
1771544712.2720938,82.03125,-504.8828125,20.99609375,75.1953125,41.9921875
1771544712.274125,73.2421875,-537.59765625,27.83203125,54.6875,38.57421875
1771544712.2780313,14.6484375,-504.39453125,33.203125,26.85546875,49.8046875
1771544712.2819376,18.5546875,-458.984375,25.390625,46.38671875,44.921875
1771544712.2858438,70.80078125,-427.734375,30.2734375,81.0546875,3.41796875
1771544712.28975,75.1953125,-514.16015625,35.64453125,79.58984375,65.4296875
1771544712.2936563,17.08984375,-709.9609375,28.80859375,39.0625,62.98828125
1771544712.2975626,1.46484375,-906.73828125,25.390625,47.8515625,41.015625
1771544712.3014688,63.96484375,-893.5546875,25.87890625,82.51953125,-3.90625
1771544712.305375,81.54296875,-583.49609375,27.34375,64.453125,-11.23046875
1771544712.3092813,25.390625,-614.2578125,22.4609375,30.2734375,28.3203125
1771544712.3131876,-8.30078125,-635.7421875,20.01953125,16.6015625,-11.71875
1771544712.3170938,13.671875,-403.80859375,20.01953125,42.96875,-48.828125
1771544712.349125,48.33984375,-382.8125,23.92578125,55.17578125,-7.8125
1771544712.3530312,31.25,-593.26171875,29.78515625,13.18359375,50.78125
1771544712.3569374,-14.6484375,-685.05859375,23.92578125,-7.32421875,-10.7421875
1771544712.3608437,4.8828125,-394.04296875,19.04296875,10.7421875,1.46484375
1771544712.36475,49.31640625,-323.73046875,19.53125,21.484375,39.55078125
1771544712.3686562,55.6640625,-736.81640625,15.625,27.34375,12.6953125
1771544712.3725624,18.5546875,-953.61328125,15.625,2.9296875,11.71875
1771544712.3764687,9.27734375,-661.62109375,14.16015625,-10.25390625,12.6953125
1771544712.380375,46.38671875,-404.296875,14.6484375,5.859375,15.13671875
1771544712.3842812,53.22265625,-638.671875,15.13671875,6.8359375,6.8359375
1771544712.3881874,24.4140625,-742.67578125,10.7421875,16.11328125,37.59765625
1771544712.3920937,0.48828125,-381.34765625,13.671875,6.8359375,57.12890625
1771544712.378125,26.3671875,-278.3203125,17.578125,4.8828125,23.4375
1771544712.3820312,65.91796875,-504.8828125,17.08984375,28.3203125,-4.39453125
1771544712.3859375,45.8984375,-638.18359375,20.5078125,58.59375,-17.08984375
1771544712.3898437,-10.25390625,-457.03125,19.04296875,23.92578125,17.578125
1771544712.39375,12.20703125,-302.24609375,10.25390625,14.6484375,54.19921875
1771544712.3976562,67.3828125,-516.11328125,5.859375,40.52734375,49.31640625
1771544712.4015625,41.015625,-777.83203125,8.30078125,24.4140625,38.57421875
1771544712.4054687,6.8359375,-654.78515625,14.6484375,29.296875,41.9921875
1771544712.409375,30.2734375,-409.66796875,17.578125,59.08203125,54.6875
1771544712.4132812,38.57421875,-567.87109375,16.6015625,60.05859375,71.77734375
1771544712.4171875,30.76171875,-678.22265625,11.71875,54.19921875,15.13671875
1771544712.4210937,-0.9765625,-543.45703125,0.0,29.296875,-25.87890625
1771544712.423125,-9.765625,-435.546875,0.9765625,3.41796875,39.0625
1771544712.4270313,45.8984375,-787.109375,5.859375,28.3203125,55.6640625
1771544712.4309375,66.40625,-896.484375,0.9765625,43.45703125,9.27734375
1771544712.4348438,26.3671875,-533.203125,-5.859375,27.83203125,42.48046875
1771544712.43875,-16.6015625,-472.65625,-5.37109375,6.34765625,31.73828125
1771544712.4426563,29.296875,-535.15625,5.37109375,43.45703125,8.30078125
1771544712.4465625,84.9609375,-589.84375,16.6015625,65.91796875,71.77734375
1771544712.4504688,49.31640625,-508.7890625,7.8125,28.80859375,75.1953125
1771544712.454375,-9.27734375,-628.90625,-4.8828125,-4.8828125,44.921875
1771544712.4582813,30.2734375,-715.8203125,0.0,-0.9765625,82.03125
1771544712.4621875,86.9140625,-356.4453125,3.90625,40.0390625,102.5390625
1771544712.4660938,67.3828125,-494.62890625,-8.7890625,39.0625,10.7421875
1771544712.469125,19.53125,-750.0,-8.7890625,4.8828125,12.20703125
1771544712.4730313,32.71484375,-458.49609375,4.8828125,25.390625,57.6171875
1771544712.4769375,80.078125,-240.234375,10.25390625,64.94140625,32.2265625
1771544712.4808438,68.84765625,-403.3203125,15.625,52.734375,43.45703125
1771544712.48475,28.3203125,-497.55859375,18.06640625,36.1328125,109.86328125
1771544712.4886563,16.11328125,-547.8515625,9.27734375,53.7109375,35.64453125
1771544712.4925625,49.31640625,-532.2265625,1.46484375,40.52734375,4.39453125
1771544712.4964688,82.03125,-531.73828125,0.9765625,43.45703125,8.7890625
1771544712.500375,60.546875,-895.01953125,9.27734375,75.1953125,-17.578125
1771544712.5042813,9.27734375,-756.8359375,12.20703125,42.48046875,25.390625
1771544712.5081875,34.1796875,-263.671875,16.11328125,44.921875,20.01953125
1771544712.5120938,77.63671875,-435.546875,26.3671875,78.125,-14.6484375
1771544712.514125,59.08203125,-576.171875,32.2265625,94.23828125,59.08203125
1771544712.5180314,-13.671875,-375.9765625,21.97265625,48.828125,110.83984375
1771544712.5219376,-23.4375,-393.5546875,7.8125,-3.41796875,-16.11328125
1771544712.5258439,30.76171875,-595.21484375,9.765625,35.15625,-4.8828125
1771544712.52975,53.22265625,-690.91796875,11.71875,59.08203125,70.80078125
1771544712.5336564,29.78515625,-631.34765625,7.8125,41.015625,69.82421875
1771544712.5375626,-1.46484375,-477.05078125,5.859375,11.23046875,75.1953125
1771544712.5414689,20.99609375,-571.77734375,18.5546875,17.578125,54.19921875
1771544712.545375,44.43359375,-885.7421875,29.296875,28.3203125,29.296875
1771544712.5492814,10.7421875,-640.625,25.390625,0.48828125,36.62109375
1771544712.5531876,-2.9296875,-311.03515625,24.90234375,11.71875,62.98828125
1771544712.5570939,23.92578125,-326.66015625,32.2265625,30.76171875,38.0859375
1771544712.558125,30.2734375,-458.984375,29.296875,11.71875,9.27734375
1771544712.5620313,7.8125,-488.76953125,18.5546875,-2.44140625,12.20703125
1771544712.5659375,-4.39453125,-455.56640625,11.71875,7.8125,4.39453125
1771544712.5698438,33.69140625,-401.85546875,13.671875,31.73828125,9.27734375
1771544712.57375,61.5234375,-547.36328125,16.11328125,39.55078125,-11.71875
1771544712.5776563,43.45703125,-753.41796875,21.484375,34.1796875,-6.8359375
1771544712.5815625,14.16015625,-693.84765625,33.203125,37.109375,23.4375
1771544712.5854688,29.296875,-826.66015625,33.203125,43.45703125,21.484375
1771544712.589375,61.5234375,-868.1640625,29.78515625,49.8046875,45.41015625
1771544712.5932813,56.15234375,-520.99609375,29.78515625,44.43359375,60.546875
1771544712.5971875,11.71875,-590.33203125,18.5546875,25.390625,-33.69140625
1771544712.6010938,-5.37109375,-514.6484375,11.23046875,9.765625,-19.53125
1771544712.603125,52.734375,-294.921875,23.92578125,31.25,9.765625
1771544712.6070313,48.33984375,-433.59375,34.66796875,43.45703125,-46.875
1771544712.6109376,-7.32421875,-582.51953125,31.73828125,25.87890625,20.01953125
1771544712.6148438,-5.37109375,-531.25,43.45703125,32.71484375,2.9296875
1771544712.61875,12.6953125,-291.9921875,37.59765625,20.99609375,25.87890625
1771544712.6226563,22.4609375,-431.640625,18.06640625,9.765625,77.63671875
1771544712.6265626,4.8828125,-788.0859375,21.484375,6.8359375,67.87109375
1771544712.6304688,-13.671875,-975.5859375,17.578125,-7.32421875,44.43359375
1771544712.634375,33.69140625,-583.0078125,13.18359375,26.3671875,54.6875
1771544712.6382813,28.80859375,-285.15625,20.5078125,13.671875,60.05859375
1771544712.6421876,-12.20703125,-518.06640625,23.4375,-13.18359375,36.1328125
1771544712.6460938,-7.32421875,-533.69140625,30.2734375,5.37109375,37.59765625
1771544712.648125,18.06640625,-311.5234375,45.41015625,37.59765625,10.25390625
1771544712.6520312,39.55078125,-256.34765625,32.71484375,33.69140625,51.26953125
1771544712.6559374,21.97265625,-491.69921875,11.71875,-11.71875,62.98828125
1771544712.6598437,2.44140625,-568.359375,18.5546875,0.48828125,33.69140625
1771544712.66375,9.765625,-347.65625,22.94921875,17.578125,51.7578125
1771544712.6676562,36.1328125,-417.48046875,17.08984375,6.8359375,40.52734375
1771544712.6715624,48.33984375,-833.984375,20.5078125,9.765625,35.64453125
1771544712.6754687,30.2734375,-864.2578125,31.25,21.484375,22.94921875
1771544712.679375,13.18359375,-439.94140625,37.59765625,36.1328125,35.64453125
1771544712.6832812,41.015625,-401.85546875,37.59765625,46.875,62.5
1771544712.6871874,69.3359375,-670.41015625,36.1328125,51.26953125,43.45703125
1771544712.6910937,43.9453125,-679.6875,33.203125,38.57421875,13.18359375
1771544712.709125,-2.44140625,-416.50390625,34.1796875,20.99609375,69.3359375
1771544712.7130313,20.99609375,-332.03125,35.15625,30.76171875,69.3359375
1771544712.7169375,70.80078125,-451.171875,35.64453125,42.48046875,28.80859375
1771544712.7208438,43.45703125,-509.27734375,36.1328125,27.34375,7.8125
1771544712.72475,-19.04296875,-461.42578125,34.1796875,14.16015625,15.13671875
1771544712.7286563,-19.04296875,-548.828125,29.296875,6.8359375,75.68359375
1771544712.7325625,32.2265625,-809.08203125,25.390625,17.578125,60.05859375
1771544712.7364688,38.0859375,-653.80859375,30.2734375,44.43359375,9.765625
1771544712.740375,-7.8125,-508.7890625,39.0625,14.6484375,1.953125
1771544712.7442813,-14.16015625,-482.421875,39.55078125,-1.953125,0.48828125
1771544712.7481875,18.06640625,-334.9609375,39.0625,14.16015625,48.828125
1771544712.7520938,29.78515625,-443.84765625,40.0390625,14.16015625,37.109375
1771544712.753125,12.20703125,-632.32421875,41.015625,12.20703125,-41.9921875
1771544712.7570312,-6.8359375,-643.06640625,44.921875,18.5546875,-13.18359375
1771544712.7609375,19.53125,-471.6796875,41.015625,18.5546875,37.59765625
1771544712.7648437,41.9921875,-374.51171875,32.71484375,17.08984375,0.9765625
1771544712.76875,35.15625,-540.52734375,30.76171875,21.484375,-15.625
1771544712.7726562,-6.8359375,-672.36328125,34.1796875,2.44140625,-16.11328125
1771544712.7765625,-0.48828125,-630.859375,42.48046875,-12.6953125,-16.11328125
1771544712.7804687,36.1328125,-495.60546875,42.48046875,1.46484375,20.99609375
1771544712.784375,33.203125,-505.859375,38.0859375,9.27734375,47.36328125
1771544712.7882812,6.8359375,-872.0703125,40.0390625,17.08984375,30.2734375
1771544712.7921875,20.5078125,-730.95703125,39.0625,21.97265625,-12.20703125
1771544712.7960937,66.89453125,-309.5703125,34.1796875,40.52734375,-3.41796875
1771544712.799125,51.26953125,-445.80078125,35.64453125,41.015625,39.0625
1771544712.8030312,-1.953125,-680.6640625,48.33984375,-0.48828125,23.4375
1771544712.8069375,-15.625,-554.19921875,50.29296875,-2.9296875,43.45703125
1771544712.8108437,30.76171875,-234.86328125,45.41015625,22.94921875,68.359375
1771544712.81475,56.15234375,-503.90625,47.36328125,49.8046875,7.8125
1771544712.8186562,38.57421875,-903.3203125,49.31640625,66.89453125,-26.3671875
1771544712.8225625,21.97265625,-769.04296875,53.22265625,52.24609375,-24.4140625
1771544712.8264687,31.25,-369.140625,53.7109375,38.57421875,11.71875
1771544712.830375,39.0625,-505.37109375,46.875,42.48046875,42.48046875
1771544712.8342812,23.4375,-894.53125,39.55078125,33.203125,29.296875
1771544712.8381875,-16.11328125,-559.5703125,38.0859375,9.27734375,39.55078125
1771544712.8420937,-14.16015625,-225.09765625,47.8515625,5.37109375,68.84765625
1771544712.843125,15.625,-324.21875,54.6875,26.85546875,45.8984375
1771544712.8470314,26.85546875,-470.703125,52.24609375,33.203125,32.71484375
1771544712.8509376,2.44140625,-418.45703125,47.8515625,-0.48828125,55.17578125
1771544712.8548439,-28.3203125,-287.59765625,44.43359375,-12.20703125,74.70703125
1771544712.85875,6.34765625,-379.8828125,42.48046875,7.32421875,73.2421875
1771544712.8626564,25.87890625,-660.15625,41.015625,25.87890625,46.38671875
1771544712.8665626,-6.34765625,-715.33203125,33.69140625,8.30078125,23.92578125
1771544712.8704689,-35.64453125,-509.765625,29.78515625,-34.1796875,-13.18359375
1771544712.874375,5.37109375,-752.9296875,26.85546875,-10.7421875,-16.6015625
1771544712.8782814,46.875,-870.60546875,33.69140625,30.76171875,64.94140625
1771544712.8821876,16.11328125,-473.14453125,42.48046875,10.7421875,92.28515625
1771544712.8860939,-19.04296875,-418.45703125,39.0625,1.46484375,69.3359375
1771544712.888125,15.625,-333.0078125,41.50390625,26.3671875,81.0546875
1771544712.8920312,41.015625,-233.3984375,49.8046875,22.4609375,79.58984375
1771544712.8959374,27.34375,-322.265625,48.33984375,20.01953125,91.796875
1771544712.8998437,23.92578125,-491.69921875,47.36328125,33.69140625,40.52734375
1771544712.90375,28.3203125,-418.45703125,49.8046875,39.55078125,14.16015625
1771544712.9076562,51.26953125,-406.73828125,44.43359375,47.36328125,57.12890625
1771544712.9115624,58.10546875,-581.54296875,38.0859375,43.45703125,72.265625
1771544712.9154687,30.2734375,-760.25390625,39.0625,39.55078125,62.5
1771544712.919375,18.5546875,-967.7734375,41.50390625,42.48046875,25.390625
1771544712.9232812,48.828125,-553.7109375,36.62109375,41.9921875,66.89453125
1771544712.9271874,77.1484375,-229.98046875,36.62109375,59.08203125,133.30078125
1771544712.9310937,54.19921875,-447.75390625,37.59765625,43.45703125,87.40234375
1771544712.933125,-2.9296875,-403.80859375,39.55078125,3.90625,47.8515625
1771544712.9370313,5.859375,-173.828125,40.52734375,11.71875,56.15234375
1771544712.9409375,28.3203125,-299.8046875,42.96875,12.6953125,29.296875
1771544712.9448438,21.484375,-568.84765625,42.96875,12.6953125,8.30078125
1771544712.94875,0.0,-486.328125,36.1328125,21.97265625,41.50390625
1771544712.9526563,-8.30078125,-414.55078125,37.109375,-7.8125,19.53125
1771544712.9565625,12.6953125,-539.55078125,42.96875,-12.6953125,21.97265625
1771544712.9604688,29.78515625,-848.6328125,42.48046875,5.859375,57.12890625
1771544712.964375,2.9296875,-788.0859375,45.8984375,-6.34765625,94.23828125
1771544712.9682813,-3.90625,-370.60546875,45.8984375,-0.48828125,64.453125
1771544712.9721875,35.15625,-366.69921875,42.48046875,8.7890625,45.41015625
1771544712.9760938,50.29296875,-586.9140625,44.43359375,11.71875,56.15234375
1771544712.979125,8.7890625,-497.55859375,47.36328125,-2.44140625,57.12890625
1771544712.9830313,-16.6015625,-257.32421875,47.36328125,0.48828125,54.19921875
1771544712.9869375,28.3203125,-307.6171875,43.9453125,28.80859375,26.3671875
1771544712.9908438,55.17578125,-441.40625,45.41015625,25.87890625,41.9921875
1771544712.99475,31.73828125,-420.41015625,49.8046875,17.08984375,74.70703125
1771544712.9986563,1.953125,-463.37890625,45.8984375,20.01953125,34.1796875
1771544713.0025625,39.0625,-606.93359375,53.7109375,56.640625,23.4375
1771544713.0064688,75.68359375,-802.24609375,45.41015625,60.05859375,35.64453125
1771544713.010375,33.203125,-610.3515625,25.87890625,25.87890625,39.55078125
1771544713.0142813,-2.9296875,-353.02734375,30.2734375,27.83203125,58.10546875
1771544713.0181875,17.578125,-313.96484375,29.296875,28.3203125,32.71484375
1771544713.0220938,37.59765625,-432.12890625,32.2265625,20.5078125,18.5546875
1771544713.024125,36.62109375,-471.19140625,45.41015625,41.9921875,26.3671875
1771544713.0280313,9.27734375,-358.88671875,46.875,41.9921875,79.58984375
1771544713.0319376,-17.08984375,-400.87890625,40.0390625,18.5546875,90.8203125
1771544713.0358438,20.5078125,-392.08984375,37.109375,21.97265625,54.6875
1771544713.03975,47.8515625,-359.86328125,35.64453125,33.69140625,45.8984375
1771544713.0436563,11.23046875,-562.01171875,38.57421875,42.48046875,30.2734375
1771544713.0475626,-20.99609375,-847.65625,42.48046875,21.97265625,18.06640625
1771544713.0514688,-3.90625,-722.65625,36.1328125,1.953125,-14.16015625
1771544713.055375,16.11328125,-380.37109375,28.80859375,-0.48828125,5.859375
1771544713.0592813,4.39453125,-474.609375,32.71484375,-2.44140625,58.59375
1771544713.0631876,-20.5078125,-530.2734375,37.109375,4.8828125,7.32421875
1771544713.0670938,0.48828125,-315.91796875,39.0625,17.578125,-26.85546875
1771544713.069125,20.5078125,-277.83203125,35.64453125,20.01953125,-4.8828125
1771544713.0730312,-0.48828125,-550.78125,28.3203125,-5.37109375,35.15625
1771544713.0769374,-21.97265625,-698.2421875,25.87890625,-22.4609375,-1.953125
1771544713.0808437,-17.08984375,-369.140625,24.90234375,-10.25390625,-4.8828125
1771544713.08475,13.18359375,-244.140625,24.4140625,7.32421875,24.90234375
1771544713.0886562,19.53125,-671.38671875,33.203125,20.01953125,4.39453125
1771544713.0925624,-5.37109375,-989.2578125,39.55078125,14.16015625,31.73828125
1771544713.0964687,-0.48828125,-611.81640625,34.1796875,11.71875,-3.90625
1771544713.100375,46.875,-299.8046875,39.0625,37.109375,-23.92578125
1771544713.1042812,63.4765625,-470.21484375,41.9921875,45.8984375,8.7890625
1771544713.1081874,29.78515625,-589.84375,40.0390625,27.34375,9.27734375
1771544713.1120937,-0.48828125,-482.91015625,36.1328125,21.484375,-20.01953125
1771544713.128125,22.4609375,-331.0546875,28.80859375,38.57421875,-16.11328125
1771544713.1320312,62.5,-458.49609375,29.78515625,65.91796875,3.41796875
1771544713.1359375,53.22265625,-524.90234375,32.2265625,55.6640625,52.24609375
1771544713.1398437,-0.9765625,-423.33984375,29.296875,2.9296875,73.2421875
1771544713.14375,-0.48828125,-340.33203125,31.25,-7.32421875,68.359375
1771544713.1476562,35.15625,-653.3203125,31.25,19.04296875,79.58984375
1771544713.1515625,40.0390625,-933.10546875,32.71484375,41.015625,23.4375
1771544713.1554687,16.11328125,-539.0625,36.62109375,29.78515625,29.78515625
1771544713.159375,5.37109375,-346.6796875,31.25,-2.9296875,40.0390625
1771544713.1632812,23.92578125,-511.71875,25.390625,10.7421875,28.80859375
1771544713.1671875,20.5078125,-518.5546875,27.83203125,8.30078125,31.73828125
1771544713.1710937,-23.92578125,-428.22265625,31.73828125,-7.32421875,34.1796875
1771544713.174125,-43.9453125,-416.50390625,34.66796875,-9.27734375,30.2734375
1771544713.1780312,-7.8125,-416.50390625,35.64453125,0.48828125,11.23046875
1771544713.1819375,24.4140625,-368.65234375,36.1328125,21.484375,65.4296875
1771544713.1858437,11.23046875,-401.85546875,36.1328125,16.6015625,83.984375
1771544713.18975,-21.484375,-464.84375,31.25,0.48828125,36.1328125
1771544713.1936562,8.7890625,-533.69140625,27.83203125,-9.765625,1.953125
1771544713.1975625,39.55078125,-623.046875,35.64453125,31.73828125,21.484375
1771544713.2014687,21.97265625,-662.109375,33.203125,36.1328125,38.0859375
1771544713.205375,11.71875,-707.51953125,21.484375,10.25390625,46.38671875
1771544713.2092812,38.57421875,-839.35546875,21.97265625,13.671875,59.08203125
1771544713.2131875,33.69140625,-546.875,32.2265625,-0.48828125,78.125
1771544713.2170937,17.08984375,-355.95703125,38.57421875,4.39453125,72.75390625
1771544713.219125,-11.23046875,-481.4453125,35.64453125,23.4375,37.59765625
1771544713.2230313,19.04296875,-353.02734375,37.109375,48.33984375,0.9765625
1771544713.2269375,89.35546875,-214.35546875,44.43359375,79.58984375,11.71875
1771544713.2308438,72.265625,-325.1953125,43.45703125,72.265625,70.3125
1771544713.23475,8.30078125,-502.44140625,32.71484375,18.06640625,65.91796875
1771544713.2386563,12.6953125,-524.4140625,21.484375,20.01953125,9.765625
1771544713.2425625,72.265625,-468.26171875,17.578125,52.24609375,20.5078125
1771544713.2464688,60.546875,-458.0078125,24.90234375,39.55078125,83.984375
1771544713.250375,29.78515625,-824.21875,39.55078125,34.1796875,83.0078125
1771544713.2542813,2.9296875,-813.4765625,40.0390625,28.3203125,86.42578125
1771544713.2581875,8.30078125,-247.55859375,37.59765625,15.625,59.5703125
1771544713.2620938,38.0859375,-311.5234375,38.57421875,21.484375,22.4609375
1771544713.263125,31.25,-533.69140625,35.15625,35.15625,32.2265625
1771544713.2670312,-4.8828125,-345.703125,35.15625,20.99609375,79.58984375
1771544713.2709374,6.8359375,-150.87890625,36.62109375,21.484375,59.08203125
1771544713.2748437,54.19921875,-333.984375,40.0390625,46.38671875,-11.23046875
1771544713.27875,40.0390625,-500.0,30.2734375,24.90234375,30.2734375
1771544713.2826562,6.34765625,-540.0390625,15.13671875,4.39453125,102.05078125
1771544713.2865624,-11.71875,-419.921875,18.06640625,2.9296875,33.203125
1771544713.2904687,11.23046875,-518.5546875,35.15625,11.23046875,-42.48046875
1771544713.294375,27.83203125,-816.89453125,37.109375,18.06640625,52.24609375
1771544713.2982812,-10.7421875,-543.9453125,29.78515625,0.9765625,91.796875
1771544713.3021874,-24.90234375,-310.05859375,28.80859375,0.9765625,12.6953125
1771544713.3060937,13.671875,-339.84375,28.80859375,18.06640625,10.25390625
1771544713.308125,50.29296875,-383.7890625,34.1796875,38.57421875,57.6171875
1771544713.3120313,26.85546875,-383.7890625,37.109375,38.0859375,48.33984375
1771544713.3159375,-15.13671875,-380.37109375,32.2265625,24.90234375,7.32421875
1771544713.3198438,20.99609375,-364.2578125,27.34375,44.921875,6.34765625
1771544713.32375,45.41015625,-328.125,32.2265625,37.109375,62.5
1771544713.3276563,39.0625,-476.5625,37.109375,16.11328125,87.40234375
1771544713.3315625,-7.8125,-600.09765625,36.62109375,0.0,65.4296875
1771544713.3354688,-17.578125,-750.0,38.57421875,2.9296875,20.01953125
1771544713.339375,46.875,-699.21875,38.0859375,37.109375,-11.23046875
1771544713.3432813,60.546875,-384.765625,37.59765625,56.15234375,16.11328125
1771544713.3471875,13.18359375,-413.57421875,35.64453125,31.73828125,69.3359375
1771544713.3510938,-27.34375,-376.46484375,32.71484375,5.859375,36.1328125
1771544713.354125,23.4375,-201.66015625,25.390625,20.5078125,19.04296875
1771544713.3580313,66.40625,-277.34375,21.97265625,35.15625,72.265625
1771544713.3619375,6.34765625,-553.22265625,27.83203125,19.04296875,97.16796875
1771544713.3658438,-35.64453125,-550.29296875,37.59765625,-14.6484375,65.91796875
1771544713.36975,0.48828125,-287.109375,40.52734375,-6.34765625,-8.30078125
1771544713.3736563,38.0859375,-359.375,34.1796875,23.92578125,44.43359375
1771544713.3775625,29.296875,-724.12109375,32.71484375,14.6484375,45.41015625
1771544713.3814688,-18.06640625,-889.6484375,36.1328125,9.765625,-41.015625
1771544713.385375,3.41796875,-431.15234375,34.1796875,22.4609375,-16.6015625
1771544713.3892813,46.38671875,-270.5078125,34.1796875,24.4140625,-33.203125
1771544713.3931875,14.16015625,-526.85546875,37.109375,17.08984375,-35.15625
1771544713.3970938,-19.04296875,-492.67578125,35.15625,8.30078125,18.5546875
1771544713.402125,-2.44140625,-217.28515625,37.109375,20.99609375,28.3203125
1771544713.4060311,34.66796875,-196.77734375,37.109375,28.80859375,27.34375
1771544713.4099374,23.92578125,-417.48046875,36.1328125,18.06640625,37.109375
1771544713.4138436,-20.5078125,-539.0625,40.52734375,17.08984375,56.640625
1771544713.41775,-20.99609375,-441.40625,37.59765625,11.23046875,29.78515625
1771544713.4216561,27.34375,-375.0,36.62109375,25.87890625,10.25390625
1771544713.4255624,47.36328125,-770.01953125,38.0859375,47.8515625,45.8984375
1771544713.4294686,24.90234375,-930.17578125,37.109375,31.73828125,46.38671875
1771544713.433375,1.46484375,-458.0078125,36.62109375,17.578125,21.97265625
1771544713.4372811,33.69140625,-284.66796875,39.0625,29.296875,-20.01953125
1771544713.4411874,56.15234375,-413.0859375,37.59765625,44.43359375,5.37109375
1771544713.4450936,39.55078125,-384.765625,37.59765625,43.45703125,62.98828125
1771544713.458125,20.99609375,-274.4140625,27.83203125,29.78515625,77.1484375
1771544713.4620314,45.8984375,-247.0703125,15.625,47.8515625,60.05859375
1771544713.4659376,62.98828125,-393.06640625,30.2734375,44.921875,-8.30078125
1771544713.4698439,25.87890625,-438.96484375,47.8515625,22.94921875,-2.44140625
1771544713.47375,-11.71875,-351.07421875,43.9453125,13.18359375,48.33984375
1771544713.4776564,0.48828125,-485.83984375,33.69140625,7.32421875,46.875
1771544713.4815626,43.45703125,-739.2578125,28.80859375,16.6015625,34.66796875
1771544713.4854689,61.5234375,-523.92578125,29.296875,27.83203125,74.21875
1771544713.489375,39.0625,-323.2421875,37.109375,33.69140625,72.75390625
1771544713.4932814,16.11328125,-504.39453125,41.9921875,32.2265625,33.69140625
1771544713.4971876,24.4140625,-582.03125,35.64453125,8.30078125,-10.25390625
1771544713.5010939,26.85546875,-413.0859375,24.4140625,-1.46484375,-36.62109375
1771544713.503125,11.23046875,-437.5,25.390625,21.484375,5.37109375
1771544713.5070312,-18.5546875,-433.10546875,24.4140625,6.8359375,30.76171875
1771544713.5109375,3.90625,-309.5703125,19.53125,-5.859375,0.0
1771544713.5148437,37.109375,-270.5078125,17.578125,10.7421875,23.4375
1771544713.51875,24.4140625,-436.03515625,24.90234375,14.16015625,13.671875
1771544713.5226562,-26.85546875,-599.12109375,36.1328125,0.9765625,1.953125
1771544713.5265625,-24.90234375,-499.51171875,33.203125,4.39453125,50.29296875
1771544713.5304687,29.78515625,-346.6796875,29.78515625,34.1796875,30.2734375
1771544713.534375,33.203125,-473.14453125,32.71484375,33.69140625,26.85546875
1771544713.5382812,-4.39453125,-914.0625,36.1328125,17.578125,-2.9296875
1771544713.5421875,-5.859375,-796.875,35.64453125,24.4140625,22.4609375
1771544713.5460937,36.1328125,-307.6171875,34.1796875,42.96875,83.984375
1771544713.548125,61.5234375,-398.92578125,34.66796875,52.734375,60.05859375
1771544713.5520313,38.0859375,-531.25,29.78515625,29.78515625,44.921875
1771544713.5559375,2.44140625,-296.38671875,25.390625,16.6015625,42.48046875
1771544713.5598438,14.6484375,-171.38671875,28.80859375,31.25,-9.765625
1771544713.56375,34.66796875,-333.49609375,30.2734375,38.57421875,44.43359375
1771544713.5676563,31.73828125,-595.703125,37.59765625,24.90234375,83.0078125
1771544713.5715625,14.16015625,-593.26171875,37.109375,11.71875,48.33984375
1771544713.5754688,20.99609375,-236.81640625,32.71484375,18.06640625,55.6640625
1771544713.579375,38.57421875,-413.0859375,36.1328125,42.48046875,57.6171875
1771544713.5832813,35.15625,-789.55078125,44.43359375,48.828125,87.890625
1771544713.5871875,-3.41796875,-547.36328125,41.9921875,32.71484375,86.9140625
1771544713.5910938,-15.13671875,-274.90234375,28.3203125,0.0,77.1484375
1771544713.593125,4.39453125,-298.828125,23.92578125,-29.296875,120.60546875
1771544713.5970314,11.71875,-443.84765625,21.484375,-23.92578125,100.09765625
1771544713.6009376,-12.20703125,-365.234375,18.06640625,-25.87890625,41.015625
1771544713.6048439,-17.578125,-246.09375,19.53125,-13.671875,44.43359375
1771544713.60875,13.18359375,-236.81640625,28.3203125,-0.9765625,59.08203125
1771544713.6126564,15.625,-478.02734375,42.96875,0.9765625,36.1328125
1771544713.6165626,-12.20703125,-632.8125,41.015625,-5.859375,27.34375
1771544713.6204689,-39.55078125,-429.6875,34.1796875,-7.8125,48.33984375
1771544713.624375,-10.7421875,-512.6953125,37.109375,5.859375,71.2890625
1771544713.6282814,20.99609375,-574.21875,33.203125,11.71875,44.921875
1771544713.6321876,5.37109375,-384.27734375,26.3671875,15.625,6.8359375
1771544713.6360939,-24.90234375,-425.78125,25.87890625,-1.46484375,28.80859375
1771544713.639125,1.46484375,-334.47265625,29.296875,4.8828125,70.80078125
1771544713.6430314,50.29296875,-331.0546875,33.69140625,33.69140625,48.828125
1771544713.6469376,40.0390625,-428.22265625,32.2265625,34.66796875,3.41796875
1771544713.6508439,7.8125,-508.30078125,29.78515625,27.34375,56.640625
1771544713.65475,8.30078125,-479.4921875,26.85546875,20.99609375,59.5703125
1771544713.6586564,46.875,-464.84375,24.90234375,40.0390625,-14.16015625
1771544713.6625626,66.40625,-623.53515625,29.296875,46.38671875,-33.69140625
1771544713.6664689,31.73828125,-695.3125,26.3671875,10.25390625,18.5546875
1771544713.670375,10.25390625,-596.6796875,18.06640625,10.25390625,14.6484375
1771544713.6742814,48.828125,-241.2109375,20.5078125,32.2265625,23.92578125
1771544713.6781876,65.91796875,-215.33203125,27.34375,42.96875,48.33984375
1771544713.6820939,39.0625,-705.078125,23.92578125,32.71484375,-36.62109375
1771544713.683125,0.48828125,-757.32421875,23.92578125,-0.48828125,15.13671875
1771544713.6870313,10.7421875,-189.453125,30.2734375,0.48828125,84.9609375
1771544713.6909375,41.9921875,-223.6328125,29.296875,20.01953125,25.390625
1771544713.6948438,52.24609375,-518.5546875,25.390625,26.85546875,59.5703125
1771544713.69875,15.13671875,-436.5234375,25.87890625,25.87890625,110.3515625
1771544713.7026563,0.9765625,-317.3828125,28.3203125,3.90625,44.921875
1771544713.7065625,35.15625,-454.58984375,26.3671875,2.9296875,22.94921875
1771544713.7104688,32.2265625,-816.89453125,19.04296875,1.953125,8.7890625
1771544713.714375,6.8359375,-892.08984375,11.23046875,-2.44140625,-26.85546875
1771544713.7182813,-16.11328125,-387.20703125,14.6484375,-1.953125,-37.59765625
1771544713.7221875,2.9296875,-271.484375,28.3203125,-1.46484375,-27.34375
1771544713.7260938,28.3203125,-444.82421875,34.66796875,21.97265625,8.7890625
1771544713.728125,0.9765625,-386.23046875,28.3203125,23.92578125,43.45703125
1771544713.7320313,-20.99609375,-205.078125,25.87890625,6.8359375,56.640625
1771544713.7359376,28.80859375,-242.1875,29.78515625,22.94921875,15.13671875
1771544713.7398438,69.3359375,-448.2421875,31.73828125,38.0859375,-31.73828125
1771544713.74375,35.64453125,-437.01171875,31.73828125,24.4140625,17.08984375
1771544713.7476563,-16.6015625,-429.19921875,19.04296875,-7.32421875,44.43359375
1771544713.7515626,13.18359375,-552.734375,13.671875,12.20703125,6.8359375
1771544713.7554688,54.6875,-902.83203125,20.5078125,45.41015625,13.671875
1771544713.759375,17.08984375,-752.44140625,27.34375,22.4609375,48.33984375
1771544713.7632813,-20.01953125,-333.49609375,28.80859375,0.48828125,56.640625
1771544713.7671876,5.37109375,-231.4453125,29.78515625,14.6484375,56.640625
1771544713.7710938,48.828125,-229.4921875,34.1796875,33.203125,51.26953125
1771544713.773125,52.24609375,-252.44140625,34.66796875,46.38671875,78.125
1771544713.7770312,9.765625,-325.1953125,29.78515625,20.99609375,61.5234375
1771544713.7809374,-10.25390625,-334.9609375,33.203125,5.859375,24.90234375
1771544713.7848437,28.3203125,-224.12109375,38.0859375,22.94921875,47.36328125
1771544713.78875,41.50390625,-270.5078125,36.62109375,19.53125,49.31640625
1771544713.7926562,4.39453125,-522.94921875,37.59765625,21.484375,22.4609375
1771544713.7965624,-19.53125,-799.31640625,38.0859375,4.39453125,31.25
1771544713.8004687,17.08984375,-604.98046875,27.83203125,-1.46484375,65.91796875
1771544713.804375,46.875,-367.67578125,23.4375,22.94921875,42.96875
1771544713.8082812,28.80859375,-578.125,30.76171875,21.484375,-17.578125
1771544713.8121874,0.9765625,-577.1484375,32.2265625,7.32421875,-15.625
1771544713.8160937,4.8828125,-267.578125,36.62109375,15.13671875,8.7890625
1771544713.819125,30.2734375,-148.92578125,37.109375,20.5078125,42.48046875
1771544713.8230312,45.41015625,-436.5234375,32.71484375,33.69140625,76.66015625
1771544713.8269374,10.7421875,-624.0234375,31.73828125,28.3203125,60.546875
1771544713.8308437,2.9296875,-291.015625,29.78515625,16.6015625,37.59765625
1771544713.83475,47.8515625,-112.3046875,36.62109375,41.015625,62.5
1771544713.8386562,72.265625,-523.4375,34.66796875,61.5234375,79.1015625
1771544713.8425624,44.921875,-887.20703125,28.80859375,59.5703125,73.2421875
1771544713.8464687,11.71875,-486.81640625,30.2734375,29.296875,24.4140625
1771544713.850375,30.2734375,-195.3125,27.83203125,26.3671875,-20.99609375
1771544713.8542812,56.15234375,-348.6328125,26.3671875,56.640625,24.90234375
1771544713.8581874,39.0625,-552.24609375,26.3671875,57.6171875,22.4609375
1771544713.8620937,14.16015625,-374.0234375,25.87890625,41.015625,49.8046875
1771544713.878125,32.71484375,-139.16015625,25.390625,40.52734375,30.76171875
1771544713.8820312,58.10546875,-420.8984375,23.92578125,31.73828125,11.23046875
1771544713.8859375,41.50390625,-599.12109375,21.97265625,33.69140625,19.04296875
1771544713.8898437,-0.48828125,-374.0234375,28.3203125,21.484375,18.5546875
1771544713.89375,6.34765625,-154.78515625,34.66796875,13.671875,60.546875
1771544713.8976562,41.015625,-332.03125,33.203125,40.52734375,94.7265625
1771544713.9015625,32.71484375,-475.09765625,28.80859375,40.0390625,100.09765625
1771544713.9054687,-6.8359375,-347.65625,24.90234375,-3.90625,54.6875
1771544713.909375,-8.30078125,-210.9375,23.92578125,-10.25390625,78.61328125
1771544713.9132812,39.55078125,-457.03125,26.85546875,28.80859375,98.6328125
1771544713.9171875,51.26953125,-585.44921875,27.34375,35.64453125,41.015625
1771544713.9210937,5.859375,-381.34765625,22.94921875,7.8125,22.94921875
1771544713.923125,-18.06640625,-359.86328125,13.18359375,-9.765625,20.99609375
1771544713.9270313,25.390625,-400.390625,11.71875,7.32421875,44.921875
1771544713.9309375,41.015625,-322.265625,16.11328125,18.06640625,110.3515625
1771544713.9348438,9.765625,-292.48046875,20.5078125,20.99609375,77.63671875
1771544713.93875,6.8359375,-445.80078125,25.87890625,28.80859375,37.59765625
1771544713.9426563,40.52734375,-540.52734375,25.87890625,33.203125,49.31640625
1771544713.9465625,59.5703125,-546.875,25.390625,37.109375,-10.25390625
1771544713.9504688,60.05859375,-427.24609375,27.34375,31.73828125,11.23046875
1771544713.954375,25.87890625,-541.9921875,24.90234375,37.59765625,41.015625
1771544713.9582813,15.625,-685.546875,14.6484375,50.29296875,9.765625
1771544713.9621875,60.546875,-354.00390625,11.23046875,65.91796875,27.34375
1771544713.9660938,61.5234375,-359.375,20.99609375,59.08203125,31.25
1771544713.968125,5.37109375,-495.1171875,27.83203125,24.4140625,-3.90625
1771544713.9720314,-5.859375,-299.31640625,27.34375,14.16015625,13.671875
1771544713.9759376,48.828125,-100.09765625,27.83203125,38.0859375,52.734375
1771544713.9798439,63.4765625,-344.7265625,32.71484375,58.59375,61.03515625
1771544713.98375,24.90234375,-614.2578125,32.71484375,37.59765625,77.63671875
1771544713.9876564,8.7890625,-539.0625,27.34375,30.2734375,48.828125
1771544713.9915626,32.2265625,-364.74609375,23.4375,41.50390625,12.6953125
1771544713.9954689,45.8984375,-319.3359375,18.5546875,37.109375,28.3203125
1771544713.999375,18.06640625,-756.8359375,20.01953125,26.85546875,12.20703125
1771544714.0032814,-14.6484375,-730.95703125,26.3671875,4.8828125,-4.8828125
1771544714.0071876,4.39453125,-164.0625,29.78515625,9.765625,-1.46484375
1771544714.0110939,40.0390625,-250.48828125,28.80859375,14.6484375,0.48828125
1771544714.014125,38.57421875,-476.5625,26.85546875,2.9296875,13.18359375
1771544714.0180314,-17.578125,-369.62890625,29.78515625,3.41796875,3.90625
1771544714.0219376,-22.4609375,-212.40234375,26.3671875,4.8828125,-49.8046875
1771544714.0258439,39.0625,-279.296875,23.92578125,34.66796875,-21.484375
1771544714.02975,38.57421875,-452.63671875,28.80859375,34.66796875,6.34765625
1771544714.0336564,-14.16015625,-531.73828125,29.296875,-4.8828125,33.203125
1771544714.0375626,-18.5546875,-461.9140625,27.83203125,-6.8359375,27.34375
1771544714.0414689,35.15625,-497.0703125,32.71484375,28.3203125,23.92578125
1771544714.045375,56.640625,-897.94921875,33.69140625,41.9921875,28.3203125
1771544714.0492814,22.4609375,-800.29296875,27.83203125,15.625,-41.9921875
1771544714.0531876,10.7421875,-278.3203125,20.99609375,19.53125,22.4609375
1771544714.0570939,31.73828125,-155.2734375,17.578125,32.71484375,56.640625
1771544714.058125,45.8984375,-284.66796875,24.4140625,31.25,7.8125
1771544714.0620313,47.36328125,-285.15625,30.2734375,42.96875,57.12890625
1771544714.0659375,21.97265625,-259.27734375,34.66796875,47.8515625,68.359375
1771544714.0698438,29.78515625,-268.06640625,36.1328125,35.15625,7.32421875
1771544714.07375,57.12890625,-250.9765625,30.2734375,35.64453125,25.87890625
1771544714.0776563,40.52734375,-458.49609375,26.3671875,52.734375,49.31640625
1771544714.0815625,5.37109375,-548.828125,26.85546875,44.921875,17.578125
1771544714.0854688,18.5546875,-643.06640625,35.64453125,38.57421875,16.6015625
1771544714.089375,41.015625,-682.6171875,39.0625,46.38671875,10.25390625
1771544714.0932813,17.578125,-305.17578125,33.203125,23.4375,71.2890625
1771544714.0971875,2.44140625,-376.953125,29.78515625,17.08984375,69.3359375
1771544714.1010938,13.18359375,-523.92578125,32.2265625,33.203125,-13.18359375
1771544714.103125,35.15625,-229.98046875,33.203125,31.25,33.203125
1771544714.1070313,35.64453125,-156.25,28.80859375,19.53125,79.58984375
1771544714.1109376,21.97265625,-409.66796875,17.08984375,9.27734375,62.01171875
1771544714.1148438,-4.39453125,-412.59765625,6.8359375,13.18359375,36.62109375
1771544714.11875,2.9296875,-178.22265625,22.4609375,10.7421875,27.34375
1771544714.1226563,33.69140625,-307.12890625,37.109375,25.87890625,49.8046875
1771544714.1265626,21.97265625,-700.1953125,32.71484375,20.5078125,61.03515625
1771544714.1304688,-19.04296875,-851.07421875,33.69140625,6.8359375,38.0859375
1771544714.134375,-6.8359375,-409.1796875,34.1796875,10.25390625,0.9765625
1771544714.1382813,38.0859375,-103.02734375,35.64453125,21.97265625,72.75390625
1771544714.1421876,50.29296875,-407.71484375,32.71484375,32.71484375,55.17578125
1771544714.1460938,12.20703125,-519.04296875,29.78515625,13.671875,-1.953125
1771544714.150125,-3.90625,-169.43359375,27.34375,-1.953125,50.29296875
1771544714.1540313,42.96875,-120.60546875,24.4140625,27.83203125,28.3203125
1771544714.1579375,61.03515625,-406.73828125,34.1796875,46.875,22.94921875
1771544714.1618438,9.765625,-434.5703125,41.015625,32.71484375,81.54296875
1771544714.16575,-16.6015625,-186.5234375,38.57421875,13.18359375,93.26171875
1771544714.1696563,31.73828125,-205.078125,35.15625,42.96875,66.89453125
1771544714.1735625,74.21875,-666.9921875,41.9921875,62.01171875,102.05078125
1771544714.1774688,56.640625,-785.15625,34.1796875,44.921875,84.9609375
1771544714.181375,28.80859375,-338.8671875,21.484375,38.0859375,28.3203125
1771544714.1852813,36.1328125,-162.59765625,35.64453125,30.2734375,62.01171875
1771544714.1891875,31.25,-324.21875,43.9453125,35.15625,36.62109375
1771544714.1930938,13.18359375,-375.48828125,39.55078125,25.390625,30.76171875
1771544714.195125,-0.48828125,-328.125,44.43359375,15.13671875,34.66796875
1771544714.1990314,-1.46484375,-379.8828125,42.96875,14.16015625,7.32421875
1771544714.2029376,22.4609375,-396.484375,42.96875,19.04296875,0.48828125
1771544714.2068439,51.7578125,-390.13671875,47.36328125,46.38671875,-1.953125
1771544714.21075,25.390625,-359.375,43.45703125,31.73828125,36.1328125
1771544714.2146564,-15.13671875,-432.12890625,28.80859375,-25.87890625,46.875
1771544714.2185626,21.97265625,-800.29296875,19.04296875,-5.37109375,45.8984375
1771544714.2224689,62.5,-658.69140625,31.73828125,34.1796875,89.35546875
1771544714.226375,19.04296875,-354.98046875,41.9921875,19.53125,62.01171875
1771544714.2302814,-11.71875,-314.453125,42.48046875,10.25390625,65.4296875
1771544714.2341876,12.20703125,-199.70703125,44.921875,14.16015625,67.3828125
1771544714.2380939,26.85546875,-217.28515625,45.41015625,10.7421875,28.3203125
1771544714.254125,31.73828125,-326.66015625,39.55078125,14.6484375,58.59375
1771544714.2580314,0.48828125,-387.20703125,44.921875,28.3203125,44.43359375
1771544714.2619376,13.18359375,-228.515625,51.7578125,41.50390625,43.45703125
1771544714.2658439,63.4765625,-289.55078125,40.0390625,48.33984375,60.546875
1771544714.26975,54.6875,-384.765625,31.73828125,35.64453125,72.265625
1771544714.2736564,13.671875,-721.19140625,29.296875,26.85546875,9.27734375
1771544714.2775626,22.94921875,-770.99609375,18.5546875,43.9453125,-0.48828125
1771544714.2814689,38.0859375,-242.1875,30.76171875,42.48046875,53.7109375
1771544714.285375,22.94921875,-332.51953125,42.48046875,15.625,36.1328125
1771544714.2892814,-14.6484375,-621.09375,37.109375,-4.8828125,9.27734375
1771544714.2931876,-15.13671875,-370.1171875,41.9921875,13.671875,20.5078125
1771544714.2970939,22.4609375,-112.3046875,44.921875,33.69140625,27.34375
1771544714.299125,39.0625,-376.953125,42.96875,30.76171875,-1.46484375
1771544714.3030312,19.04296875,-535.64453125,41.50390625,29.78515625,27.34375
1771544714.3069375,-0.9765625,-316.89453125,28.80859375,23.4375,41.9921875
1771544714.3108437,25.390625,-125.0,15.13671875,25.87890625,42.48046875
1771544714.31475,32.71484375,-302.734375,27.83203125,27.34375,55.6640625
1771544714.3186562,0.48828125,-653.3203125,43.9453125,5.37109375,30.76171875
1771544714.3225625,-16.6015625,-672.36328125,42.96875,7.32421875,2.44140625
1771544714.3264687,1.953125,-447.265625,30.76171875,19.04296875,14.6484375
1771544714.330375,38.0859375,-602.05078125,30.76171875,17.08984375,-4.39453125
1771544714.3342812,38.0859375,-975.09765625,41.50390625,20.5078125,-4.8828125
1771544714.3381875,3.41796875,-704.1015625,43.9453125,8.30078125,3.41796875
1771544714.3420937,-13.671875,-251.953125,41.015625,8.30078125,-22.4609375
1771544714.344125,13.18359375,-221.6796875,38.0859375,23.4375,12.6953125
1771544714.3480313,19.53125,-339.84375,40.52734375,12.6953125,24.4140625
1771544714.3519375,-24.4140625,-349.609375,39.55078125,1.46484375,13.671875
1771544714.3558438,-32.71484375,-237.3046875,33.69140625,-12.20703125,29.78515625
1771544714.35975,29.78515625,-226.07421875,27.34375,29.78515625,27.34375
1771544714.3636563,37.59765625,-464.84375,27.34375,40.0390625,16.6015625
1771544714.3675625,6.34765625,-612.79296875,34.66796875,-3.90625,40.52734375
1771544714.3714688,-1.953125,-424.31640625,38.57421875,3.90625,37.59765625
1771544714.375375,32.71484375,-601.5625,36.1328125,18.5546875,36.1328125
1771544714.3792813,46.38671875,-761.23046875,40.0390625,31.73828125,52.24609375
1771544714.3831875,32.71484375,-411.62109375,42.96875,42.96875,63.4765625
1771544714.3870938,20.5078125,-432.6171875,33.69140625,38.0859375,66.40625
1771544714.389125,29.296875,-314.94140625,29.78515625,9.765625,65.91796875
1771544714.3930314,50.78125,-118.1640625,40.0390625,20.99609375,66.40625
1771544714.3969376,21.484375,-303.7109375,46.875,25.87890625,-3.90625
1771544714.4008439,-31.73828125,-436.5234375,48.828125,13.671875,29.296875
1771544714.40475,-12.6953125,-335.44921875,44.921875,30.2734375,40.0390625
1771544714.4086564,41.50390625,-368.1640625,42.48046875,47.8515625,33.203125
1771544714.4125626,41.9921875,-447.75390625,37.109375,29.296875,57.12890625
1771544714.4164689,17.578125,-678.7109375,36.1328125,12.6953125,-19.53125
1771544714.420375,-11.71875,-832.51953125,33.69140625,-5.859375,-11.23046875
1771544714.4242814,25.390625,-361.328125,27.34375,10.25390625,44.921875
1771544714.4281876,64.453125,-317.3828125,34.66796875,34.66796875,51.7578125
1771544714.4320939,6.8359375,-655.2734375,39.0625,16.11328125,32.71484375
1771544714.434125,-57.6171875,-540.0390625,39.0625,-18.06640625,24.90234375
1771544714.4380312,-25.390625,-158.203125,40.0390625,-22.4609375,34.66796875
1771544714.4419374,37.59765625,-182.6171875,43.9453125,9.765625,47.8515625
1771544714.4458437,24.90234375,-423.33984375,34.66796875,30.76171875,51.26953125
1771544714.44975,-15.13671875,-420.8984375,25.390625,2.9296875,27.83203125
1771544714.4536562,-1.46484375,-339.84375,33.69140625,-13.671875,10.25390625
1771544714.4575624,28.80859375,-364.74609375,39.55078125,13.18359375,55.17578125
1771544714.4614687,33.203125,-724.12109375,35.64453125,18.5546875,84.9609375
1771544714.465375,20.5078125,-779.78515625,36.1328125,-3.90625,36.62109375
1771544714.4692812,-8.30078125,-215.8203125,37.109375,8.30078125,20.5078125
1771544714.4731874,19.04296875,-143.06640625,41.015625,45.41015625,32.2265625
1771544714.4770937,57.6171875,-322.75390625,31.73828125,46.875,42.96875
1771544714.479125,39.0625,-393.5546875,16.11328125,33.69140625,67.87109375
1771544714.4830313,15.625,-320.80078125,20.5078125,35.15625,42.48046875
1771544714.4869375,25.390625,-230.95703125,21.484375,28.80859375,48.33984375
1771544714.4908438,41.9921875,-447.265625,25.87890625,24.4140625,28.80859375
1771544714.49475,48.828125,-403.80859375,38.0859375,74.70703125,24.4140625
1771544714.4986563,31.25,-355.95703125,32.2265625,38.57421875,39.55078125
1771544714.5025625,4.8828125,-438.96484375,25.390625,-3.90625,33.203125
1771544714.5064688,24.90234375,-583.0078125,35.64453125,58.59375,36.62109375
1771544714.510375,52.734375,-402.34375,34.1796875,83.984375,32.71484375
1771544714.5142813,34.1796875,-175.78125,33.203125,63.4765625,36.62109375
1771544714.5181875,19.04296875,-123.53515625,36.1328125,19.53125,15.13671875
1771544714.5220938,14.6484375,-58.59375,35.15625,11.23046875,8.7890625
1771544714.524125,20.01953125,-207.03125,36.62109375,31.73828125,-28.3203125
1771544714.5280313,16.11328125,-309.5703125,38.57421875,56.15234375,-38.0859375
1771544714.5319376,7.32421875,-210.9375,40.0390625,60.05859375,26.85546875
1771544714.5358438,34.1796875,-152.83203125,32.71484375,55.6640625,67.87109375
1771544714.53975,56.640625,-117.67578125,21.97265625,69.82421875,30.2734375
1771544714.5436563,32.71484375,-248.53515625,13.18359375,33.69140625,14.6484375
1771544714.5475626,-10.25390625,-501.953125,18.5546875,21.97265625,41.50390625
1771544714.5514688,-0.48828125,-501.953125,30.76171875,49.8046875,-1.46484375
1771544714.555375,30.76171875,-51.26953125,32.2265625,57.6171875,25.87890625
1771544714.5592813,49.8046875,-37.109375,32.71484375,54.19921875,56.15234375
1771544714.5631876,-2.9296875,-117.67578125,26.85546875,29.78515625,33.69140625
1771544714.5670938,-5.859375,115.72265625,23.92578125,33.69140625,-11.23046875
1771544714.583125,37.109375,216.30859375,25.390625,66.40625,26.85546875
1771544714.5870314,45.41015625,-42.48046875,21.484375,60.546875,24.90234375
1771544714.5909376,47.36328125,-166.9921875,26.3671875,36.1328125,-20.01953125
1771544714.5948439,41.015625,42.48046875,21.484375,78.125,0.48828125
1771544714.59875,71.2890625,89.35546875,4.8828125,120.1171875,70.3125
1771544714.6026564,78.125,-312.98828125,5.859375,118.1640625,103.02734375
1771544714.6065626,29.78515625,-747.0703125,18.06640625,88.8671875,-3.90625
1771544714.6104689,12.20703125,-478.515625,21.484375,48.828125,-49.31640625
1771544714.614375,59.5703125,-11.23046875,23.4375,83.0078125,23.4375
1771544714.6182814,69.82421875,-252.9296875,31.25,115.234375,43.9453125
1771544714.6221876,22.94921875,-653.80859375,25.390625,56.15234375,54.19921875
1771544714.6260939,-6.34765625,-186.03515625,17.578125,42.96875,42.96875
1771544714.629125,28.80859375,275.87890625,20.99609375,77.63671875,63.4765625
1771544714.6330314,76.171875,172.8515625,23.92578125,141.11328125,93.75
1771544714.6369376,81.0546875,21.484375,22.4609375,143.5546875,79.58984375
1771544714.6408439,40.52734375,43.9453125,16.6015625,94.23828125,4.39453125
1771544714.64475,42.96875,156.73828125,15.13671875,94.7265625,-17.08984375
1771544714.6486564,58.10546875,-21.97265625,2.44140625,100.5859375,-3.41796875
1771544714.6525626,25.390625,-139.6484375,5.37109375,108.88671875,74.21875
1771544714.6564689,9.765625,-137.6953125,20.99609375,113.28125,56.640625
1771544714.660375,23.92578125,-84.47265625,25.390625,96.6796875,-9.27734375
1771544714.6642814,53.7109375,-248.046875,15.13671875,114.74609375,66.40625
1771544714.6681876,73.73046875,-504.8828125,3.90625,110.83984375,32.71484375
1771544714.6720939,38.0859375,-140.13671875,17.08984375,104.98046875,2.44140625
1771544714.674125,11.71875,21.97265625,17.578125,97.16796875,69.3359375
1771544714.6780312,19.04296875,-14.16015625,9.765625,91.796875,52.734375
1771544714.6819375,71.2890625,-45.8984375,17.578125,108.88671875,-30.76171875
1771544714.6858437,71.77734375,-121.58203125,15.13671875,100.5859375,-6.34765625
1771544714.68975,10.25390625,-168.45703125,13.671875,81.0546875,36.62109375
1771544714.6936562,54.6875,-243.1640625,22.94921875,113.76953125,-1.953125
1771544714.6975625,109.86328125,-216.30859375,19.04296875,127.9296875,24.90234375
1771544714.7014687,81.0546875,-107.91015625,13.671875,120.60546875,50.29296875
1771544714.705375,29.296875,-337.40234375,8.30078125,99.12109375,-3.90625
1771544714.7092812,29.78515625,-447.265625,2.9296875,97.65625,7.8125
1771544714.7131875,101.5625,-131.8359375,8.30078125,161.1328125,42.48046875
1771544714.7170937,118.1640625,-21.97265625,22.4609375,164.0625,45.8984375
1771544714.719125,58.59375,-158.69140625,14.6484375,123.53515625,97.16796875
1771544714.7230313,29.296875,-54.19921875,14.16015625,92.7734375,104.00390625
1771544714.7269375,54.6875,218.26171875,36.62109375,121.09375,66.40625
1771544714.7308438,80.56640625,62.98828125,43.45703125,162.59765625,21.484375
1771544714.73475,47.8515625,-202.63671875,27.34375,143.06640625,-17.08984375
1771544714.7386563,44.43359375,-192.87109375,12.6953125,132.8125,27.83203125
1771544714.7425625,79.1015625,-92.7734375,22.4609375,152.83203125,41.015625
1771544714.7464688,59.08203125,-165.0390625,18.5546875,139.16015625,-19.53125
1771544714.750375,47.36328125,-533.203125,0.48828125,115.72265625,10.25390625
1771544714.7542813,55.6640625,-408.203125,-2.44140625,117.1875,98.6328125
1771544714.7581875,55.6640625,170.41015625,7.8125,129.39453125,90.33203125
1771544714.7620938,72.265625,91.30859375,14.6484375,129.8828125,50.29296875
1771544714.763125,73.73046875,-190.4296875,8.30078125,128.41796875,105.46875
1771544714.7670312,12.20703125,-179.6875,-0.48828125,99.609375,87.890625
1771544714.7709374,17.08984375,122.0703125,8.30078125,95.703125,74.21875
1771544714.7748437,77.1484375,6.34765625,22.94921875,159.66796875,84.9609375
1771544714.77875,101.5625,-295.8984375,10.25390625,144.53125,64.453125
1771544714.7826562,60.05859375,-378.90625,-3.41796875,107.91015625,17.578125
1771544714.7865624,15.13671875,-355.95703125,-8.30078125,105.95703125,-28.80859375
1771544714.7904687,40.52734375,-381.8359375,-0.48828125,104.4921875,-48.33984375
1771544714.794375,118.1640625,-673.33984375,5.37109375,148.92578125,-37.109375
1771544714.7982812,85.9375,-430.6640625,2.44140625,144.04296875,32.71484375
1771544714.8021874,15.625,-180.17578125,5.859375,132.32421875,5.859375
1771544714.8060937,66.89453125,-149.4140625,10.25390625,128.41796875,9.27734375
1771544714.808125,105.95703125,-149.90234375,-1.46484375,115.234375,39.55078125
1771544714.8120313,100.09765625,-165.0390625,-16.6015625,174.31640625,64.453125
1771544714.8159375,71.2890625,-206.54296875,-14.16015625,139.16015625,112.79296875
1771544714.8198438,35.15625,-313.96484375,4.39453125,97.16796875,76.66015625
1771544714.82375,77.63671875,-310.05859375,19.04296875,152.83203125,-0.48828125
1771544714.8276563,125.48828125,-470.21484375,13.18359375,161.62109375,-48.33984375
1771544714.8315625,64.94140625,-591.796875,10.25390625,124.0234375,-7.32421875
1771544714.8354688,42.48046875,-660.15625,0.0,120.60546875,49.8046875
1771544714.839375,78.125,-571.2890625,-6.8359375,125.0,26.3671875
1771544714.8432813,94.23828125,-262.20703125,4.39453125,138.18359375,32.71484375
1771544714.8471875,68.84765625,-341.30859375,-6.34765625,121.58203125,62.98828125
1771544714.8510938,47.8515625,-354.98046875,-24.4140625,105.95703125,39.0625
1771544714.854125,94.7265625,-119.62890625,-18.5546875,133.7890625,46.38671875
1771544714.8580313,116.69921875,-135.25390625,-0.48828125,138.18359375,43.45703125
1771544714.8619375,77.1484375,-411.1328125,6.34765625,115.72265625,26.3671875
1771544714.8658438,42.96875,-415.52734375,-2.44140625,121.09375,56.15234375
1771544714.86975,65.91796875,-166.9921875,-14.16015625,139.16015625,47.36328125
1771544714.8736563,98.6328125,-324.70703125,-14.6484375,153.3203125,1.46484375
1771544714.8775625,121.58203125,-703.125,-4.8828125,169.921875,9.765625
1771544714.8814688,102.5390625,-979.00390625,-2.9296875,165.52734375,-7.8125
1771544714.885375,101.5625,-628.41796875,-15.13671875,165.52734375,-39.0625
1771544714.8892813,138.18359375,-189.94140625,-22.4609375,199.21875,4.39453125
1771544714.8931875,147.94921875,-347.16796875,-11.71875,202.63671875,28.80859375
1771544714.8970938,144.53125,-389.6484375,-8.30078125,198.2421875,60.05859375
1771544714.899125,147.4609375,-152.83203125,-21.484375,206.54296875,68.359375
1771544714.9030313,200.68359375,-95.703125,-14.16015625,261.23046875,30.76171875
1771544714.9069376,225.5859375,-291.015625,-20.99609375,279.78515625,54.6875
1771544714.9108438,200.1953125,-399.90234375,-35.15625,256.8359375,49.8046875
1771544714.91475,159.66796875,-244.62890625,-24.4140625,235.3515625,66.89453125
1771544714.9186563,206.0546875,-202.63671875,-26.3671875,236.328125,96.6796875
1771544714.9225626,279.78515625,-627.44140625,-32.2265625,269.04296875,117.1875
1771544714.9264688,257.32421875,-902.83203125,-35.64453125,300.29296875,53.22265625
1771544714.930375,236.81640625,-472.16796875,-37.109375,297.36328125,25.87890625
1771544714.9342813,261.71875,-154.78515625,-31.73828125,313.4765625,107.421875
1771544714.9381876,298.33984375,-384.765625,-28.80859375,333.984375,69.82421875
1771544714.9420938,320.80078125,-437.5,-28.80859375,350.5859375,54.6875
1771544714.944125,316.89453125,-339.84375,-31.73828125,366.69921875,41.50390625
1771544714.9480312,320.80078125,-309.08203125,-38.0859375,348.6328125,42.96875
1771544714.9519374,343.75,-313.4765625,-43.9453125,374.51171875,55.6640625
1771544714.9558437,369.62890625,-376.46484375,-42.48046875,397.4609375,21.97265625
1771544714.95975,355.46875,-392.08984375,-33.69140625,390.625,20.99609375
1771544714.9636562,349.12109375,-585.9375,-34.1796875,396.97265625,-18.5546875
1771544714.9675624,382.8125,-772.94921875,-26.85546875,397.94921875,9.765625
1771544714.9714687,386.23046875,-547.36328125,-25.390625,413.57421875,30.2734375
1771544714.975375,353.515625,-401.85546875,-37.109375,418.45703125,38.0859375
1771544714.9792812,342.28515625,-438.96484375,-34.1796875,393.06640625,62.98828125
1771544714.9831874,367.1875,-368.1640625,-27.83203125,401.3671875,53.22265625
1771544714.9870937,383.7890625,-272.94921875,-34.1796875,393.5546875,55.6640625
1771544715.004125,336.42578125,-353.515625,-27.83203125,393.5546875,49.31640625
1771544715.0080314,313.96484375,-546.38671875,-28.80859375,377.44140625,58.59375
1771544715.0119376,338.37890625,-471.6796875,-35.15625,353.02734375,31.73828125
1771544715.0158439,357.421875,-297.8515625,-24.4140625,379.39453125,2.44140625
1771544715.01975,328.61328125,-397.94921875,-19.04296875,358.88671875,30.76171875
1771544715.0236564,287.59765625,-646.484375,-20.99609375,338.8671875,19.04296875
1771544715.0275626,308.59375,-593.75,-20.99609375,328.125,49.8046875
1771544715.0314689,328.125,-311.5234375,-7.8125,343.26171875,80.078125
1771544715.035375,316.89453125,-417.96875,-8.7890625,356.4453125,32.2265625
1771544715.0392814,261.23046875,-820.3125,-14.16015625,315.4296875,31.25
1771544715.0431876,225.5859375,-665.52734375,-14.6484375,284.1796875,56.640625
1771544715.0470939,262.20703125,-233.3984375,-11.23046875,297.8515625,81.54296875
1771544715.049125,295.8984375,-520.5078125,-0.48828125,325.68359375,59.08203125
1771544715.0530312,252.44140625,-852.05078125,-2.9296875,295.8984375,0.48828125
1771544715.0569375,213.37890625,-560.546875,-9.765625,251.46484375,29.296875
1771544715.0608437,215.8203125,-273.92578125,-6.8359375,268.06640625,53.22265625
1771544715.06475,228.02734375,-407.2265625,-3.90625,284.66796875,65.91796875
1771544715.0686562,243.65234375,-751.953125,-7.8125,270.01953125,42.96875
1771544715.0725625,191.89453125,-748.046875,-4.8828125,250.48828125,-5.859375
1771544715.0764687,187.01171875,-370.60546875,0.0,252.9296875,5.859375
1771544715.080375,223.6328125,-462.40234375,3.90625,249.0234375,87.40234375
1771544715.0842812,221.6796875,-891.6015625,8.30078125,255.859375,63.4765625
1771544715.0881875,173.33984375,-688.96484375,5.37109375,235.3515625,11.71875
1771544715.0920937,163.0859375,-388.18359375,4.39453125,218.75,1.46484375
1771544715.094125,211.9140625,-386.71875,4.8828125,253.90625,18.5546875
1771544715.0980313,233.88671875,-440.91796875,8.30078125,246.09375,66.89453125
1771544715.1019375,174.8046875,-552.734375,10.7421875,229.00390625,63.4765625
1771544715.1058438,144.04296875,-536.1328125,9.27734375,232.421875,17.08984375
1771544715.10975,173.828125,-541.50390625,3.41796875,233.88671875,8.30078125
1771544715.1136563,200.1953125,-747.0703125,0.48828125,218.26171875,25.390625
1771544715.1175625,183.59375,-844.23828125,17.578125,207.03125,9.765625
1771544715.1214688,137.20703125,-650.390625,18.06640625,204.1015625,53.7109375
1771544715.125375,149.90234375,-750.48828125,4.39453125,200.1953125,66.89453125
1771544715.1292813,186.5234375,-867.67578125,2.44140625,209.9609375,10.7421875
1771544715.1331875,152.34375,-598.14453125,2.44140625,197.265625,22.4609375
1771544715.1370938,116.2109375,-646.484375,1.953125,163.57421875,56.15234375
1771544715.138125,138.18359375,-622.55859375,10.25390625,173.828125,18.5546875
1771544715.1420312,135.25390625,-458.984375,19.53125,194.3359375,8.7890625
1771544715.1459374,126.953125,-528.80859375,17.08984375,186.5234375,16.11328125
1771544715.1498437,118.1640625,-720.703125,13.18359375,191.40625,0.9765625
1771544715.15375,94.7265625,-692.87109375,16.11328125,175.78125,44.921875
1771544715.1576562,125.9765625,-659.66796875,14.16015625,149.90234375,33.69140625
1771544715.1615624,157.2265625,-766.6015625,7.32421875,158.69140625,8.7890625
1771544715.1654687,134.27734375,-845.703125,13.18359375,178.22265625,56.640625
1771544715.169375,101.07421875,-993.1640625,20.99609375,160.15625,61.03515625
1771544715.1732812,138.18359375,-688.96484375,12.6953125,147.4609375,68.359375
1771544715.1771874,141.6015625,-411.1328125,8.30078125,170.8984375,66.89453125
1771544715.1810937,109.86328125,-645.99609375,20.5078125,168.9453125,18.06640625
1771544715.183125,96.19140625,-635.7421875,18.5546875,141.6015625,33.203125
1771544715.1870313,105.46875,-392.08984375,14.16015625,140.13671875,38.0859375
1771544715.1909375,136.71875,-422.8515625,18.5546875,162.59765625,17.08984375
1771544715.1948438,122.55859375,-661.62109375,11.71875,156.73828125,2.9296875
1771544715.19875,63.96484375,-656.73828125,9.765625,118.65234375,21.97265625
1771544715.2026563,84.9609375,-570.3125,14.6484375,99.12109375,53.7109375
1771544715.2065625,142.578125,-519.53125,19.53125,147.4609375,72.265625
1771544715.2104688,125.0,-781.73828125,14.6484375,144.53125,60.546875
1771544715.214375,73.73046875,-890.625,11.71875,113.76953125,75.1953125
1771544715.2182813,60.05859375,-387.20703125,15.13671875,108.3984375,107.421875
1771544715.2221875,105.46875,-281.73828125,15.625,118.65234375,78.61328125
1771544715.2260938,111.81640625,-528.3203125,20.99609375,136.23046875,41.9921875
1771544715.228125,76.171875,-556.640625,19.53125,128.90625,-2.44140625
1771544715.2320313,64.94140625,-374.0234375,19.53125,98.6328125,32.71484375
1771544715.2359376,73.2421875,-333.984375,16.11328125,96.6796875,47.36328125
1771544715.2398438,96.19140625,-456.0546875,7.8125,117.1875,21.97265625
1771544715.24375,82.03125,-490.234375,11.71875,127.44140625,26.3671875
1771544715.2476563,58.10546875,-582.03125,25.390625,118.65234375,-0.9765625
1771544715.2515626,62.5,-685.05859375,22.4609375,90.8203125,-14.6484375
1771544715.2554688,93.75,-825.1953125,16.6015625,94.7265625,1.953125
1771544715.259375,105.46875,-622.0703125,13.18359375,114.2578125,2.9296875
1771544715.2632813,75.68359375,-462.40234375,2.9296875,119.140625,32.2265625
1771544715.2671876,96.6796875,-558.59375,6.34765625,135.7421875,55.17578125
1771544715.2710938,126.46484375,-380.37109375,29.296875,136.23046875,82.03125
1771544715.274125,82.51953125,-266.11328125,33.69140625,102.05078125,49.8046875
1771544715.2780313,19.53125,-353.02734375,38.0859375,66.40625,45.41015625
1771544715.2819376,-27.83203125,-370.60546875,51.26953125,31.73828125,37.59765625
1771544715.2858438,-26.3671875,-307.12890625,50.29296875,35.15625,-27.83203125
1771544715.28975,2.9296875,-261.23046875,52.734375,57.6171875,35.64453125
1771544715.2936563,-47.36328125,-435.546875,69.82421875,24.90234375,97.16796875
1771544715.2975626,-88.8671875,-806.15234375,75.1953125,-15.625,67.3828125
1771544715.3014688,-86.42578125,-723.14453125,78.61328125,-16.11328125,-12.6953125
1771544715.305375,-99.12109375,-317.87109375,83.49609375,10.25390625,-31.25
1771544715.3092813,-83.0078125,-396.484375,87.890625,25.87890625,26.85546875
1771544715.3131876,-122.0703125,-507.32421875,85.44921875,-15.625,7.32421875
1771544715.3170938,-109.375,-252.9296875,82.51953125,-25.87890625,41.9921875
1771544715.320125,-41.50390625,-209.47265625,78.61328125,25.390625,21.97265625
1771544715.3240314,-48.828125,-474.12109375,76.171875,37.59765625,-13.18359375
1771544715.3279376,-69.82421875,-672.36328125,68.84765625,4.8828125,-21.97265625
1771544715.3318439,-77.1484375,-371.09375,56.15234375,5.859375,-12.6953125
1771544715.33575,-32.2265625,-89.84375,69.3359375,51.26953125,45.8984375
1771544715.3396564,15.625,-460.44921875,62.5,80.078125,47.36328125
1771544715.3435626,-16.11328125,-872.55859375,40.0390625,60.05859375,56.15234375
1771544715.3474689,-39.0625,-511.23046875,43.9453125,23.4375,43.45703125
1771544715.351375,2.9296875,-179.6875,53.22265625,65.91796875,-18.06640625
1771544715.3552814,30.76171875,-371.58203125,49.8046875,99.12109375,-44.43359375
1771544715.3591876,36.62109375,-434.08203125,37.59765625,87.40234375,31.73828125
1771544715.3630939,3.41796875,-255.37109375,38.57421875,48.828125,70.80078125
1771544715.379125,1.953125,-103.515625,45.8984375,67.3828125,50.78125
1771544715.3830314,65.4296875,-266.6015625,41.50390625,103.02734375,-3.41796875
1771544715.3869376,60.546875,-483.3984375,40.52734375,87.40234375,33.69140625
1771544715.3908439,12.20703125,-399.90234375,40.52734375,81.0546875,65.4296875
1771544715.39475,19.53125,-134.27734375,27.34375,76.66015625,48.828125
1771544715.3986564,69.3359375,-475.5859375,26.3671875,95.21484375,46.875
1771544715.4025626,86.9140625,-773.92578125,39.0625,103.02734375,70.3125
1771544715.4064689,39.55078125,-415.52734375,31.25,83.0078125,48.33984375
1771544715.410375,21.97265625,-259.27734375,25.390625,85.9375,25.87890625
1771544715.4142814,52.24609375,-315.91796875,32.2265625,111.81640625,58.10546875
1771544715.4181876,84.9609375,-334.47265625,26.85546875,104.98046875,37.109375
1771544715.4220939,61.03515625,-312.98828125,23.92578125,76.66015625,10.25390625
1771544715.424125,33.203125,-343.26171875,23.92578125,81.54296875,13.671875
1771544715.4280312,71.77734375,-234.86328125,18.06640625,91.796875,46.38671875
1771544715.4319375,96.19140625,-229.98046875,21.484375,120.1171875,-5.859375
1771544715.4358437,60.05859375,-304.6875,26.3671875,131.8359375,7.8125
1771544715.43975,38.57421875,-394.04296875,20.5078125,76.171875,48.33984375
1771544715.4436562,51.26953125,-464.35546875,21.484375,78.61328125,15.625
1771544715.4475625,103.515625,-398.4375,24.90234375,114.2578125,52.24609375
1771544715.4514687,99.12109375,-345.703125,27.34375,133.30078125,21.484375
1771544715.455375,37.59765625,-535.64453125,21.484375,97.65625,-17.08984375
1771544715.4592812,36.1328125,-772.94921875,18.06640625,65.91796875,-13.18359375
1771544715.4631875,86.9140625,-387.6953125,22.94921875,94.23828125,6.34765625
1771544715.4670937,88.37890625,-197.265625,31.25,128.41796875,25.390625
1771544715.469125,59.08203125,-378.41796875,25.390625,119.62890625,20.01953125
1771544715.4730313,42.96875,-293.9453125,18.06640625,88.8671875,13.18359375
1771544715.4769375,57.12890625,-104.98046875,21.97265625,77.63671875,-1.46484375
1771544715.4808438,92.7734375,-190.91796875,16.6015625,102.5390625,-2.9296875
1771544715.48475,78.125,-385.25390625,23.92578125,127.44140625,25.87890625
1771544715.4886563,41.015625,-396.97265625,22.94921875,103.515625,59.5703125
1771544715.4925625,65.4296875,-288.57421875,11.23046875,98.14453125,84.9609375
1771544715.4964688,106.4453125,-331.54296875,12.20703125,103.515625,58.59375
1771544715.500375,95.703125,-715.33203125,19.53125,103.515625,52.734375
1771544715.5042813,53.22265625,-802.734375,16.6015625,68.84765625,50.78125
1771544715.5081875,61.03515625,-214.84375,14.6484375,95.703125,15.13671875
1771544715.5120938,101.5625,-105.46875,13.671875,130.37109375,33.69140625
1771544715.513125,88.37890625,-305.17578125,15.13671875,100.5859375,54.19921875
1771544715.5170312,52.734375,-266.11328125,22.4609375,87.890625,4.39453125
1771544715.5209374,67.3828125,-55.6640625,19.53125,81.0546875,9.27734375
1771544715.5248437,102.05078125,-80.56640625,17.578125,93.26171875,14.16015625
1771544715.52875,102.05078125,-277.83203125,9.27734375,111.328125,-7.8125
1771544715.5326562,69.3359375,-385.7421875,4.39453125,104.00390625,37.109375
1771544715.5365624,29.78515625,-233.88671875,7.32421875,69.82421875,67.87109375
1771544715.5404687,72.265625,-196.77734375,16.11328125,84.47265625,51.7578125
1771544715.544375,99.12109375,-499.51171875,9.765625,95.21484375,96.19140625
1771544715.5482812,78.125,-461.9140625,7.32421875,73.2421875,98.14453125
1771544715.5521874,35.64453125,-237.79296875,14.16015625,72.265625,31.73828125
1771544715.5560937,48.828125,-206.54296875,5.859375,79.58984375,9.27734375
1771544715.558125,110.3515625,-270.01953125,1.953125,90.33203125,31.73828125
1771544715.5620313,75.1953125,-168.45703125,10.25390625,75.1953125,71.77734375
1771544715.5659375,22.4609375,-198.2421875,15.625,64.94140625,54.6875
1771544715.5698438,41.015625,-127.44140625,3.41796875,101.07421875,74.21875
1771544715.57375,91.30859375,-57.12890625,1.46484375,102.5390625,88.37890625
1771544715.5776563,88.8671875,-323.73046875,4.8828125,74.21875,40.52734375
1771544715.5815625,42.96875,-442.3828125,0.9765625,74.21875,32.71484375
1771544715.5854688,26.3671875,-567.87109375,6.8359375,81.0546875,19.04296875
1771544715.589375,62.98828125,-516.6015625,9.765625,88.8671875,13.671875
1771544715.5932813,92.28515625,-164.55078125,8.7890625,86.42578125,47.36328125
1771544715.5971875,52.24609375,-268.5546875,10.7421875,86.9140625,44.921875
1771544715.6010938,6.34765625,-446.2890625,2.9296875,78.125,-23.4375
1771544715.604125,48.828125,-303.22265625,2.44140625,80.56640625,-10.7421875
1771544715.6080313,85.44921875,-93.75,6.34765625,109.375,55.6640625
1771544715.6119375,67.87109375,-314.453125,2.9296875,88.8671875,65.4296875
1771544715.6158438,41.50390625,-456.54296875,3.41796875,62.98828125,78.125
1771544715.61975,49.31640625,-156.73828125,-1.46484375,76.171875,35.64453125
1771544715.6236563,53.7109375,-195.80078125,-0.48828125,99.609375,12.20703125
1771544715.6275625,66.40625,-537.109375,13.671875,105.46875,54.6875
1771544715.6314688,51.7578125,-732.91015625,7.8125,68.359375,55.6640625
1771544715.635375,10.25390625,-308.59375,-5.859375,46.38671875,60.546875
1771544715.6392813,57.12890625,19.04296875,-4.39453125,79.58984375,83.49609375
1771544715.6431875,96.6796875,-248.53515625,-2.9296875,108.88671875,43.9453125
1771544715.6470938,39.55078125,-415.52734375,0.0,69.3359375,38.0859375
1771544715.650125,20.5078125,-201.171875,-0.9765625,50.78125,11.71875
1771544715.6540313,74.21875,-46.38671875,2.9296875,83.0078125,13.18359375
1771544715.6579375,65.91796875,-242.67578125,9.765625,97.65625,60.05859375
1771544715.6618438,34.1796875,-381.8359375,7.8125,83.0078125,37.59765625
1771544715.66575,21.484375,-213.37890625,5.859375,90.33203125,35.15625
1771544715.6696563,50.29296875,-177.24609375,3.90625,83.0078125,35.15625
1771544715.6735625,103.515625,-614.2578125,-1.953125,63.96484375,37.59765625
1771544715.6774688,69.3359375,-811.5234375,7.8125,75.1953125,33.69140625
1771544715.681375,-1.953125,-334.9609375,18.5546875,89.35546875,35.15625
1771544715.6852813,25.390625,-138.671875,18.06640625,80.56640625,15.13671875
1771544715.6891875,91.30859375,-225.5859375,15.625,77.1484375,20.01953125
1771544715.6930938,104.98046875,-254.39453125,8.7890625,74.21875,36.62109375
1771544715.709125,33.69140625,-270.01953125,12.6953125,57.12890625,-12.20703125
1771544715.7130313,31.73828125,-237.3046875,16.11328125,85.9375,-3.90625
1771544715.7169375,81.0546875,-190.4296875,18.06640625,85.9375,42.48046875
1771544715.7208438,70.80078125,-202.1484375,20.01953125,73.2421875,36.1328125
1771544715.72475,42.48046875,-342.28515625,18.06640625,81.54296875,16.11328125
1771544715.7286563,33.69140625,-480.95703125,14.6484375,68.359375,16.11328125
1771544715.7325625,66.89453125,-715.33203125,21.484375,53.22265625,43.45703125
1771544715.7364688,77.1484375,-601.5625,28.3203125,66.40625,31.25
1771544715.740375,48.33984375,-285.64453125,23.92578125,67.87109375,39.55078125
1771544715.7442813,-2.9296875,-300.78125,20.99609375,57.6171875,32.2265625
1771544715.7481875,26.3671875,-143.06640625,28.3203125,69.3359375,48.33984375
1771544715.7520938,70.80078125,-57.12890625,34.66796875,70.3125,53.22265625
1771544715.754125,51.26953125,-185.546875,22.4609375,81.0546875,61.03515625
1771544715.7580314,40.0390625,-312.01171875,27.34375,75.68359375,54.6875
1771544715.7619376,43.9453125,-210.9375,33.203125,75.1953125,29.296875
1771544715.7658439,59.08203125,-70.3125,25.390625,75.1953125,51.7578125
1771544715.76975,64.94140625,-168.9453125,32.71484375,71.2890625,95.21484375
1771544715.7736564,35.15625,-395.01953125,28.3203125,86.42578125,92.7734375
1771544715.7775626,31.25,-434.08203125,24.90234375,59.5703125,55.6640625
1771544715.7814689,66.40625,-393.06640625,33.69140625,58.10546875,-1.46484375
1771544715.785375,65.4296875,-324.70703125,32.71484375,110.83984375,27.34375
1771544715.7892814,57.6171875,-690.4296875,35.15625,100.5859375,54.6875
1771544715.7931876,29.296875,-794.43359375,41.015625,59.5703125,28.3203125
1771544715.7970939,24.90234375,-158.69140625,31.73828125,46.875,62.98828125
1771544715.799125,68.359375,-127.44140625,27.34375,76.171875,110.83984375
1771544715.8030312,64.453125,-416.50390625,34.66796875,89.84375,30.2734375
1771544715.8069375,21.484375,-312.98828125,34.66796875,68.84765625,-5.37109375
1771544715.8108437,24.90234375,-76.66015625,38.57421875,85.9375,34.66796875
1771544715.81475,71.2890625,-197.75390625,36.1328125,83.49609375,45.41015625
1771544715.8186562,72.265625,-525.87890625,28.3203125,83.49609375,25.390625
1771544715.8225625,40.52734375,-605.95703125,33.69140625,61.5234375,0.48828125
1771544715.8264687,20.5078125,-291.50390625,37.59765625,57.6171875,30.76171875
1771544715.830375,61.5234375,-346.6796875,35.64453125,74.70703125,20.99609375
1771544715.8342812,96.19140625,-728.515625,34.1796875,73.73046875,20.99609375
1771544715.8381875,44.43359375,-439.94140625,36.1328125,52.24609375,79.58984375
1771544715.8420937,15.625,-83.984375,31.25,40.52734375,65.91796875
1771544715.843125,56.640625,-311.5234375,28.3203125,58.10546875,20.01953125
1771544715.8470314,84.47265625,-547.36328125,30.76171875,59.08203125,15.13671875
1771544715.8509376,66.89453125,-364.2578125,29.78515625,67.87109375,12.6953125
1771544715.8548439,19.04296875,-250.0,36.62109375,49.31640625,6.8359375
1771544715.85875,33.203125,-233.3984375,36.1328125,51.26953125,-27.83203125
1771544715.8626564,86.42578125,-392.08984375,33.69140625,76.66015625,5.37109375
1771544715.8665626,68.84765625,-549.31640625,36.62109375,79.1015625,42.96875
1771544715.8704689,3.41796875,-447.75390625,28.80859375,50.78125,28.3203125
1771544715.874375,27.34375,-565.91796875,22.4609375,39.0625,12.6953125
1771544715.8782814,86.42578125,-604.00390625,30.2734375,85.44921875,2.9296875
1771544715.8821876,83.0078125,-281.25,38.0859375,91.796875,29.296875
1771544715.8860939,47.8515625,-375.0,34.1796875,47.8515625,54.19921875
1771544715.888125,42.48046875,-334.47265625,29.296875,53.7109375,71.2890625
1771544715.8920312,52.24609375,-134.27734375,24.90234375,79.1015625,28.80859375
1771544715.8959374,67.3828125,-179.6875,20.5078125,74.70703125,22.94921875
1771544715.8998437,57.6171875,-377.44140625,16.6015625,31.25,64.94140625
1771544715.90375,29.296875,-333.984375,29.78515625,21.97265625,77.63671875
1771544715.9076562,47.8515625,-274.90234375,37.109375,62.98828125,39.0625
1771544715.9115624,79.1015625,-330.56640625,28.80859375,80.56640625,34.1796875
1771544715.9154687,57.12890625,-483.88671875,33.69140625,83.0078125,56.640625
1771544715.919375,11.23046875,-721.19140625,39.55078125,59.5703125,49.8046875
1771544715.9232812,61.03515625,-272.94921875,37.59765625,55.17578125,67.3828125
1771544715.9271874,104.00390625,-71.77734375,31.73828125,75.68359375,61.5234375
1771544715.9310937,75.1953125,-341.30859375,30.76171875,62.5,35.15625
1771544715.934125,29.78515625,-321.77734375,36.1328125,41.015625,42.96875
1771544715.9380312,29.296875,-192.87109375,35.64453125,66.40625,13.671875
1771544715.9419374,77.63671875,-242.1875,30.76171875,91.30859375,20.5078125
1771544715.9458437,85.44921875,-470.21484375,28.80859375,75.68359375,25.87890625
1771544715.94975,38.0859375,-501.953125,28.80859375,42.96875,32.71484375
1771544715.9536562,27.34375,-274.90234375,34.66796875,40.0390625,75.1953125
1771544715.9575624,45.8984375,-307.12890625,43.45703125,40.52734375,25.87890625
1771544715.9614687,63.4765625,-687.98828125,37.109375,69.82421875,27.34375
1771544715.965375,46.38671875,-769.53125,28.3203125,75.1953125,27.34375
1771544715.9692812,14.6484375,-250.9765625,25.87890625,5.37109375,5.37109375
1771544715.9731874,28.80859375,-135.7421875,27.34375,7.8125,11.23046875
1771544715.9770937,55.6640625,-321.2890625,41.015625,68.359375,8.30078125
1771544715.978125,32.71484375,-376.46484375,40.52734375,54.19921875,-20.99609375
1771544715.9820313,-16.11328125,-277.34375,40.0390625,23.4375,-24.90234375
1771544715.9859376,25.390625,-173.828125,47.36328125,23.4375,43.45703125
1771544715.9898438,51.26953125,-209.9609375,41.50390625,43.9453125,102.05078125
1771544715.99375,75.1953125,-412.109375,62.98828125,83.49609375,39.55078125
1771544715.9976563,43.45703125,-515.625,65.4296875,77.1484375,5.37109375
1771544716.0015626,-22.4609375,-435.546875,31.25,30.76171875,58.59375
1771544716.0054688,4.39453125,-705.56640625,18.5546875,17.578125,92.28515625
1771544716.009375,38.0859375,-582.51953125,20.99609375,11.71875,121.58203125
1771544716.0132813,11.71875,-236.328125,31.25,-11.23046875,81.0546875
1771544716.0171876,-16.11328125,-205.56640625,28.80859375,-31.73828125,30.2734375
1771544716.0210938,25.87890625,-189.453125,13.671875,1.46484375,-23.92578125
1771544716.023125,38.0859375,-197.75390625,15.13671875,15.13671875,-9.27734375
1771544716.0270312,-2.44140625,-291.9921875,19.04296875,-31.73828125,4.39453125
1771544716.0309374,-24.4140625,-330.078125,1.46484375,-38.0859375,-11.71875
1771544716.0348437,18.06640625,-187.98828125,7.8125,-15.13671875,-5.37109375
1771544716.03875,45.41015625,-197.75390625,18.5546875,-20.5078125,-9.765625
1771544716.0426562,34.1796875,-404.78515625,3.90625,-1.46484375,32.71484375
1771544716.0465624,1.46484375,-720.21484375,0.9765625,-3.90625,64.94140625
1771544716.0504687,7.32421875,-770.5078125,6.34765625,-40.52734375,-16.6015625
1771544716.054375,33.69140625,-339.84375,7.8125,-57.6171875,-29.296875
1771544716.0582812,15.625,-309.08203125,-3.90625,-52.734375,11.71875
1771544716.0621874,-32.71484375,-433.59375,-4.8828125,-47.8515625,49.31640625
1771544716.0660937,5.859375,-293.45703125,1.46484375,-22.4609375,24.4140625
1771544716.069125,57.12890625,-153.3203125,-2.9296875,2.9296875,1.46484375
1771544716.0730312,50.78125,-314.94140625,-15.13671875,4.39453125,30.2734375
1771544716.0769374,26.85546875,-454.1015625,-22.4609375,-13.18359375,41.9921875
1771544716.0808437,28.3203125,-263.18359375,-18.06640625,-23.92578125,14.6484375
1771544716.08475,74.70703125,-91.796875,-10.7421875,15.13671875,20.01953125
1771544716.0886562,97.65625,-384.27734375,-15.625,39.55078125,77.63671875
1771544716.0925624,69.3359375,-807.12890625,-29.78515625,11.71875,88.8671875
1771544716.0964687,38.0859375,-477.5390625,-30.2734375,19.53125,41.50390625
1771544716.100375,96.19140625,-123.53515625,-32.2265625,28.80859375,42.48046875
1771544716.1042812,158.69140625,-438.96484375,-34.1796875,52.734375,56.15234375
1771544716.1081874,146.484375,-579.58984375,-42.48046875,82.51953125,24.90234375
1771544716.1120937,96.6796875,-298.828125,-52.24609375,95.703125,23.92578125
1771544716.129125,119.140625,-123.53515625,-42.96875,94.23828125,12.20703125
1771544716.1330314,191.89453125,-203.125,-52.24609375,93.75,16.6015625
1771544716.1369376,211.9140625,-321.77734375,-59.08203125,107.421875,35.15625
1771544716.1408439,205.56640625,-281.25,-61.5234375,108.88671875,25.390625
1771544716.14475,191.89453125,-169.921875,-67.87109375,134.27734375,-2.9296875
1771544716.1486564,194.82421875,-291.9921875,-63.4765625,151.3671875,17.578125
1771544716.1525626,217.28515625,-428.7109375,-66.40625,119.140625,77.63671875
1771544716.1564689,197.75390625,-335.9375,-74.70703125,125.48828125,45.8984375
1771544716.160375,188.4765625,-290.0390625,-73.73046875,136.71875,-1.953125
1771544716.1642814,221.6796875,-308.59375,-80.078125,120.60546875,23.92578125
1771544716.1681876,247.0703125,-315.4296875,-83.0078125,130.37109375,39.0625
1771544716.1720939,216.796875,-432.6171875,-71.77734375,138.18359375,9.765625
1771544716.174125,154.296875,-435.546875,-79.58984375,137.6953125,22.94921875
1771544716.1780312,176.26953125,-566.89453125,-75.1953125,163.0859375,52.24609375
1771544716.1819375,221.19140625,-514.6484375,-52.734375,166.9921875,48.33984375
1771544716.1858437,216.796875,-289.55078125,-54.19921875,131.34765625,56.640625
1771544716.18975,151.3671875,-394.53125,-60.05859375,107.421875,48.33984375
1771544716.1936562,154.296875,-376.46484375,-51.26953125,120.60546875,66.89453125
1771544716.1975625,196.77734375,-428.22265625,-53.7109375,145.5078125,18.5546875
1771544716.2014687,200.1953125,-447.265625,-53.7109375,131.8359375,12.20703125
1771544716.205375,157.71484375,-544.43359375,-39.0625,113.76953125,56.15234375
1771544716.2092812,117.1875,-660.15625,-37.59765625,100.09765625,24.4140625
1771544716.2131875,157.2265625,-265.13671875,-40.52734375,102.05078125,28.3203125
1771544716.2170937,163.0859375,-182.12890625,-27.83203125,128.90625,28.80859375
1771544716.220125,118.65234375,-477.5390625,-19.04296875,112.3046875,25.87890625
1771544716.2240312,91.30859375,-512.6953125,-26.3671875,98.6328125,42.96875
1771544716.2279375,139.6484375,-283.69140625,-26.85546875,102.5390625,3.41796875
1771544716.2318437,155.76171875,-202.63671875,-11.23046875,101.5625,17.578125
1771544716.23575,122.55859375,-417.48046875,-11.23046875,105.46875,89.35546875
1771544716.2396562,86.9140625,-556.640625,-14.6484375,89.84375,58.10546875
1771544716.2435625,97.65625,-388.18359375,-8.30078125,81.0546875,33.69140625
1771544716.2474687,152.83203125,-329.1015625,-9.27734375,105.95703125,27.83203125
1771544716.251375,159.1796875,-707.51953125,-7.32421875,100.5859375,22.4609375
1771544716.2552812,106.4453125,-760.7421875,1.46484375,102.5390625,13.671875
1771544716.2591875,84.47265625,-152.34375,0.9765625,124.0234375,60.546875
1771544716.2630937,121.09375,-138.671875,4.8828125,97.65625,52.734375
1771544716.264125,144.04296875,-398.4375,8.30078125,96.19140625,11.23046875
1771544716.2680314,97.16796875,-328.61328125,1.46484375,102.5390625,48.828125
1771544716.2719376,74.21875,-170.8984375,5.37109375,95.703125,25.390625
1771544716.2758439,104.00390625,-227.05078125,7.8125,104.00390625,4.8828125
1771544716.27975,125.0,-419.43359375,4.39453125,85.9375,77.63671875
1771544716.2836564,91.30859375,-562.5,7.8125,102.05078125,41.9921875
1771544716.2875626,41.50390625,-481.4453125,7.32421875,97.16796875,31.25
1771544716.2914689,101.5625,-410.15625,14.6484375,86.9140625,69.82421875
1771544716.295375,148.92578125,-795.8984375,20.01953125,127.9296875,65.4296875
1771544716.2992814,106.4453125,-691.40625,8.7890625,84.47265625,58.10546875
1771544716.3031876,27.83203125,-272.94921875,0.48828125,19.04296875,31.25
1771544716.3070939,30.2734375,-230.46875,-3.41796875,23.92578125,-15.625
1771544716.309125,89.35546875,-241.2109375,0.48828125,44.43359375,1.46484375
1771544716.3130312,65.91796875,-245.1171875,-3.41796875,39.0625,43.45703125
1771544716.3169374,29.78515625,-302.734375,-11.71875,11.71875,15.13671875
1771544716.3208437,41.9921875,-218.75,-15.625,5.37109375,52.734375
1771544716.32475,22.94921875,-203.125,-24.4140625,-8.30078125,23.4375
1771544716.3286562,27.34375,-446.2890625,-23.92578125,-16.11328125,3.41796875
1771544716.3325624,32.71484375,-551.7578125,-22.4609375,7.32421875,73.2421875
1771544716.3364687,-14.6484375,-694.82421875,-24.90234375,-13.18359375,69.82421875
1771544716.340375,14.6484375,-699.70703125,-28.3203125,-14.16015625,68.84765625
1771544716.3442812,55.6640625,-371.09375,-27.83203125,-5.859375,37.109375
