timestamps,TP9,AF7,AF8,TP10,Right AUX
1771543076.601125,1.953125,38.57421875,72.265625,17.578125,22.4609375
1771543076.6050313,-3.90625,64.453125,74.21875,0.48828125,65.4296875
1771543076.6089375,-35.15625,71.2890625,66.40625,-45.8984375,67.87109375
1771543076.6128438,-53.22265625,73.2421875,62.98828125,-74.70703125,27.83203125
1771543076.61675,-45.41015625,83.984375,67.3828125,-61.03515625,9.27734375
1771543076.6206563,-44.921875,84.47265625,65.4296875,-33.69140625,28.3203125
1771543076.6245625,-73.2421875,77.1484375,57.6171875,-67.3828125,40.52734375
1771543076.6284688,-95.703125,85.9375,68.84765625,-112.79296875,50.29296875
1771543076.632375,-110.83984375,88.37890625,94.7265625,-123.046875,93.75
1771543076.6362813,-111.328125,93.75,102.5390625,-104.4921875,80.078125
1771543076.6401875,-129.8828125,99.12109375,87.890625,-131.34765625,24.90234375
1771543076.6440938,-155.76171875,111.328125,92.28515625,-166.015625,44.921875
1771543076.645125,-160.64453125,117.1875,104.4921875,-174.8046875,51.7578125
1771543076.6490312,-150.87890625,117.1875,97.65625,-163.57421875,23.4375
1771543076.6529374,-156.25,124.0234375,81.54296875,-158.69140625,27.34375
1771543076.6568437,-182.6171875,128.41796875,68.359375,-200.68359375,50.78125
1771543076.66075,-190.91796875,142.578125,68.84765625,-226.07421875,26.3671875
1771543076.6646562,-187.5,156.73828125,70.3125,-211.9140625,9.27734375
1771543076.6685624,-194.3359375,165.0390625,71.77734375,-201.171875,51.7578125
1771543076.6724687,-222.65625,166.015625,66.89453125,-234.375,20.01953125
1771543076.676375,-236.328125,161.1328125,60.546875,-275.87890625,13.18359375
1771543076.6802812,-224.609375,157.71484375,45.41015625,-261.23046875,31.25
1771543076.6841874,-211.42578125,163.0859375,46.38671875,-226.5625,23.92578125
1771543076.6880937,-226.5625,163.0859375,44.921875,-250.48828125,40.0390625
1771543076.691125,-239.74609375,164.55078125,31.25,-285.64453125,49.8046875
1771543076.6950312,-218.26171875,168.45703125,26.3671875,-270.01953125,-0.9765625
1771543076.6989374,-189.94140625,157.71484375,38.57421875,-219.23828125,1.953125
1771543076.7028437,-200.1953125,155.2734375,44.43359375,-221.19140625,65.91796875
1771543076.70675,-234.375,165.52734375,30.2734375,-274.90234375,40.52734375
1771543076.7106562,-216.796875,163.57421875,33.203125,-263.18359375,87.40234375
1771543076.7145624,-183.10546875,159.66796875,22.94921875,-222.65625,97.65625
1771543076.7184687,-177.734375,151.3671875,16.11328125,-212.890625,33.69140625
1771543076.722375,-188.96484375,152.34375,22.94921875,-236.81640625,4.8828125
1771543076.7262812,-192.87109375,153.80859375,27.34375,-247.0703125,49.8046875
1771543076.7301874,-158.203125,140.13671875,21.484375,-199.70703125,83.984375
1771543076.7340937,-124.51171875,131.34765625,14.6484375,-152.83203125,51.26953125
1771543076.751125,-145.99609375,132.8125,22.4609375,-169.43359375,57.6171875
1771543076.7550313,-158.69140625,126.953125,21.484375,-199.70703125,14.6484375
1771543076.7589376,-119.62890625,121.09375,11.71875,-164.0625,-4.39453125
1771543076.7628438,-101.5625,122.55859375,11.71875,-124.51171875,-12.6953125
1771543076.76675,-119.62890625,122.0703125,25.87890625,-123.046875,-23.4375
1771543076.7706563,-109.86328125,115.72265625,18.06640625,-132.8125,40.0390625
1771543076.7745626,-82.51953125,111.328125,11.71875,-130.859375,41.9921875
1771543076.7784688,-69.3359375,103.515625,22.4609375,-107.91015625,36.62109375
1771543076.782375,-41.9921875,102.05078125,9.27734375,-56.640625,50.78125
1771543076.7862813,-35.64453125,102.05078125,-6.34765625,-68.84765625,-2.9296875
1771543076.7901876,-52.24609375,97.16796875,3.41796875,-107.421875,-19.53125
1771543076.7940938,-9.765625,91.30859375,16.6015625,-48.828125,-29.296875
1771543076.796125,11.71875,94.23828125,11.71875,0.0,16.11328125
1771543076.8000312,-16.11328125,95.21484375,3.41796875,-32.2265625,70.3125
1771543076.8039374,2.44140625,84.47265625,5.859375,-41.9921875,28.80859375
1771543076.8078437,30.76171875,86.9140625,6.34765625,-13.671875,12.20703125
1771543076.81175,44.43359375,83.49609375,-0.48828125,28.80859375,51.26953125
1771543076.8156562,47.36328125,80.078125,-11.23046875,27.83203125,20.99609375
1771543076.8195624,56.640625,79.58984375,-2.9296875,3.41796875,8.7890625
1771543076.8234687,84.9609375,68.84765625,-1.953125,38.57421875,21.97265625
1771543076.827375,120.60546875,64.453125,-9.765625,104.98046875,-15.625
1771543076.8312812,129.39453125,67.3828125,-12.20703125,115.72265625,-25.87890625
1771543076.8351874,118.1640625,59.08203125,-18.06640625,91.796875,-0.9765625
1771543076.8390937,166.9921875,40.0390625,-21.97265625,140.625,-25.390625
1771543076.841125,200.1953125,41.50390625,-17.578125,184.08203125,0.48828125
1771543076.8450313,206.54296875,42.96875,-19.53125,204.58984375,30.2734375
1771543076.8489375,228.515625,31.25,-27.83203125,212.40234375,48.33984375
1771543076.8528438,245.60546875,29.296875,-42.96875,214.84375,42.48046875
1771543076.85675,289.55078125,18.06640625,-54.6875,273.4375,41.015625
1771543076.8606563,340.33203125,13.18359375,-57.6171875,330.56640625,107.91015625
1771543076.8645625,340.8203125,14.6484375,-56.15234375,327.1484375,61.03515625
1771543076.8684688,323.2421875,0.0,-60.546875,297.8515625,27.34375
1771543076.872375,366.2109375,-9.765625,-84.47265625,338.37890625,66.40625
1771543076.8762813,409.66796875,-10.25390625,-88.8671875,391.6015625,41.015625
1771543076.8801875,403.80859375,-20.01953125,-80.078125,378.41796875,33.203125
1771543076.8840938,408.203125,-23.92578125,-90.33203125,363.76953125,19.04296875
1771543076.886125,420.8984375,-27.83203125,-93.75,384.27734375,-0.48828125
1771543076.8900313,433.59375,-32.71484375,-89.84375,412.109375,-0.9765625
1771543076.8939376,426.7578125,-31.25,-87.890625,404.78515625,-14.16015625
1771543076.8978438,429.19921875,-36.1328125,-84.47265625,395.5078125,43.45703125
1771543076.90175,440.4296875,-45.41015625,-87.890625,410.64453125,54.19921875
1771543076.9056563,423.33984375,-44.43359375,-95.21484375,410.15625,24.4140625
1771543076.9095626,414.55078125,-38.0859375,-95.703125,401.3671875,22.4609375
1771543076.9134688,432.12890625,-42.48046875,-88.8671875,407.2265625,35.15625
1771543076.917375,408.69140625,-53.7109375,-83.984375,385.25390625,118.1640625
1771543076.9212813,390.625,-55.6640625,-74.21875,372.55859375,90.8203125
1771543076.9251876,399.90234375,-59.5703125,-72.75390625,393.5546875,60.05859375
1771543076.9290938,381.34765625,-55.6640625,-64.94140625,372.55859375,61.5234375
1771543076.931125,364.74609375,-47.36328125,-57.6171875,343.26171875,13.671875
1771543076.9350312,363.28125,-48.33984375,-63.96484375,348.6328125,-5.37109375
1771543076.9389374,355.46875,-51.26953125,-64.94140625,351.5625,-22.94921875
1771543076.9428437,344.23828125,-54.19921875,-66.89453125,335.9375,-17.08984375
1771543076.94675,323.73046875,-53.22265625,-54.19921875,303.22265625,57.12890625
1771543076.9506562,293.9453125,-54.6875,-42.96875,275.390625,94.7265625
1771543076.9545624,289.0625,-45.41015625,-47.36328125,284.66796875,95.703125
1771543076.9584687,288.57421875,-30.76171875,-44.43359375,289.55078125,102.05078125
1771543076.962375,249.0234375,-35.15625,-35.64453125,242.1875,78.61328125
1771543076.9662812,221.19140625,-42.48046875,-25.87890625,213.37890625,30.76171875
1771543076.9701874,233.3984375,-38.57421875,-27.34375,221.19140625,38.57421875
1771543076.9740937,229.4921875,-29.78515625,-32.71484375,217.7734375,21.484375
1771543076.980125,197.75390625,-26.85546875,-21.97265625,196.77734375,36.1328125
1771543076.9840312,180.6640625,-32.2265625,-9.27734375,177.734375,36.62109375
1771543076.9879375,189.453125,-23.92578125,-12.20703125,186.5234375,-2.9296875
1771543076.9918437,191.40625,-20.5078125,-11.23046875,194.82421875,-0.9765625
1771543076.99575,171.38671875,-20.5078125,-3.90625,180.6640625,49.8046875
1771543076.9996562,161.62109375,-20.5078125,-2.44140625,161.62109375,55.17578125
1771543077.0035625,164.0625,-20.01953125,-1.46484375,166.50390625,39.55078125
1771543077.0074687,173.828125,-14.6484375,-8.7890625,186.03515625,9.27734375
1771543077.011375,173.33984375,-8.7890625,6.8359375,182.6171875,-23.4375
1771543077.0152812,154.78515625,-5.37109375,28.3203125,154.78515625,11.71875
1771543077.0191875,147.4609375,-9.27734375,20.5078125,146.484375,4.8828125
1771543077.0230937,152.34375,-11.71875,13.671875,164.55078125,-14.16015625
1771543077.021125,156.25,-9.27734375,14.6484375,169.43359375,38.57421875
1771543077.0250313,132.8125,-9.765625,9.27734375,139.6484375,13.671875
1771543077.0289376,117.67578125,-11.71875,10.7421875,123.046875,0.9765625
1771543077.0328438,126.46484375,-10.25390625,20.5078125,137.20703125,70.80078125
1771543077.03675,120.1171875,-8.7890625,21.484375,139.6484375,45.8984375
1771543077.0406563,103.02734375,-2.9296875,16.11328125,120.60546875,-15.13671875
1771543077.0445626,92.7734375,1.953125,13.671875,96.6796875,-46.875
1771543077.0484688,104.98046875,1.953125,26.3671875,107.421875,17.578125
1771543077.052375,115.234375,4.8828125,39.55078125,126.953125,71.2890625
1771543077.0562813,94.23828125,4.39453125,28.3203125,110.83984375,38.57421875
1771543077.0601876,71.77734375,-0.9765625,18.06640625,76.66015625,77.1484375
1771543077.0640938,82.03125,0.9765625,20.5078125,86.42578125,115.234375
1771543077.067125,96.6796875,8.7890625,15.625,106.93359375,27.34375
1771543077.0710313,89.35546875,7.32421875,6.34765625,95.703125,15.625
1771543077.0749376,66.89453125,11.23046875,12.6953125,70.80078125,63.96484375
1771543077.0788438,68.359375,11.71875,30.2734375,68.84765625,35.64453125
1771543077.08275,83.0078125,8.30078125,27.34375,90.33203125,30.76171875
1771543077.0866563,84.47265625,5.37109375,11.71875,92.7734375,9.27734375
1771543077.0905626,65.91796875,8.30078125,13.18359375,67.87109375,77.63671875
1771543077.0944688,55.6640625,10.7421875,31.73828125,56.640625,51.7578125
1771543077.098375,69.3359375,10.25390625,31.73828125,77.63671875,7.8125
1771543077.1022813,79.58984375,10.25390625,22.94921875,89.35546875,32.71484375
1771543077.1061876,61.5234375,5.859375,29.78515625,72.75390625,95.21484375
1771543077.1100938,51.7578125,7.32421875,41.015625,57.6171875,72.75390625
1771543077.126125,66.40625,11.71875,38.57421875,64.453125,14.6484375
1771543077.1300313,68.359375,15.13671875,22.4609375,79.58984375,45.41015625
1771543077.1339376,49.31640625,10.25390625,16.6015625,71.77734375,14.16015625
1771543077.1378438,33.69140625,7.8125,22.94921875,50.78125,45.8984375
1771543077.14175,37.59765625,10.7421875,31.25,51.7578125,67.87109375
1771543077.1456563,50.78125,12.20703125,17.08984375,67.3828125,64.453125
1771543077.1495626,53.22265625,18.06640625,5.859375,70.3125,45.8984375
1771543077.1534688,31.25,19.04296875,27.83203125,42.96875,60.546875
1771543077.157375,28.80859375,20.01953125,32.2265625,40.52734375,63.96484375
1771543077.1612813,47.8515625,23.4375,20.5078125,65.4296875,7.32421875
1771543077.1651876,48.33984375,19.04296875,21.484375,65.4296875,5.859375
1771543077.1690938,22.94921875,18.06640625,29.296875,45.8984375,48.33984375
1771543077.172125,23.4375,18.06640625,33.69140625,43.9453125,102.05078125
1771543077.1760314,46.875,17.578125,26.85546875,59.5703125,46.38671875
1771543077.1799376,53.7109375,22.4609375,27.83203125,71.77734375,18.06640625
1771543077.1838439,39.55078125,24.4140625,30.2734375,58.59375,60.05859375
1771543077.18775,25.87890625,19.53125,23.4375,30.2734375,27.34375
1771543077.1916564,37.59765625,19.53125,18.5546875,38.0859375,2.44140625
1771543077.1955626,51.26953125,25.390625,14.6484375,58.59375,-5.37109375
1771543077.1994689,42.96875,26.3671875,19.53125,52.24609375,-15.625
1771543077.203375,26.85546875,24.4140625,19.04296875,36.62109375,8.30078125
1771543077.2072814,36.1328125,18.5546875,9.765625,42.96875,27.83203125
1771543077.2111876,41.50390625,18.5546875,21.484375,53.22265625,48.828125
1771543077.2150939,54.6875,36.62109375,16.11328125,61.5234375,78.61328125
1771543077.216125,96.19140625,41.50390625,1.46484375,83.0078125,16.6015625
1771543077.2200313,74.21875,20.5078125,32.2265625,69.82421875,10.7421875
1771543077.2239375,0.0,16.6015625,47.36328125,8.7890625,65.91796875
1771543077.2278438,-42.96875,28.3203125,32.71484375,-28.80859375,46.38671875
1771543077.23175,-72.265625,33.203125,35.15625,-55.17578125,26.3671875
1771543077.2356563,-105.95703125,24.90234375,57.6171875,-91.796875,0.9765625
1771543077.2395625,-150.390625,17.578125,78.61328125,-128.90625,26.85546875
1771543077.2434688,-189.94140625,10.25390625,84.47265625,-156.25,66.89453125
1771543077.247375,-216.30859375,3.90625,75.68359375,-188.96484375,57.12890625
1771543077.2512813,-264.16015625,2.9296875,99.609375,-238.28125,15.625
1771543077.2551875,-299.31640625,1.46484375,136.23046875,-268.06640625,52.734375
1771543077.2590938,-301.7578125,2.44140625,135.7421875,-266.11328125,83.49609375
1771543077.261125,-331.54296875,2.44140625,146.484375,-282.71484375,54.6875
1771543077.2650313,-359.375,0.9765625,177.734375,-304.6875,80.56640625
1771543077.2689376,-360.83984375,-5.37109375,202.63671875,-303.22265625,46.38671875
1771543077.2728438,-366.2109375,-5.37109375,212.40234375,-302.24609375,33.203125
1771543077.27675,-354.98046875,-5.37109375,219.23828125,-287.109375,59.08203125
1771543077.2806563,-363.76953125,-5.37109375,236.328125,-291.50390625,43.9453125
1771543077.2845626,-377.44140625,-3.90625,255.37109375,-312.01171875,96.6796875
1771543077.2884688,-337.40234375,3.41796875,257.8125,-279.296875,112.79296875
1771543077.292375,-328.61328125,0.9765625,255.37109375,-263.671875,41.50390625
1771543077.2962813,-355.95703125,-11.23046875,256.8359375,-288.0859375,16.6015625
1771543077.3001876,-346.19140625,-11.23046875,256.8359375,-283.69140625,32.71484375
1771543077.3040938,-320.80078125,-7.8125,249.0234375,-258.30078125,1.46484375
1771543077.306125,-287.109375,-3.41796875,240.234375,-219.7265625,-2.44140625
1771543077.3100312,-272.4609375,4.39453125,240.234375,-203.61328125,54.6875
1771543077.3139374,-277.34375,4.39453125,233.88671875,-216.796875,49.8046875
1771543077.3178437,-259.27734375,3.90625,225.5859375,-200.68359375,27.83203125
1771543077.32175,-220.21484375,6.8359375,209.9609375,-161.1328125,17.578125
1771543077.3256562,-188.96484375,8.7890625,187.01171875,-129.8828125,-7.8125
1771543077.3295624,-194.3359375,9.765625,177.734375,-135.25390625,21.484375
1771543077.3334687,-188.96484375,2.44140625,170.8984375,-137.6953125,49.8046875
1771543077.337375,-139.16015625,0.9765625,165.52734375,-91.796875,-9.765625
1771543077.3412812,-105.95703125,7.32421875,160.15625,-57.12890625,-48.828125
1771543077.3451874,-107.91015625,10.25390625,140.13671875,-63.4765625,8.7890625
1771543077.3490937,-105.46875,6.34765625,125.9765625,-64.94140625,30.2734375
1771543077.352125,-76.171875,7.32421875,111.328125,-43.45703125,60.546875
1771543077.3560312,-52.24609375,15.13671875,98.14453125,-22.94921875,42.96875
1771543077.3599374,-59.08203125,18.06640625,91.30859375,-27.34375,39.55078125
1771543077.3638437,-62.98828125,11.23046875,90.8203125,-36.1328125,98.6328125
1771543077.36775,-38.57421875,14.16015625,92.28515625,-16.11328125,44.43359375
1771543077.3716562,-13.18359375,24.90234375,74.21875,11.23046875,2.44140625
1771543077.3755624,-8.7890625,24.90234375,55.17578125,17.08984375,-16.11328125
1771543077.3794687,-11.23046875,22.4609375,57.6171875,3.41796875,-3.90625
1771543077.383375,-0.9765625,23.4375,71.77734375,6.34765625,71.2890625
1771543077.3872812,22.94921875,25.87890625,68.84765625,35.15625,89.84375
1771543077.3911874,23.92578125,23.4375,46.38671875,44.921875,12.6953125
1771543077.3950937,6.8359375,16.11328125,32.71484375,25.390625,-11.23046875
1771543077.396125,10.25390625,18.06640625,40.0390625,20.5078125,36.1328125
1771543077.4000313,31.25,24.90234375,40.0390625,46.875,85.9375
1771543077.4039376,49.31640625,30.76171875,27.34375,62.01171875,96.6796875
1771543077.4078438,37.59765625,29.78515625,20.5078125,31.73828125,28.80859375
1771543077.41175,28.3203125,34.1796875,28.3203125,21.97265625,50.78125
1771543077.4156563,51.26953125,38.0859375,23.4375,52.24609375,93.75
1771543077.4195626,64.94140625,30.76171875,8.30078125,69.82421875,61.5234375
1771543077.4234688,51.7578125,27.83203125,6.8359375,58.59375,37.59765625
1771543077.427375,42.96875,29.296875,19.04296875,41.50390625,16.6015625
1771543077.4312813,52.734375,30.2734375,18.5546875,55.6640625,9.27734375
1771543077.4351876,66.40625,34.1796875,12.6953125,76.171875,38.0859375
1771543077.4390938,64.453125,35.15625,13.671875,71.2890625,60.05859375
1771543077.441125,45.8984375,33.69140625,9.27734375,48.828125,27.83203125
1771543077.4450312,51.7578125,35.15625,2.9296875,48.828125,35.15625
1771543077.4489374,67.3828125,36.1328125,-2.44140625,70.3125,47.8515625
1771543077.4528437,68.359375,36.1328125,-5.37109375,74.70703125,-8.30078125
1771543077.45675,43.45703125,30.76171875,-5.37109375,46.875,-21.484375
1771543077.4606562,37.109375,30.2734375,-4.8828125,39.0625,0.0
1771543077.4645624,60.05859375,37.109375,-12.6953125,62.5,17.578125
1771543077.4684687,65.4296875,37.109375,-6.8359375,70.80078125,45.41015625
1771543077.472375,49.8046875,32.71484375,2.9296875,55.6640625,94.7265625
1771543077.4762812,41.50390625,38.57421875,-1.953125,37.59765625,65.91796875
1771543077.4801874,59.08203125,41.9921875,3.41796875,55.17578125,-1.46484375
1771543077.4840937,66.89453125,34.66796875,3.41796875,72.75390625,28.80859375
1771543077.501125,52.734375,33.69140625,-16.11328125,56.15234375,19.04296875
1771543077.5050313,38.0859375,36.1328125,-17.578125,32.71484375,2.9296875
1771543077.5089376,43.45703125,35.64453125,-10.25390625,37.109375,-6.8359375
1771543077.5128438,56.15234375,37.109375,-12.6953125,59.5703125,-26.85546875
1771543077.51675,58.59375,39.0625,-8.30078125,67.3828125,33.69140625
1771543077.5206563,51.7578125,37.59765625,-10.7421875,48.33984375,70.3125
1771543077.5245626,43.45703125,37.59765625,-7.8125,34.66796875,1.46484375
1771543077.5284688,54.19921875,38.57421875,-4.8828125,50.78125,30.2734375
1771543077.532375,62.5,36.1328125,-16.6015625,61.5234375,25.390625
1771543077.5362813,40.52734375,33.69140625,-18.06640625,36.62109375,42.96875
1771543077.5401876,30.2734375,34.1796875,-9.765625,18.06640625,62.01171875
1771543077.5440938,50.78125,39.0625,-8.30078125,41.50390625,24.4140625
1771543077.546125,69.82421875,39.55078125,-9.765625,68.359375,108.3984375
1771543077.5500312,58.10546875,40.0390625,-4.39453125,54.19921875,73.73046875
1771543077.5539374,38.0859375,42.96875,-5.859375,21.97265625,20.01953125
1771543077.5578437,53.7109375,39.55078125,-9.765625,34.66796875,65.4296875
1771543077.56175,71.2890625,41.9921875,-13.18359375,61.03515625,111.81640625
1771543077.5656562,59.5703125,45.41015625,-22.94921875,47.36328125,65.4296875
1771543077.5695624,45.8984375,45.41015625,-14.6484375,23.4375,-7.32421875
1771543077.5734687,49.8046875,43.45703125,5.37109375,27.34375,34.66796875
1771543077.577375,54.19921875,37.109375,-4.8828125,52.734375,51.7578125
1771543077.5812812,50.29296875,35.64453125,-21.97265625,57.12890625,17.08984375
1771543077.5851874,37.109375,39.0625,-9.27734375,27.34375,70.3125
1771543077.5890937,30.2734375,41.015625,0.48828125,17.08984375,73.73046875
1771543077.591125,44.921875,39.0625,-1.46484375,41.9921875,79.1015625
1771543077.5950313,51.7578125,44.43359375,0.48828125,56.640625,58.10546875
1771543077.5989375,44.43359375,46.875,7.8125,37.109375,20.99609375
1771543077.6028438,32.71484375,41.9921875,5.37109375,16.6015625,46.875
1771543077.60675,29.296875,40.0390625,-0.9765625,26.85546875,-5.37109375
1771543077.6106563,44.921875,42.96875,-0.48828125,49.8046875,18.06640625
1771543077.6145625,44.43359375,40.52734375,7.32421875,41.015625,72.265625
1771543077.6184688,29.78515625,34.66796875,8.30078125,6.8359375,37.109375
1771543077.622375,32.71484375,37.109375,-7.8125,13.18359375,9.27734375
1771543077.6262813,41.50390625,39.55078125,-2.9296875,47.36328125,8.7890625
1771543077.6301875,64.453125,50.78125,1.46484375,59.5703125,9.27734375
1771543077.6340938,90.33203125,52.24609375,-1.46484375,64.453125,18.5546875
1771543077.635125,54.6875,41.015625,19.53125,39.0625,42.96875
1771543077.6390312,26.3671875,38.57421875,38.0859375,27.83203125,50.78125
1771543077.6429374,19.04296875,33.203125,53.22265625,32.71484375,-4.8828125
1771543077.6468437,6.34765625,30.76171875,62.98828125,20.5078125,1.46484375
1771543077.65075,3.41796875,20.99609375,82.03125,15.13671875,6.8359375
1771543077.6546562,12.20703125,10.25390625,106.4453125,38.0859375,60.546875
1771543077.6585624,31.73828125,16.11328125,119.62890625,71.2890625,83.49609375
1771543077.6624687,9.27734375,17.578125,126.953125,44.43359375,69.3359375
1771543077.666375,-18.06640625,2.44140625,144.53125,16.11328125,47.36328125
1771543077.6702812,-11.71875,-2.9296875,171.875,33.203125,65.91796875
1771543077.6741874,11.23046875,-1.953125,169.43359375,69.3359375,65.4296875
1771543077.6780937,-2.44140625,-3.90625,154.78515625,60.546875,-50.29296875
1771543077.681125,-14.6484375,-4.8828125,158.203125,33.203125,-13.18359375
1771543077.6850312,2.44140625,-8.30078125,158.69140625,46.875,38.0859375
1771543077.6889374,13.18359375,-6.8359375,146.484375,68.84765625,-22.94921875
1771543077.6928437,13.18359375,1.953125,137.6953125,68.359375,26.3671875
1771543077.69675,-2.44140625,4.8828125,134.27734375,34.66796875,92.28515625
1771543077.7006562,3.41796875,2.44140625,127.9296875,23.92578125,78.125
1771543077.7045624,19.53125,6.34765625,122.55859375,55.17578125,71.77734375
1771543077.7084687,23.92578125,6.34765625,110.3515625,73.73046875,92.28515625
1771543077.712375,13.671875,7.32421875,103.02734375,42.96875,34.66796875
1771543077.7162812,9.27734375,8.30078125,113.28125,29.296875,13.671875
1771543077.7201874,31.73828125,9.27734375,107.421875,56.640625,26.3671875
1771543077.7240937,44.43359375,15.625,100.09765625,78.61328125,10.25390625
1771543077.727125,31.25,14.16015625,98.6328125,62.98828125,62.98828125
1771543077.7310312,19.53125,7.32421875,94.23828125,36.1328125,44.921875
1771543077.7349374,32.2265625,11.23046875,83.0078125,54.6875,-20.5078125
1771543077.7388437,44.921875,15.13671875,76.66015625,83.49609375,-17.578125
1771543077.74275,36.1328125,18.06640625,82.03125,71.2890625,49.8046875
1771543077.7466562,24.4140625,19.53125,76.66015625,35.64453125,48.828125
1771543077.7505624,37.109375,18.5546875,67.87109375,42.96875,24.90234375
1771543077.7544687,57.12890625,18.5546875,72.265625,80.56640625,67.3828125
1771543077.758375,52.734375,14.6484375,72.75390625,83.49609375,48.33984375
1771543077.7622812,37.59765625,17.08984375,59.5703125,49.31640625,19.04296875
1771543077.7661874,45.41015625,21.97265625,52.734375,39.55078125,68.359375
1771543077.7700937,65.4296875,26.3671875,58.10546875,70.80078125,69.3359375
1771543077.771125,71.77734375,28.80859375,63.4765625,90.8203125,26.3671875
1771543077.7750313,60.05859375,23.4375,50.78125,62.5,18.06640625
1771543077.7789376,54.6875,27.34375,30.76171875,36.1328125,41.015625
1771543077.7828438,60.546875,25.87890625,37.109375,56.15234375,61.03515625
1771543077.78675,66.89453125,15.625,51.26953125,84.9609375,62.98828125
1771543077.7906563,57.6171875,23.92578125,39.55078125,64.94140625,44.921875
1771543077.7945626,44.921875,27.83203125,32.2265625,29.78515625,23.4375
1771543077.7984688,49.8046875,27.83203125,39.0625,39.55078125,20.5078125
1771543077.802375,54.6875,29.78515625,49.31640625,68.359375,32.71484375
1771543077.8062813,51.26953125,34.1796875,39.55078125,67.87109375,19.53125
1771543077.8101876,39.0625,36.1328125,28.3203125,30.2734375,-7.32421875
1771543077.8140938,48.828125,35.64453125,42.48046875,31.25,12.6953125
1771543077.816125,62.01171875,36.1328125,58.10546875,75.68359375,69.3359375
1771543077.8200312,47.36328125,34.1796875,46.38671875,77.63671875,61.03515625
1771543077.8239374,23.92578125,33.203125,30.2734375,26.85546875,62.01171875
1771543077.8278437,26.3671875,32.2265625,35.15625,13.671875,60.05859375
1771543077.83175,47.8515625,34.1796875,42.48046875,54.19921875,59.08203125
1771543077.8356562,46.875,32.2265625,30.76171875,73.2421875,62.01171875
1771543077.8395624,28.80859375,31.73828125,23.4375,37.59765625,43.9453125
1771543077.8434687,23.92578125,33.69140625,39.55078125,7.8125,7.8125
1771543077.847375,37.59765625,33.69140625,45.8984375,31.25,1.46484375
1771543077.8512812,39.55078125,36.62109375,40.52734375,56.640625,68.84765625
1771543077.8551874,26.3671875,36.1328125,29.78515625,45.41015625,89.35546875
1771543077.8590937,12.20703125,28.3203125,33.69140625,3.90625,79.1015625
1771543077.875125,20.99609375,28.80859375,40.52734375,3.90625,66.40625
1771543077.8790312,41.015625,37.109375,36.62109375,45.8984375,50.29296875
1771543077.8829374,34.1796875,40.52734375,36.1328125,43.9453125,52.734375
1771543077.8868437,17.08984375,41.9921875,38.57421875,2.44140625,3.90625
1771543077.89075,18.06640625,43.9453125,42.48046875,3.41796875,11.71875
1771543077.8946562,29.78515625,42.96875,41.015625,37.109375,79.1015625
1771543077.8985624,41.9921875,44.921875,47.36328125,48.828125,14.6484375
1771543077.9024687,23.92578125,43.9453125,52.24609375,10.25390625,-41.9921875
1771543077.906375,4.39453125,41.9921875,40.52734375,-10.25390625,-30.2734375
1771543077.9102812,21.484375,41.015625,41.50390625,23.92578125,-22.94921875
1771543077.9141874,26.85546875,41.9921875,51.7578125,41.50390625,13.671875
1771543077.9180937,6.8359375,41.50390625,54.6875,8.30078125,65.4296875
1771543077.920125,0.9765625,42.48046875,49.31640625,-27.34375,15.13671875
1771543077.9240313,11.23046875,41.015625,54.19921875,-10.7421875,-28.3203125
1771543077.9279375,10.7421875,39.0625,64.453125,16.6015625,7.32421875
1771543077.9318438,-6.34765625,41.50390625,64.453125,3.41796875,17.578125
1771543077.93575,-19.04296875,37.109375,58.10546875,-38.57421875,-0.48828125
1771543077.9396563,-8.7890625,42.96875,68.84765625,-35.64453125,17.08984375
1771543077.9435625,-1.46484375,44.921875,91.30859375,4.39453125,83.49609375
1771543077.9474688,-12.6953125,16.11328125,87.890625,17.08984375,67.3828125
1771543077.951375,-15.625,7.32421875,73.2421875,-3.41796875,65.91796875
1771543077.9552813,-34.66796875,49.8046875,74.21875,-46.875,43.45703125
1771543077.9591875,-59.5703125,71.2890625,90.8203125,-57.12890625,11.23046875
1771543077.9630938,-42.96875,63.4765625,95.703125,-29.78515625,28.80859375
1771543077.966125,-50.78125,65.91796875,82.03125,-58.59375,13.671875
1771543077.9700313,-73.73046875,74.21875,74.21875,-109.375,2.9296875
1771543077.9739375,-67.87109375,73.2421875,69.3359375,-101.07421875,9.27734375
1771543077.9778438,-51.7578125,73.73046875,57.6171875,-65.91796875,1.953125
1771543077.98175,-58.10546875,88.8671875,41.50390625,-93.75,19.04296875
1771543077.9856563,-86.9140625,94.7265625,29.296875,-153.3203125,43.9453125
1771543077.9895625,-80.56640625,103.515625,34.1796875,-144.04296875,80.078125
1771543077.9934688,-55.6640625,113.76953125,16.11328125,-97.16796875,39.55078125
1771543077.997375,-59.5703125,116.2109375,-12.6953125,-102.5390625,-0.48828125
1771543078.0012813,-83.0078125,119.140625,-15.625,-155.2734375,23.92578125
1771543078.0051875,-84.9609375,115.234375,-15.625,-163.0859375,44.921875
1771543078.0090938,-60.05859375,127.44140625,-40.52734375,-115.234375,52.734375
1771543078.011125,-45.41015625,131.34765625,-59.5703125,-87.890625,56.640625
1771543078.0150313,-56.640625,130.37109375,-73.73046875,-128.41796875,79.1015625
1771543078.0189376,-39.55078125,129.8828125,-93.75,-135.7421875,17.08984375
1771543078.0228438,-2.9296875,133.30078125,-109.86328125,-83.0078125,16.11328125
1771543078.02675,11.23046875,136.23046875,-123.53515625,-55.17578125,39.0625
1771543078.0306563,33.69140625,126.953125,-136.71875,-52.24609375,34.1796875
1771543078.0345626,65.4296875,130.859375,-151.85546875,-38.0859375,63.4765625
1771543078.0384688,111.328125,129.39453125,-162.59765625,21.484375,25.390625
1771543078.042375,153.3203125,123.53515625,-182.12890625,89.84375,7.8125
1771543078.0462813,161.62109375,115.234375,-194.82421875,83.0078125,55.17578125
1771543078.0501876,172.8515625,106.4453125,-201.171875,71.77734375,64.453125
1771543078.0540938,230.46875,104.98046875,-213.8671875,142.08984375,60.05859375
1771543078.056125,267.578125,102.5390625,-216.30859375,197.75390625,22.94921875
1771543078.0600312,275.390625,92.7734375,-212.40234375,209.47265625,32.71484375
1771543078.0639374,297.36328125,90.33203125,-215.8203125,209.9609375,69.82421875
1771543078.0678437,343.26171875,84.9609375,-214.84375,244.140625,57.6171875
1771543078.07175,364.2578125,71.2890625,-217.7734375,291.015625,59.5703125
1771543078.0756562,364.2578125,65.91796875,-231.4453125,306.640625,23.92578125
1771543078.0795624,356.93359375,59.08203125,-218.75,276.85546875,52.734375
1771543078.0834687,354.98046875,53.7109375,-215.33203125,260.7421875,92.7734375
1771543078.087375,392.578125,47.36328125,-208.0078125,319.3359375,47.36328125
1771543078.0912812,408.69140625,42.48046875,-180.17578125,354.98046875,39.0625
1771543078.0951874,379.8828125,44.43359375,-175.78125,318.359375,49.31640625
1771543078.0990937,359.86328125,45.41015625,-173.828125,282.2265625,20.5078125
1771543078.102125,358.88671875,38.0859375,-165.52734375,293.9453125,-9.27734375
1771543078.1060312,354.98046875,18.06640625,-147.4609375,318.84765625,42.96875
1771543078.1099374,337.40234375,15.13671875,-139.6484375,312.98828125,82.03125
1771543078.1138437,299.8046875,20.5078125,-139.6484375,261.23046875,66.40625
1771543078.11775,281.25,9.765625,-123.53515625,237.79296875,56.15234375
1771543078.1216562,296.38671875,5.859375,-110.83984375,281.73828125,25.390625
1771543078.1255624,286.1328125,10.25390625,-105.95703125,282.2265625,13.671875
1771543078.1294687,250.9765625,19.04296875,-102.05078125,220.703125,54.6875
1771543078.133375,233.88671875,17.08984375,-73.2421875,198.2421875,62.01171875
1771543078.1372812,238.76953125,11.23046875,-62.01171875,221.6796875,32.2265625
1771543078.1411874,238.28125,16.11328125,-75.68359375,233.3984375,8.30078125
1771543078.1450937,204.58984375,17.578125,-65.4296875,185.546875,3.90625
1771543078.147125,184.08203125,17.08984375,-46.38671875,148.92578125,37.109375
1771543078.1510313,200.1953125,19.53125,-35.64453125,181.640625,67.3828125
1771543078.1549375,194.82421875,15.13671875,-32.2265625,198.73046875,64.94140625
1771543078.1588438,162.109375,19.53125,-34.1796875,160.64453125,71.2890625
1771543078.16275,145.5078125,23.4375,-33.69140625,123.046875,-4.8828125
1771543078.1666563,152.83203125,16.11328125,-28.3203125,134.765625,-4.8828125
1771543078.1705625,159.1796875,18.06640625,-27.34375,165.52734375,56.640625
1771543078.1744688,140.625,18.06640625,-22.4609375,147.4609375,39.55078125
1771543078.178375,112.3046875,18.5546875,-12.20703125,100.5859375,31.73828125
1771543078.1822813,120.1171875,16.11328125,-6.8359375,106.4453125,52.734375
1771543078.1861875,135.25390625,14.6484375,2.9296875,137.20703125,91.30859375
1771543078.1900938,129.39453125,20.5078125,10.25390625,140.13671875,65.4296875
1771543078.192125,103.02734375,20.5078125,1.953125,99.12109375,0.9765625
1771543078.1960313,93.75,18.5546875,-4.8828125,78.61328125,-9.765625
1771543078.1999376,108.3984375,19.53125,0.9765625,109.86328125,33.203125
1771543078.2038438,113.76953125,22.4609375,15.13671875,129.8828125,62.98828125
1771543078.20775,97.16796875,21.484375,13.671875,97.65625,29.78515625
1771543078.2116563,87.40234375,20.5078125,1.46484375,71.2890625,44.43359375
1771543078.2155626,106.4453125,20.99609375,5.859375,100.5859375,50.29296875
1771543078.2194688,114.74609375,23.92578125,23.92578125,124.0234375,-13.18359375
1771543078.223375,88.8671875,26.3671875,24.90234375,93.75,-4.8828125
1771543078.2272813,75.68359375,24.4140625,19.04296875,54.6875,69.3359375
1771543078.2311876,79.58984375,21.97265625,18.5546875,60.546875,36.62109375
1771543078.2350938,85.44921875,20.01953125,20.99609375,86.42578125,15.625
1771543078.252125,76.171875,19.53125,15.13671875,76.66015625,5.37109375
1771543078.2560313,58.59375,22.4609375,12.20703125,42.48046875,-27.83203125
1771543078.2599375,65.4296875,25.87890625,22.4609375,42.96875,27.83203125
1771543078.2638438,71.2890625,20.5078125,29.296875,72.75390625,40.0390625
1771543078.26775,64.453125,18.06640625,23.92578125,79.58984375,-14.6484375
1771543078.2716563,45.41015625,20.5078125,11.23046875,42.96875,-3.41796875
1771543078.2755625,34.66796875,23.4375,16.6015625,26.3671875,40.52734375
1771543078.2794688,55.17578125,28.3203125,42.96875,64.94140625,79.1015625
1771543078.283375,57.6171875,27.34375,46.875,90.8203125,97.65625
1771543078.2872813,32.71484375,25.390625,29.296875,48.828125,86.42578125
1771543078.2911875,21.97265625,25.87890625,23.4375,11.71875,49.8046875
1771543078.2950938,37.59765625,24.90234375,26.3671875,34.1796875,25.87890625
1771543078.296125,60.05859375,30.2734375,22.4609375,71.2890625,22.94921875
1771543078.3000312,45.8984375,32.2265625,21.97265625,59.5703125,-10.25390625
1771543078.3039374,30.2734375,29.78515625,34.1796875,23.92578125,50.78125
1771543078.3078437,30.76171875,25.87890625,39.0625,22.94921875,28.3203125
1771543078.31175,43.9453125,23.4375,31.25,58.59375,34.1796875
1771543078.3156562,44.43359375,26.3671875,21.97265625,65.4296875,66.40625
1771543078.3195624,18.5546875,28.3203125,20.01953125,26.85546875,-0.48828125
1771543078.3234687,35.15625,24.90234375,37.109375,41.50390625,8.7890625
1771543078.327375,66.40625,25.390625,43.45703125,82.51953125,9.765625
1771543078.3312812,52.24609375,27.83203125,22.4609375,64.453125,52.24609375
1771543078.3351874,-1.46484375,28.3203125,21.97265625,1.46484375,75.1953125
1771543078.3390937,-24.4140625,35.15625,26.3671875,-17.08984375,21.97265625
1771543078.341125,6.8359375,37.109375,20.99609375,13.18359375,46.875
1771543078.3450313,18.5546875,31.25,28.80859375,30.76171875,6.34765625
1771543078.3489375,-9.27734375,29.296875,38.57421875,-2.44140625,63.96484375
1771543078.3528438,-18.5546875,29.296875,34.66796875,-32.71484375,140.625
1771543078.35675,0.0,30.76171875,31.73828125,1.953125,65.4296875
1771543078.3606563,23.4375,37.109375,35.64453125,43.9453125,-5.37109375
1771543078.3645625,20.99609375,38.57421875,35.15625,32.2265625,3.90625
1771543078.3684688,4.8828125,31.73828125,24.4140625,-2.9296875,16.11328125
1771543078.372375,19.53125,34.66796875,15.625,8.7890625,-15.13671875
1771543078.3762813,43.9453125,38.57421875,22.94921875,47.8515625,12.6953125
1771543078.3801875,38.57421875,28.80859375,38.57421875,51.26953125,17.08984375
1771543078.3840938,15.625,34.1796875,30.2734375,12.6953125,-21.97265625
1771543078.386125,18.5546875,41.9921875,26.85546875,4.8828125,-9.27734375
1771543078.3900313,33.69140625,39.55078125,35.64453125,31.25,7.8125
1771543078.3939376,41.50390625,41.50390625,36.1328125,47.36328125,-3.41796875
1771543078.3978438,27.83203125,41.9921875,31.25,21.484375,35.64453125
1771543078.40175,19.04296875,36.1328125,28.3203125,-2.44140625,83.0078125
1771543078.4056563,36.1328125,36.62109375,23.4375,27.34375,27.83203125
1771543078.4095626,52.24609375,40.0390625,32.2265625,61.03515625,-34.1796875
1771543078.4134688,36.1328125,39.55078125,34.66796875,42.96875,20.5078125
1771543078.417375,9.27734375,39.55078125,21.97265625,3.41796875,81.0546875
1771543078.4212813,24.4140625,33.203125,29.78515625,23.4375,62.01171875
1771543078.4251876,54.6875,31.25,36.1328125,60.05859375,29.78515625
1771543078.4290938,45.8984375,40.0390625,30.2734375,48.33984375,27.83203125
1771543078.432125,23.4375,39.0625,28.80859375,15.625,31.73828125
1771543078.4360313,32.71484375,36.1328125,32.71484375,8.30078125,31.25
1771543078.4399376,49.31640625,40.0390625,29.296875,35.15625,41.015625
1771543078.4438438,39.55078125,40.0390625,26.3671875,43.45703125,22.4609375
1771543078.44775,17.578125,36.1328125,21.484375,5.37109375,-8.30078125
1771543078.4516563,14.6484375,36.62109375,22.4609375,-3.90625,11.71875
1771543078.4555626,39.0625,39.0625,34.66796875,34.66796875,85.44921875
1771543078.4594688,44.43359375,38.57421875,26.85546875,53.22265625,99.12109375
1771543078.463375,18.06640625,36.62109375,16.6015625,13.671875,23.92578125
1771543078.4672813,8.30078125,35.64453125,32.2265625,-11.23046875,12.6953125
1771543078.4711876,38.0859375,42.96875,36.1328125,34.1796875,23.92578125
1771543078.4750938,50.78125,42.96875,32.71484375,63.96484375,64.453125
1771543078.476125,28.3203125,41.015625,30.76171875,39.55078125,70.80078125
1771543078.4800313,13.18359375,42.48046875,36.62109375,8.7890625,23.92578125
1771543078.4839375,31.25,41.50390625,32.2265625,21.484375,8.7890625
1771543078.4878438,50.29296875,34.66796875,29.78515625,55.6640625,33.69140625
1771543078.49175,38.57421875,33.69140625,35.15625,51.26953125,39.55078125
1771543078.4956563,21.97265625,37.109375,32.2265625,19.04296875,10.25390625
1771543078.4995625,31.25,37.59765625,30.76171875,30.2734375,14.6484375
1771543078.5034688,48.33984375,39.55078125,23.92578125,52.24609375,-18.06640625
1771543078.507375,50.29296875,37.59765625,35.64453125,46.38671875,18.5546875
1771543078.5112813,29.78515625,35.15625,44.921875,20.5078125,45.41015625
1771543078.5151875,24.4140625,33.69140625,32.71484375,7.32421875,45.8984375
1771543078.5190938,40.52734375,33.69140625,25.87890625,50.29296875,89.35546875
1771543078.522125,41.015625,34.1796875,33.69140625,74.21875,104.98046875
1771543078.5260313,32.71484375,35.15625,26.85546875,35.64453125,84.9609375
1771543078.5299375,25.390625,34.1796875,18.06640625,15.13671875,75.68359375
1771543078.5338438,34.1796875,36.1328125,27.34375,39.55078125,26.3671875
1771543078.53775,56.15234375,37.59765625,30.2734375,68.359375,9.765625
1771543078.5416563,43.45703125,30.76171875,25.87890625,49.8046875,63.4765625
1771543078.5455625,19.04296875,31.25,16.6015625,11.23046875,78.125
1771543078.5494688,31.25,37.109375,26.85546875,21.484375,27.34375
1771543078.553375,46.38671875,35.15625,50.29296875,56.640625,-3.90625
1771543078.5572813,35.64453125,33.203125,35.15625,53.7109375,25.87890625
1771543078.5611875,18.5546875,34.66796875,22.94921875,18.5546875,28.3203125
1771543078.5650938,22.4609375,29.296875,28.3203125,8.30078125,25.87890625
1771543078.566125,38.0859375,29.78515625,29.78515625,37.59765625,0.48828125
1771543078.5700312,43.9453125,33.69140625,25.87890625,59.08203125,-3.41796875
1771543078.5739374,27.34375,36.1328125,20.99609375,26.85546875,62.98828125
1771543078.5778437,20.01953125,36.62109375,26.3671875,2.9296875,73.73046875
1771543078.58175,39.0625,37.109375,24.4140625,39.0625,-23.92578125
1771543078.5856562,54.19921875,39.0625,20.99609375,62.01171875,8.7890625
1771543078.5895624,43.45703125,42.96875,12.6953125,31.73828125,49.31640625
1771543078.5934687,27.34375,44.43359375,24.4140625,4.39453125,19.04296875
1771543078.597375,37.109375,43.45703125,44.43359375,23.4375,57.12890625
1771543078.6012812,51.7578125,36.1328125,30.2734375,53.7109375,25.390625
1771543078.6051874,42.48046875,31.25,14.16015625,42.48046875,4.39453125
1771543078.6090937,25.87890625,38.0859375,22.4609375,11.23046875,-2.9296875
1771543078.626125,32.71484375,36.1328125,31.73828125,20.99609375,20.99609375
1771543078.6300313,46.875,37.109375,32.2265625,51.7578125,58.10546875
1771543078.6339376,43.9453125,39.0625,28.3203125,54.6875,52.24609375
1771543078.6378438,16.6015625,35.15625,25.87890625,18.06640625,25.87890625
1771543078.64175,11.23046875,34.66796875,27.83203125,10.25390625,-28.3203125
1771543078.6456563,39.55078125,36.1328125,25.87890625,45.8984375,26.85546875
1771543078.6495626,43.45703125,36.62109375,23.92578125,57.6171875,131.34765625
1771543078.6534688,18.06640625,38.0859375,25.390625,16.11328125,100.5859375
1771543078.657375,11.23046875,38.0859375,24.90234375,-8.7890625,54.19921875
1771543078.6612813,27.83203125,37.59765625,22.94921875,19.53125,15.13671875
1771543078.6651876,37.59765625,38.57421875,34.1796875,50.29296875,41.9921875
1771543078.6690938,27.83203125,41.015625,45.41015625,32.71484375,95.21484375
1771543078.672125,12.6953125,38.0859375,30.2734375,-0.48828125,32.2265625
1771543078.6760314,24.90234375,34.66796875,24.4140625,12.6953125,9.27734375
1771543078.6799376,44.921875,36.62109375,28.80859375,46.875,52.24609375
1771543078.6838439,34.1796875,34.1796875,29.296875,41.015625,92.7734375
1771543078.68775,8.30078125,30.76171875,26.3671875,5.859375,54.19921875
1771543078.6916564,20.5078125,33.69140625,22.94921875,15.13671875,-1.953125
1771543078.6955626,41.015625,38.0859375,33.203125,52.734375,22.4609375
1771543078.6994689,34.1796875,35.15625,42.48046875,58.10546875,62.98828125
1771543078.703375,19.53125,35.15625,30.2734375,27.83203125,51.7578125
1771543078.7072814,14.6484375,39.55078125,17.08984375,6.8359375,6.8359375
1771543078.7111876,37.109375,35.15625,35.15625,33.69140625,-0.9765625
1771543078.7150939,50.29296875,28.3203125,47.36328125,63.96484375,67.87109375
1771543078.716125,31.25,30.2734375,40.52734375,36.1328125,67.3828125
1771543078.7200313,13.671875,35.15625,35.15625,11.23046875,52.734375
1771543078.7239375,34.1796875,38.57421875,31.73828125,38.57421875,17.578125
1771543078.7278438,56.640625,37.59765625,30.2734375,62.98828125,1.953125
1771543078.73175,39.0625,32.71484375,21.97265625,47.36328125,23.4375
1771543078.7356563,20.5078125,34.1796875,20.01953125,17.08984375,-27.83203125
1771543078.7395625,26.85546875,37.109375,27.34375,20.99609375,1.46484375
1771543078.7434688,48.828125,38.57421875,35.64453125,51.26953125,33.69140625
1771543078.747375,50.78125,35.64453125,32.2265625,55.6640625,20.99609375
1771543078.7512813,23.92578125,35.15625,35.64453125,22.94921875,68.84765625
1771543078.7551875,18.06640625,33.69140625,40.0390625,9.765625,31.73828125
1771543078.7590938,25.87890625,34.1796875,27.83203125,34.66796875,-6.8359375
1771543078.762125,32.71484375,42.96875,25.87890625,49.8046875,57.6171875
1771543078.7660313,22.4609375,40.52734375,28.80859375,15.625,38.0859375
1771543078.7699375,20.5078125,35.64453125,36.62109375,-7.32421875,33.69140625
1771543078.7738438,39.0625,37.59765625,39.55078125,20.5078125,53.7109375
1771543078.77775,41.50390625,32.71484375,30.76171875,39.0625,35.15625
1771543078.7816563,22.4609375,30.76171875,25.390625,16.6015625,46.38671875
1771543078.7855625,4.39453125,37.109375,27.34375,-6.34765625,33.69140625
1771543078.7894688,16.11328125,39.0625,28.3203125,10.25390625,14.6484375
1771543078.793375,40.0390625,35.64453125,30.76171875,35.15625,86.9140625
1771543078.7972813,31.25,34.1796875,39.0625,23.4375,62.01171875
1771543078.8011875,4.8828125,35.15625,36.1328125,-8.30078125,-20.01953125
1771543078.8050938,13.671875,31.73828125,32.2265625,3.41796875,21.97265625
1771543078.807125,38.0859375,34.1796875,31.73828125,38.0859375,26.3671875
1771543078.8110313,24.90234375,37.59765625,31.25,34.1796875,22.94921875
1771543078.8149376,5.37109375,34.1796875,37.109375,12.20703125,48.33984375
1771543078.8188438,5.859375,31.25,43.45703125,10.25390625,37.59765625
1771543078.82275,23.4375,30.2734375,36.62109375,32.71484375,-11.71875
1771543078.8266563,30.2734375,34.66796875,29.296875,49.8046875,-29.296875
1771543078.8305626,-5.37109375,35.15625,32.2265625,10.25390625,-4.8828125
1771543078.8344688,-8.30078125,33.69140625,24.4140625,-5.859375,28.80859375
1771543078.838375,25.390625,30.76171875,29.78515625,29.78515625,40.0390625
1771543078.8422813,30.2734375,29.296875,45.8984375,48.33984375,23.92578125
1771543078.8461876,7.8125,29.78515625,40.52734375,26.85546875,38.57421875
1771543078.8500938,-7.8125,32.2265625,35.15625,-8.30078125,17.578125
1771543078.852125,7.8125,29.78515625,39.0625,5.37109375,9.765625
1771543078.8560312,24.4140625,27.34375,40.0390625,33.203125,28.80859375
1771543078.8599374,13.18359375,35.15625,32.2265625,28.3203125,44.921875
1771543078.8638437,-5.37109375,36.62109375,33.69140625,-5.859375,85.44921875
1771543078.86775,-5.859375,33.203125,36.1328125,-12.6953125,84.47265625
1771543078.8716562,44.921875,34.1796875,24.90234375,49.8046875,109.86328125
1771543078.8755624,81.54296875,51.7578125,26.3671875,89.84375,98.14453125
1771543078.8794687,6.8359375,49.8046875,32.2265625,5.37109375,23.4375
1771543078.883375,-54.19921875,28.80859375,36.62109375,-57.6171875,38.57421875
1771543078.8872812,-41.015625,40.0390625,39.55078125,-28.3203125,63.96484375
1771543078.8911874,-56.640625,39.55078125,34.1796875,-36.62109375,54.19921875
1771543078.8950937,-99.609375,19.04296875,37.59765625,-90.8203125,44.43359375
1771543078.896125,-128.90625,21.484375,40.52734375,-124.51171875,-1.46484375
1771543078.9000313,-131.8359375,31.73828125,48.828125,-124.0234375,53.22265625
1771543078.9039376,-116.69921875,34.66796875,52.734375,-105.46875,32.71484375
1771543078.9078438,-132.32421875,28.3203125,48.33984375,-123.53515625,-30.76171875
1771543078.91175,-168.9453125,26.85546875,38.57421875,-170.41015625,4.39453125
1771543078.9156563,-148.92578125,33.203125,31.73828125,-150.87890625,-10.25390625
1771543078.9195626,-114.74609375,28.80859375,31.73828125,-102.5390625,1.46484375
1771543078.9234688,-112.79296875,27.83203125,34.66796875,-94.7265625,23.92578125
1771543078.927375,-123.046875,31.73828125,44.921875,-117.1875,-1.46484375
1771543078.9312813,-111.328125,27.34375,46.38671875,-107.421875,29.296875
1771543078.9351876,-83.0078125,30.76171875,43.9453125,-67.87109375,59.5703125
1771543078.9390938,-72.75390625,35.15625,43.9453125,-58.10546875,34.66796875
1771543078.941125,-82.03125,36.62109375,52.734375,-80.078125,59.5703125
1771543078.9450312,-84.47265625,41.015625,59.5703125,-85.9375,37.59765625
1771543078.9489374,-60.05859375,39.0625,51.7578125,-55.17578125,35.15625
1771543078.9528437,-40.0390625,34.66796875,37.109375,-34.66796875,25.87890625
1771543078.95675,-55.6640625,35.15625,34.1796875,-52.24609375,39.0625
1771543078.9606562,-63.96484375,38.0859375,33.203125,-63.4765625,60.546875
1771543078.9645624,-40.52734375,35.15625,32.71484375,-41.015625,20.01953125
1771543078.9684687,-14.6484375,36.1328125,41.9921875,-11.71875,-5.859375
1771543078.972375,-22.94921875,40.0390625,42.48046875,-20.01953125,20.5078125
1771543078.9762812,-46.875,38.57421875,30.2734375,-49.8046875,1.46484375
1771543078.9801874,-34.1796875,34.1796875,34.66796875,-37.109375,-13.18359375
1771543078.9840937,-1.46484375,35.64453125,43.9453125,-1.46484375,26.85546875
1771543079.001125,-1.46484375,40.52734375,37.59765625,4.8828125,-1.953125
1771543079.0050313,-21.97265625,41.50390625,43.45703125,-20.5078125,9.27734375
1771543079.0089376,-21.97265625,42.96875,43.9453125,-28.3203125,48.828125
1771543079.0128438,-1.953125,37.59765625,36.62109375,-1.46484375,41.015625
1771543079.01675,11.71875,37.109375,38.0859375,18.5546875,37.59765625
1771543079.0206563,-14.16015625,35.15625,31.25,-5.859375,44.921875
1771543079.0245626,-29.78515625,28.80859375,34.1796875,-26.85546875,29.296875
1771543079.0284688,2.9296875,33.69140625,43.45703125,3.90625,22.4609375
1771543079.032375,21.484375,36.62109375,36.1328125,29.78515625,65.91796875
1771543079.0362813,3.90625,35.64453125,34.1796875,7.32421875,24.90234375
1771543079.0401876,-8.30078125,34.66796875,42.48046875,-17.08984375,-3.41796875
1771543079.0440938,9.27734375,37.59765625,39.55078125,4.8828125,49.8046875
1771543079.046125,26.85546875,41.015625,30.76171875,35.15625,68.84765625
1771543079.0500312,20.99609375,36.1328125,29.296875,27.83203125,67.3828125
1771543079.0539374,3.41796875,31.25,34.1796875,-1.46484375,57.6171875
1771543079.0578437,8.30078125,35.15625,36.1328125,-2.44140625,69.82421875
1771543079.06175,31.25,37.109375,31.25,30.76171875,63.4765625
1771543079.0656562,27.83203125,35.64453125,25.390625,37.59765625,15.625
1771543079.0695624,-5.859375,42.48046875,30.2734375,-1.46484375,23.4375
1771543079.0734687,3.90625,47.36328125,48.828125,-0.9765625,63.96484375
1771543079.077375,32.2265625,38.0859375,41.50390625,34.1796875,75.1953125
1771543079.0812812,29.296875,36.1328125,20.99609375,41.9921875,49.31640625
1771543079.0851874,5.859375,37.109375,25.390625,18.5546875,-33.69140625
1771543079.0890937,-5.859375,29.296875,30.2734375,-4.39453125,-14.16015625
1771543079.092125,10.7421875,30.76171875,32.71484375,12.20703125,52.734375
1771543079.0960312,25.87890625,34.66796875,30.2734375,40.52734375,32.71484375
1771543079.0999374,10.7421875,36.1328125,28.80859375,24.4140625,28.3203125
1771543079.1038437,7.32421875,31.25,43.9453125,8.7890625,62.98828125
1771543079.10775,40.0390625,23.92578125,45.41015625,41.9921875,93.75
1771543079.1116562,40.0390625,27.34375,31.25,51.26953125,80.56640625
1771543079.1155624,12.20703125,43.45703125,32.71484375,24.90234375,79.58984375
1771543079.1194687,3.41796875,40.0390625,32.2265625,9.765625,81.0546875
1771543079.123375,15.13671875,24.90234375,23.4375,14.6484375,46.875
1771543079.1272812,33.69140625,30.76171875,22.4609375,37.59765625,18.5546875
1771543079.1311874,38.57421875,27.34375,32.2265625,44.921875,46.38671875
1771543079.1350937,21.97265625,29.296875,32.71484375,22.4609375,94.23828125
1771543079.136125,19.04296875,39.55078125,22.4609375,12.6953125,6.8359375
1771543079.1400313,38.0859375,41.9921875,31.25,39.0625,-36.62109375
1771543079.1439376,49.8046875,38.0859375,42.48046875,61.5234375,-22.94921875
1771543079.1478438,29.296875,36.1328125,30.2734375,33.203125,0.9765625
1771543079.15175,12.6953125,45.41015625,24.4140625,14.6484375,42.48046875
1771543079.1556563,28.80859375,40.0390625,28.3203125,39.55078125,20.99609375
1771543079.1595626,51.26953125,29.296875,29.78515625,61.03515625,23.4375
1771543079.1634688,40.0390625,32.2265625,31.25,49.31640625,39.55078125
1771543079.167375,16.6015625,28.3203125,23.92578125,12.20703125,31.73828125
1771543079.1712813,20.01953125,25.87890625,32.71484375,12.6953125,-6.8359375
1771543079.1751876,43.9453125,32.71484375,39.55078125,46.875,-9.765625
1771543079.1790938,44.43359375,33.203125,43.45703125,48.33984375,24.4140625
1771543079.181125,9.765625,32.71484375,41.50390625,12.6953125,47.8515625
1771543079.1850312,9.27734375,36.62109375,34.1796875,10.25390625,66.40625
1771543079.1889374,32.2265625,39.0625,34.66796875,39.55078125,55.17578125
1771543079.1928437,32.71484375,38.0859375,34.1796875,49.31640625,41.9921875
1771543079.19675,9.765625,29.78515625,31.73828125,20.99609375,30.2734375
1771543079.2006562,5.37109375,30.2734375,30.76171875,2.9296875,3.41796875
1771543079.2045624,31.73828125,36.62109375,35.15625,33.203125,17.08984375
1771543079.2084687,46.38671875,36.1328125,28.80859375,50.78125,-20.01953125
1771543079.212375,30.2734375,37.59765625,29.296875,23.92578125,15.625
1771543079.2162812,13.671875,40.0390625,49.31640625,5.37109375,27.83203125
1771543079.2201874,31.25,39.0625,53.22265625,30.2734375,7.8125
1771543079.2240937,51.7578125,37.109375,38.57421875,54.6875,38.0859375
1771543079.226125,34.66796875,40.0390625,29.78515625,35.64453125,48.828125
1771543079.2300313,10.7421875,41.50390625,29.78515625,6.8359375,30.2734375
1771543079.2339375,22.94921875,35.64453125,28.80859375,13.671875,-19.04296875
1771543079.2378438,51.26953125,34.66796875,35.15625,43.9453125,51.26953125
1771543079.24175,52.24609375,36.1328125,40.52734375,49.31640625,135.25390625
1771543079.2456563,30.2734375,38.0859375,35.15625,19.04296875,44.43359375
1771543079.2495625,33.69140625,40.0390625,35.15625,18.5546875,19.04296875
1771543079.2534688,58.10546875,43.9453125,35.15625,51.26953125,13.18359375
1771543079.257375,55.6640625,43.9453125,45.8984375,52.24609375,37.109375
1771543079.2612813,24.90234375,38.0859375,40.0390625,21.484375,77.1484375
1771543079.2651875,25.390625,39.55078125,32.2265625,14.6484375,42.96875
1771543079.2690938,49.31640625,34.66796875,39.0625,55.6640625,-8.30078125
1771543079.272125,59.08203125,32.2265625,46.875,67.87109375,4.8828125
1771543079.2760313,35.64453125,39.0625,47.36328125,33.203125,31.73828125
1771543079.2799375,5.37109375,33.69140625,45.41015625,8.7890625,-6.8359375
1771543079.2838438,15.13671875,29.78515625,47.8515625,24.4140625,-5.859375
1771543079.28775,37.59765625,36.62109375,51.26953125,57.6171875,12.6953125
1771543079.2916563,28.3203125,34.66796875,41.9921875,36.62109375,28.3203125
1771543079.2955625,1.46484375,30.2734375,23.4375,-7.8125,64.453125
1771543079.2994688,5.37109375,27.83203125,29.78515625,-3.90625,85.9375
1771543079.303375,30.76171875,30.76171875,41.50390625,31.73828125,90.8203125
1771543079.3072813,32.71484375,34.66796875,36.62109375,34.66796875,72.265625
1771543079.3111875,0.48828125,35.15625,36.62109375,-0.48828125,72.75390625
1771543079.3150938,-2.9296875,36.1328125,40.0390625,-10.7421875,48.828125
1771543079.317125,18.06640625,31.73828125,44.43359375,18.5546875,50.29296875
1771543079.3210313,28.3203125,35.64453125,38.0859375,34.1796875,48.828125
1771543079.3249376,18.5546875,41.50390625,40.0390625,11.71875,29.296875
1771543079.3288438,5.859375,41.015625,48.828125,-9.27734375,60.546875
1771543079.33275,22.94921875,37.59765625,41.50390625,3.90625,71.2890625
1771543079.3366563,39.0625,35.64453125,29.296875,30.76171875,29.296875
1771543079.3405626,24.4140625,37.59765625,19.04296875,21.484375,32.2265625
1771543079.3444688,2.9296875,36.1328125,32.71484375,-10.25390625,63.4765625
1771543079.348375,7.8125,38.57421875,43.9453125,-2.44140625,50.78125
1771543079.3522813,22.94921875,42.96875,37.59765625,34.66796875,37.109375
1771543079.3561876,18.5546875,43.9453125,38.0859375,34.66796875,34.1796875
1771543079.3600938,-1.953125,39.0625,43.9453125,-6.34765625,37.109375
1771543079.376125,-7.8125,37.109375,36.62109375,-15.625,54.19921875
1771543079.3800313,21.484375,40.52734375,22.4609375,16.11328125,11.23046875
1771543079.3839376,34.66796875,40.0390625,27.34375,31.25,5.859375
1771543079.3878438,-1.46484375,38.0859375,32.71484375,2.44140625,61.03515625
1771543079.39175,-8.7890625,35.64453125,34.66796875,-6.8359375,8.7890625
1771543079.3956563,20.01953125,39.0625,28.80859375,24.4140625,23.4375
1771543079.3995626,29.78515625,44.921875,29.78515625,39.0625,40.0390625
1771543079.4034688,9.765625,39.55078125,52.24609375,14.6484375,20.99609375
1771543079.407375,-4.39453125,32.71484375,44.43359375,-5.859375,42.96875
1771543079.4112813,13.18359375,33.203125,29.296875,17.578125,65.4296875
1771543079.4151876,29.296875,34.66796875,36.1328125,39.0625,81.0546875
1771543079.4190938,19.53125,37.59765625,33.69140625,28.3203125,42.96875
1771543079.421125,5.37109375,38.57421875,27.34375,7.32421875,24.4140625
1771543079.4250312,9.27734375,36.1328125,32.2265625,11.71875,54.6875
1771543079.4289374,28.3203125,36.1328125,34.1796875,36.62109375,56.15234375
1771543079.4328437,36.1328125,34.66796875,32.2265625,41.015625,51.7578125
1771543079.43675,11.23046875,34.66796875,28.3203125,11.23046875,22.4609375
1771543079.4406562,6.34765625,32.71484375,36.1328125,12.6953125,-2.9296875
1771543079.4445624,20.99609375,30.2734375,38.57421875,32.71484375,38.0859375
1771543079.4484687,29.296875,29.78515625,32.71484375,31.73828125,68.359375
1771543079.452375,11.23046875,28.3203125,27.34375,6.8359375,78.61328125
1771543079.4562812,0.48828125,37.59765625,20.5078125,-8.30078125,46.38671875
1771543079.4601874,22.4609375,36.1328125,36.1328125,17.08984375,-23.92578125
1771543079.4640937,36.62109375,30.2734375,43.45703125,39.55078125,8.7890625
1771543079.466125,19.04296875,32.2265625,35.64453125,20.01953125,100.09765625
1771543079.4700313,1.46484375,31.25,31.73828125,-4.39453125,29.296875
1771543079.4739375,18.06640625,34.1796875,36.1328125,10.7421875,-17.578125
1771543079.4778438,41.9921875,35.15625,35.64453125,38.57421875,-36.1328125
1771543079.48175,35.64453125,37.109375,27.83203125,36.62109375,-6.34765625
1771543079.4856563,5.859375,38.0859375,21.97265625,0.0,57.12890625
1771543079.4895625,8.30078125,35.15625,23.92578125,0.0,-5.859375
1771543079.4934688,38.57421875,39.55078125,30.2734375,35.64453125,-32.71484375
1771543079.497375,40.0390625,42.96875,25.390625,42.48046875,51.26953125
1771543079.5012813,10.25390625,41.9921875,24.4140625,13.671875,55.17578125
1771543079.5051875,5.859375,38.0859375,40.52734375,9.27734375,1.953125
1771543079.5090938,40.52734375,37.59765625,46.38671875,43.9453125,29.296875
1771543079.510125,46.875,37.59765625,46.38671875,50.78125,54.6875
1771543079.5140312,16.6015625,36.1328125,34.66796875,18.06640625,43.9453125
1771543079.5179374,-1.46484375,36.62109375,26.3671875,-1.46484375,45.41015625
1771543079.5218437,23.4375,36.1328125,28.80859375,30.76171875,56.15234375
1771543079.52575,48.33984375,35.64453125,31.73828125,57.12890625,62.98828125
1771543079.5296562,24.4140625,34.66796875,31.25,34.1796875,62.01171875
1771543079.5335624,3.90625,32.71484375,35.64453125,13.18359375,13.671875
1771543079.5374687,20.99609375,29.78515625,32.71484375,24.4140625,7.8125
1771543079.541375,41.9921875,33.69140625,22.94921875,41.50390625,13.18359375
1771543079.5452812,41.9921875,41.015625,42.48046875,34.66796875,21.484375
1771543079.5491874,19.53125,39.55078125,47.8515625,9.27734375,34.66796875
1771543079.5530937,12.20703125,40.52734375,31.25,11.71875,28.80859375
1771543079.555125,41.015625,41.9921875,28.80859375,48.33984375,16.11328125
1771543079.5590312,47.36328125,29.78515625,33.69140625,44.43359375,49.8046875
1771543079.5629375,13.671875,25.87890625,27.83203125,6.34765625,51.26953125
1771543079.5668437,1.46484375,25.390625,28.80859375,0.0,20.01953125
1771543079.57075,30.2734375,28.3203125,37.109375,26.3671875,41.9921875
1771543079.5746562,43.9453125,37.109375,40.0390625,46.875,80.078125
1771543079.5785625,15.13671875,34.66796875,43.45703125,26.85546875,78.125
1771543079.5824687,-9.27734375,29.78515625,30.2734375,1.953125,21.484375
1771543079.586375,10.25390625,31.25,28.3203125,17.578125,30.76171875
1771543079.5902812,33.69140625,35.64453125,43.45703125,39.55078125,75.1953125
1771543079.5941875,18.06640625,36.1328125,35.64453125,28.80859375,12.6953125
1771543079.5980937,2.44140625,35.64453125,31.73828125,11.23046875,26.3671875
1771543079.601125,17.08984375,33.69140625,41.9921875,14.16015625,53.7109375
1771543079.6050313,41.015625,32.2265625,40.0390625,36.62109375,35.15625
1771543079.6089375,44.921875,36.62109375,28.80859375,43.45703125,50.29296875
1771543079.6128438,15.13671875,39.0625,32.2265625,11.23046875,28.3203125
1771543079.61675,12.6953125,34.1796875,40.0390625,11.23046875,35.64453125
1771543079.6206563,41.015625,35.15625,29.78515625,46.38671875,43.9453125
1771543079.6245625,45.8984375,38.57421875,25.390625,54.6875,24.4140625
1771543079.6284688,22.4609375,35.64453125,29.78515625,27.34375,50.29296875
1771543079.632375,7.32421875,30.76171875,41.015625,9.27734375,84.9609375
1771543079.6362813,27.83203125,34.66796875,41.015625,35.64453125,52.734375
1771543079.6401875,44.921875,34.66796875,37.109375,66.89453125,18.06640625
1771543079.6440938,17.578125,32.2265625,38.0859375,36.62109375,33.69140625
1771543079.647125,-5.859375,35.15625,30.76171875,5.859375,-19.53125
1771543079.6510313,16.6015625,34.1796875,30.2734375,24.90234375,-3.41796875
1771543079.6549375,35.15625,34.66796875,27.34375,38.0859375,54.19921875
1771543079.6588438,21.97265625,39.0625,28.3203125,28.3203125,-16.6015625
1771543079.66275,0.0,41.50390625,35.15625,6.8359375,-35.15625
1771543079.6666563,19.04296875,37.59765625,27.34375,15.625,24.90234375
1771543079.6705625,61.5234375,29.296875,26.85546875,66.89453125,16.6015625
1771543079.6744688,72.265625,24.90234375,45.8984375,98.14453125,1.953125
1771543079.678375,16.6015625,41.9921875,42.48046875,23.92578125,24.90234375
1771543079.6822813,-5.859375,48.828125,20.99609375,-17.08984375,54.6875
1771543079.6861875,43.45703125,40.52734375,15.13671875,33.203125,79.1015625
1771543079.6900938,76.66015625,37.59765625,9.765625,60.05859375,23.92578125
1771543079.691125,95.703125,31.73828125,8.30078125,76.171875,32.71484375
1771543079.6950312,104.00390625,36.62109375,9.27734375,82.03125,73.73046875
1771543079.6989374,102.05078125,44.43359375,-6.8359375,84.47265625,35.64453125
1771543079.7028437,109.86328125,34.1796875,-1.46484375,99.12109375,45.41015625
1771543079.70675,110.83984375,32.2265625,6.34765625,104.00390625,65.4296875
1771543079.7106562,98.6328125,40.0390625,0.48828125,92.7734375,25.390625
1771543079.7145624,110.83984375,37.59765625,-3.90625,104.00390625,41.015625
1771543079.7184687,128.90625,29.78515625,13.18359375,125.0,87.40234375
1771543079.722375,124.51171875,35.15625,22.4609375,125.48828125,18.06640625
1771543079.7262812,90.33203125,38.0859375,12.20703125,95.21484375,-27.34375
1771543079.7301874,90.8203125,33.69140625,9.765625,89.84375,-17.578125
1771543079.7340937,109.375,36.62109375,14.6484375,110.83984375,20.5078125
1771543079.751125,108.88671875,39.0625,12.6953125,113.28125,82.51953125
1771543079.7550313,82.03125,32.71484375,7.8125,82.51953125,50.29296875
1771543079.7589376,64.94140625,32.2265625,14.6484375,60.05859375,20.01953125
1771543079.7628438,88.37890625,34.66796875,19.04296875,83.0078125,51.7578125
1771543079.76675,101.5625,33.69140625,17.08984375,106.4453125,25.87890625
1771543079.7706563,76.171875,37.109375,13.671875,81.0546875,39.0625
1771543079.7745626,60.546875,35.15625,19.04296875,52.24609375,58.10546875
1771543079.7784688,82.03125,32.2265625,31.25,71.2890625,-9.765625
1771543079.782375,98.14453125,38.0859375,31.25,93.26171875,6.8359375
1771543079.7862813,82.03125,41.015625,15.13671875,77.63671875,13.18359375
1771543079.7901876,59.5703125,37.109375,21.97265625,51.7578125,73.2421875
1771543079.7940938,65.4296875,34.1796875,29.78515625,59.5703125,39.0625
1771543079.796125,83.984375,33.203125,16.11328125,83.0078125,-21.484375
1771543079.8000312,79.1015625,28.80859375,11.71875,77.1484375,-7.8125
1771543079.8039374,58.10546875,32.2265625,22.94921875,47.8515625,11.71875
1771543079.8078437,52.734375,36.62109375,28.80859375,46.38671875,68.359375
1771543079.81175,73.73046875,32.2265625,22.4609375,73.73046875,81.0546875
1771543079.8156562,83.984375,41.015625,23.92578125,79.1015625,56.15234375
1771543079.8195624,57.12890625,44.921875,35.15625,47.8515625,26.85546875
1771543079.8234687,43.9453125,35.64453125,34.1796875,34.66796875,0.9765625
1771543079.827375,58.59375,35.15625,16.6015625,50.29296875,25.390625
1771543079.8312812,69.82421875,38.57421875,0.48828125,62.5,37.109375
1771543079.8351874,54.19921875,38.57421875,19.04296875,47.8515625,22.4609375
1771543079.8390937,30.76171875,36.62109375,36.62109375,30.76171875,22.94921875
1771543079.841125,53.22265625,41.015625,31.25,48.33984375,47.36328125
1771543079.8450313,85.44921875,41.9921875,33.69140625,83.0078125,82.03125
1771543079.8489375,85.9375,30.76171875,32.2265625,96.6796875,58.10546875
1771543079.8528438,70.3125,32.2265625,27.34375,77.1484375,50.29296875
1771543079.85675,42.96875,54.6875,22.4609375,39.0625,96.19140625
1771543079.8606563,62.98828125,51.7578125,16.6015625,49.31640625,96.6796875
1771543079.8645625,103.02734375,39.55078125,14.16015625,102.05078125,35.64453125
1771543079.8684688,90.8203125,29.296875,24.4140625,92.7734375,-1.953125
1771543079.872375,93.75,33.69140625,19.04296875,83.0078125,37.109375
1771543079.8762813,138.18359375,42.96875,14.16015625,122.55859375,39.0625
1771543079.8801875,152.83203125,33.69140625,23.4375,140.13671875,83.0078125
1771543079.8840938,113.76953125,33.203125,15.625,108.3984375,81.0546875
1771543079.886125,102.05078125,33.203125,16.11328125,92.28515625,31.25
1771543079.8900313,122.0703125,36.62109375,22.94921875,114.2578125,29.78515625
1771543079.8939376,125.48828125,34.66796875,24.4140625,124.0234375,-25.390625
1771543079.8978438,103.02734375,37.59765625,18.5546875,105.46875,-27.34375
1771543079.90175,84.9609375,40.0390625,22.4609375,86.42578125,-14.6484375
1771543079.9056563,99.609375,34.66796875,20.99609375,93.75,2.44140625
1771543079.9095626,110.83984375,34.1796875,23.92578125,106.4453125,-6.8359375
1771543079.9134688,106.93359375,39.55078125,31.73828125,103.515625,-1.46484375
1771543079.917375,81.0546875,42.48046875,21.97265625,74.21875,43.9453125
1771543079.9212813,72.265625,39.0625,26.85546875,69.3359375,28.80859375
1771543079.9251876,94.7265625,37.59765625,28.80859375,99.12109375,57.12890625
1771543079.9290938,90.33203125,36.62109375,19.04296875,93.26171875,87.40234375
1771543079.932125,62.98828125,35.15625,20.5078125,59.08203125,77.1484375
1771543079.9360313,56.640625,35.64453125,21.97265625,57.6171875,36.62109375
1771543079.9399376,73.2421875,36.1328125,21.97265625,77.1484375,-20.01953125
1771543079.9438438,83.0078125,36.1328125,19.53125,74.21875,-21.97265625
1771543079.94775,57.6171875,38.57421875,28.80859375,46.875,29.296875
1771543079.9516563,41.015625,41.015625,33.203125,36.62109375,76.66015625
1771543079.9555626,65.4296875,42.96875,24.4140625,58.10546875,119.140625
1771543079.9594688,81.0546875,39.55078125,14.6484375,72.265625,99.609375
1771543079.963375,50.29296875,37.109375,19.53125,51.7578125,62.5
1771543079.9672813,31.25,38.57421875,35.15625,25.87890625,52.24609375
1771543079.9711876,46.875,35.15625,31.25,35.15625,24.4140625
1771543079.9750938,67.3828125,36.62109375,23.92578125,60.546875,21.97265625
1771543079.976125,61.5234375,36.1328125,24.4140625,56.640625,13.671875
1771543079.9800313,35.64453125,38.57421875,33.203125,32.71484375,-10.7421875
1771543079.9839375,42.48046875,38.0859375,37.59765625,36.62109375,-9.765625
1771543079.9878438,64.94140625,36.62109375,28.80859375,60.05859375,52.24609375
1771543079.99175,62.01171875,35.64453125,22.94921875,62.98828125,38.0859375
1771543079.9956563,35.64453125,35.15625,26.3671875,36.1328125,-10.7421875
1771543079.9995625,35.15625,38.57421875,24.90234375,28.80859375,40.52734375
1771543080.0034688,62.01171875,37.59765625,20.99609375,56.640625,75.1953125
1771543080.007375,61.03515625,38.0859375,26.3671875,68.84765625,58.10546875
1771543080.0112813,36.62109375,38.57421875,39.55078125,45.8984375,81.0546875
1771543080.0151875,27.83203125,39.0625,34.1796875,24.4140625,81.54296875
1771543080.0190938,39.55078125,36.62109375,27.34375,34.66796875,-14.16015625
1771543080.022125,55.17578125,41.015625,31.73828125,49.31640625,33.69140625
1771543080.0260313,41.015625,42.48046875,34.1796875,41.50390625,66.40625
1771543080.0299375,19.04296875,39.55078125,43.9453125,23.92578125,69.82421875
1771543080.0338438,31.25,36.1328125,34.66796875,26.85546875,70.80078125
1771543080.03775,53.22265625,33.69140625,22.94921875,50.29296875,58.59375
1771543080.0416563,39.0625,36.1328125,23.4375,49.8046875,63.4765625
1771543080.0455625,11.71875,42.48046875,15.625,25.87890625,5.37109375
1771543080.0494688,19.04296875,37.59765625,23.92578125,24.4140625,19.04296875
1771543080.053375,37.59765625,30.76171875,40.0390625,44.43359375,36.1328125
1771543080.0572813,42.48046875,39.55078125,37.59765625,54.6875,23.4375
1771543080.0611875,23.4375,43.9453125,41.9921875,36.62109375,39.0625
1771543080.0650938,19.04296875,39.0625,56.640625,23.92578125,36.62109375
1771543080.066125,39.55078125,39.0625,49.31640625,39.0625,25.390625
1771543080.0700312,50.29296875,32.71484375,27.83203125,55.6640625,20.99609375
1771543080.0739374,27.83203125,27.34375,21.97265625,34.1796875,15.625
1771543080.0778437,10.25390625,31.73828125,32.71484375,11.71875,6.8359375
1771543080.08175,30.76171875,32.71484375,37.109375,29.78515625,46.38671875
1771543080.0856562,47.8515625,37.109375,26.3671875,50.78125,61.5234375
1771543080.0895624,28.80859375,42.96875,27.83203125,35.15625,62.01171875
1771543080.0934687,9.27734375,38.57421875,46.38671875,9.27734375,21.484375
1771543080.097375,22.94921875,35.64453125,40.0390625,11.71875,-14.6484375
1771543080.1012812,39.55078125,36.1328125,20.5078125,35.15625,18.5546875
1771543080.1051874,26.3671875,36.62109375,23.92578125,36.62109375,66.40625
1771543080.1090937,-0.9765625,37.59765625,37.59765625,6.8359375,59.08203125
1771543080.126125,9.765625,35.64453125,38.57421875,11.23046875,60.05859375
1771543080.1300313,21.97265625,34.1796875,32.71484375,30.76171875,61.03515625
1771543080.1339376,25.87890625,38.0859375,34.1796875,41.50390625,32.71484375
1771543080.1378438,13.18359375,35.15625,36.62109375,27.83203125,31.25
1771543080.14175,5.859375,28.3203125,32.2265625,11.71875,50.78125
1771543080.1456563,33.203125,36.62109375,11.71875,28.80859375,48.33984375
1771543080.1495626,45.41015625,42.96875,10.25390625,41.50390625,74.21875
1771543080.1534688,32.71484375,39.55078125,31.73828125,33.203125,77.63671875
1771543080.157375,21.484375,34.66796875,35.15625,14.6484375,52.734375
1771543080.1612813,34.1796875,36.1328125,27.83203125,18.06640625,33.69140625
1771543080.1651876,49.8046875,43.9453125,19.53125,38.57421875,-11.23046875
1771543080.1690938,33.203125,39.55078125,24.90234375,30.76171875,-20.01953125
1771543080.171125,13.671875,37.109375,38.0859375,12.20703125,49.31640625
1771543080.1750312,23.4375,41.9921875,29.296875,17.08984375,35.64453125
1771543080.1789374,41.50390625,50.78125,25.390625,34.1796875,-3.90625
1771543080.1828437,40.0390625,48.828125,30.76171875,45.41015625,42.48046875
1771543080.18675,14.16015625,38.57421875,30.76171875,25.87890625,56.15234375
1771543080.1906562,11.23046875,35.64453125,27.83203125,20.5078125,44.43359375
1771543080.1945624,34.66796875,41.9921875,27.34375,41.9921875,15.13671875
1771543080.1984687,47.8515625,42.96875,36.1328125,53.7109375,13.671875
1771543080.202375,21.97265625,41.50390625,30.2734375,27.34375,-1.953125
1771543080.2062812,11.23046875,42.48046875,20.5078125,9.27734375,4.8828125
1771543080.2101874,34.1796875,38.0859375,25.87890625,26.85546875,77.1484375
1771543080.2140937,44.921875,40.0390625,26.3671875,41.015625,59.08203125
1771543080.216125,38.57421875,41.9921875,30.2734375,36.1328125,54.6875
1771543080.2200313,20.01953125,40.52734375,35.64453125,19.04296875,26.3671875
1771543080.2239375,20.01953125,41.9921875,41.50390625,23.4375,10.25390625
1771543080.2278438,45.41015625,43.45703125,41.9921875,48.33984375,61.03515625
1771543080.23175,39.55078125,41.9921875,34.1796875,43.9453125,45.41015625
1771543080.2356563,10.25390625,40.0390625,30.2734375,15.13671875,-30.76171875
1771543080.2395625,16.6015625,39.0625,29.78515625,17.08984375,-41.015625
1771543080.2434688,31.25,40.0390625,31.25,31.25,9.27734375
1771543080.247375,34.66796875,43.9453125,23.92578125,37.59765625,35.64453125
1771543080.2512813,26.3671875,45.41015625,26.85546875,26.85546875,26.3671875
1771543080.2551875,20.5078125,41.9921875,47.36328125,15.13671875,-13.671875
1771543080.2590938,40.0390625,41.9921875,36.62109375,39.55078125,-20.99609375
1771543080.261125,48.828125,39.55078125,26.85546875,57.6171875,44.921875
1771543080.2650313,39.0625,38.0859375,34.1796875,42.96875,74.70703125
1771543080.2689376,45.8984375,38.0859375,38.0859375,44.921875,34.66796875
1771543080.2728438,65.4296875,35.15625,38.0859375,65.4296875,48.828125
1771543080.27675,56.15234375,44.921875,31.73828125,47.8515625,43.9453125
1771543080.2806563,35.64453125,50.78125,37.109375,16.11328125,26.85546875
1771543080.2845626,39.0625,52.24609375,43.45703125,19.53125,40.0390625
1771543080.2884688,64.94140625,47.8515625,30.2734375,44.921875,52.24609375
1771543080.292375,77.1484375,41.9921875,15.625,56.640625,64.453125
1771543080.2962813,56.15234375,41.9921875,26.85546875,44.43359375,47.36328125
1771543080.3001876,36.62109375,39.0625,40.52734375,28.3203125,56.15234375
1771543080.3040938,37.59765625,43.45703125,34.66796875,27.83203125,12.6953125
1771543080.306125,52.734375,43.45703125,26.85546875,43.9453125,-1.953125
1771543080.3100312,52.24609375,38.57421875,34.66796875,47.8515625,35.15625
1771543080.3139374,26.85546875,43.9453125,41.015625,28.3203125,38.0859375
1771543080.3178437,17.08984375,38.0859375,34.1796875,21.97265625,0.0
1771543080.32175,33.69140625,30.2734375,31.25,32.71484375,-9.27734375
1771543080.3256562,44.43359375,36.62109375,27.34375,39.0625,62.5
1771543080.3295624,30.76171875,39.55078125,30.76171875,32.2265625,76.66015625
1771543080.3334687,17.08984375,37.109375,31.73828125,15.13671875,9.27734375
1771543080.337375,32.2265625,38.0859375,30.76171875,30.76171875,-1.46484375
1771543080.3412812,46.38671875,40.52734375,43.45703125,47.36328125,-8.7890625
1771543080.3451874,33.203125,41.9921875,42.96875,33.69140625,27.34375
1771543080.3490937,17.578125,36.1328125,41.9921875,20.99609375,82.51953125
1771543080.351125,20.99609375,34.66796875,44.921875,27.83203125,65.4296875
1771543080.3550313,41.9921875,42.48046875,43.45703125,45.8984375,14.6484375
1771543080.3589375,41.50390625,41.9921875,37.59765625,44.921875,29.78515625
1771543080.3628438,14.6484375,37.59765625,34.1796875,19.53125,82.03125
1771543080.36675,15.625,37.59765625,37.59765625,16.11328125,28.80859375
1771543080.3706563,45.8984375,39.55078125,32.71484375,41.015625,8.7890625
1771543080.3745625,48.828125,43.9453125,29.78515625,44.43359375,56.640625
1771543080.3784688,25.390625,46.38671875,30.2734375,21.97265625,53.7109375
1771543080.382375,17.08984375,43.9453125,40.52734375,12.20703125,28.3203125
1771543080.3862813,28.80859375,38.57421875,41.50390625,19.04296875,26.3671875
1771543080.3901875,39.0625,41.015625,20.99609375,28.3203125,33.203125
1771543080.3940938,30.2734375,42.48046875,26.3671875,25.390625,91.30859375
1771543080.396125,16.11328125,37.59765625,51.26953125,13.18359375,74.21875
1771543080.4000313,22.4609375,40.52734375,45.8984375,19.53125,34.1796875
1771543080.4039376,37.109375,41.9921875,26.3671875,34.66796875,27.83203125
1771543080.4078438,27.83203125,41.015625,32.71484375,34.66796875,44.921875
1771543080.41175,3.90625,43.9453125,38.57421875,13.671875,41.50390625
1771543080.4156563,17.578125,41.9921875,28.80859375,18.5546875,44.43359375
1771543080.4195626,42.48046875,39.0625,20.01953125,40.52734375,83.984375
1771543080.4234688,40.52734375,41.9921875,25.390625,35.64453125,-2.9296875
1771543080.427375,21.484375,41.015625,39.0625,17.578125,-8.30078125
1771543080.4312813,11.23046875,36.62109375,40.52734375,13.18359375,17.08984375
1771543080.4351876,30.76171875,36.1328125,35.64453125,34.1796875,-37.59765625
1771543080.4390938,38.57421875,38.57421875,31.73828125,44.921875,-7.8125
1771543080.441125,12.6953125,39.0625,37.59765625,18.5546875,15.13671875
1771543080.4450312,8.7890625,40.52734375,41.015625,11.71875,-37.59765625
1771543080.4489374,32.71484375,44.921875,41.9921875,30.76171875,-16.11328125
1771543080.4528437,32.2265625,43.45703125,39.0625,32.71484375,40.52734375
1771543080.45675,10.25390625,40.0390625,32.2265625,20.5078125,42.48046875
1771543080.4606562,0.0,38.0859375,32.2265625,14.6484375,78.125
1771543080.4645624,14.16015625,38.57421875,27.34375,20.01953125,14.6484375
1771543080.4684687,28.3203125,39.55078125,32.71484375,26.85546875,22.4609375
1771543080.472375,29.296875,39.0625,36.62109375,32.71484375,69.3359375
1771543080.4762812,17.08984375,41.015625,38.0859375,25.390625,17.578125
1771543080.4801874,17.08984375,38.0859375,42.48046875,25.87890625,26.85546875
1771543080.4840937,48.33984375,37.109375,39.55078125,50.78125,45.8984375
1771543080.487125,57.12890625,40.0390625,30.76171875,57.6171875,41.50390625
1771543080.4910312,27.34375,40.52734375,30.76171875,31.25,62.01171875
1771543080.4949374,20.99609375,41.50390625,38.0859375,26.3671875,33.69140625
1771543080.4988437,41.9921875,39.0625,34.1796875,41.9921875,1.46484375
1771543080.50275,53.22265625,36.1328125,23.4375,50.29296875,3.90625
1771543080.5066562,35.15625,38.57421875,21.484375,38.0859375,67.3828125
1771543080.5105624,27.34375,38.57421875,31.73828125,26.85546875,71.77734375
1771543080.5144687,40.52734375,33.69140625,35.15625,39.55078125,22.4609375
1771543080.518375,54.19921875,37.109375,30.2734375,54.6875,59.5703125
1771543080.5222812,51.7578125,41.9921875,20.5078125,47.8515625,77.1484375
1771543080.5261874,36.1328125,40.52734375,29.296875,28.80859375,52.24609375
1771543080.5300937,43.45703125,37.59765625,43.45703125,37.109375,61.03515625
1771543080.546125,57.6171875,41.50390625,24.90234375,50.29296875,38.57421875
1771543080.5500312,56.640625,39.0625,18.5546875,47.8515625,4.39453125
1771543080.5539374,41.015625,38.0859375,34.1796875,35.15625,58.59375
1771543080.5578437,34.66796875,37.109375,39.55078125,35.15625,145.01953125
1771543080.56175,55.17578125,33.69140625,29.296875,55.17578125,82.03125
1771543080.5656562,65.91796875,41.50390625,12.6953125,62.01171875,32.71484375
1771543080.5695624,38.0859375,41.015625,26.3671875,42.96875,32.2265625
1771543080.5734687,21.97265625,38.0859375,43.9453125,33.69140625,-3.41796875
1771543080.577375,45.41015625,46.38671875,35.15625,48.828125,-26.3671875
1771543080.5812812,55.17578125,41.015625,30.76171875,56.15234375,-10.7421875
1771543080.5851874,33.69140625,38.57421875,31.25,37.59765625,42.96875
1771543080.5890937,20.5078125,41.015625,32.2265625,21.484375,70.80078125
1771543080.591125,41.50390625,34.66796875,29.296875,33.69140625,66.40625
1771543080.5950313,61.03515625,39.55078125,21.484375,47.8515625,41.015625
1771543080.5989375,50.78125,48.828125,25.390625,42.96875,23.4375
1771543080.6028438,26.3671875,47.8515625,35.64453125,29.78515625,23.92578125
1771543080.60675,33.203125,40.0390625,33.69140625,35.15625,-3.41796875
1771543080.6106563,53.22265625,39.0625,22.94921875,48.33984375,4.8828125
1771543080.6145625,43.45703125,39.0625,20.5078125,38.57421875,36.62109375
1771543080.6184688,22.94921875,36.1328125,31.73828125,22.94921875,32.71484375
1771543080.622375,28.3203125,36.1328125,29.78515625,31.73828125,44.43359375
1771543080.6262813,42.96875,36.62109375,19.04296875,36.62109375,18.06640625
1771543080.6301875,41.50390625,38.57421875,29.296875,31.73828125,26.85546875
1771543080.6340938,20.01953125,42.96875,39.55078125,25.87890625,117.1875
1771543080.635125,16.6015625,39.55078125,42.48046875,23.92578125,70.3125
1771543080.6390312,34.1796875,35.64453125,33.203125,31.73828125,-20.01953125
1771543080.6429374,41.50390625,36.1328125,27.83203125,38.57421875,24.4140625
1771543080.6468437,23.92578125,35.15625,28.3203125,24.4140625,79.58984375
1771543080.65075,17.578125,31.73828125,33.69140625,23.92578125,35.64453125
1771543080.6546562,34.1796875,33.69140625,31.73828125,45.41015625,2.9296875
1771543080.6585624,41.50390625,31.73828125,28.80859375,47.8515625,23.92578125
1771543080.6624687,36.62109375,33.203125,33.203125,39.55078125,57.6171875
1771543080.666375,10.25390625,38.0859375,31.73828125,18.5546875,58.10546875
1771543080.6702812,14.6484375,34.1796875,44.43359375,25.87890625,35.15625
1771543080.6741874,53.22265625,37.109375,55.6640625,56.15234375,52.24609375
1771543080.6780937,62.01171875,41.50390625,51.26953125,57.12890625,44.921875
1771543080.681125,30.2734375,36.62109375,41.50390625,38.57421875,13.671875
1771543080.6850312,22.4609375,27.83203125,36.62109375,37.109375,-7.8125
1771543080.6889374,51.26953125,31.25,33.69140625,50.29296875,80.078125
1771543080.6928437,63.4765625,38.57421875,25.390625,54.6875,90.33203125
1771543080.69675,43.45703125,35.15625,32.71484375,45.41015625,20.5078125
1771543080.7006562,30.76171875,33.69140625,41.50390625,36.1328125,11.23046875
1771543080.7045624,52.734375,40.52734375,34.66796875,51.7578125,-30.76171875
1771543080.7084687,63.96484375,39.55078125,21.97265625,58.10546875,-11.71875
1771543080.712375,43.45703125,38.57421875,25.390625,38.0859375,61.5234375
1771543080.7162812,32.71484375,39.0625,43.45703125,36.1328125,58.59375
1771543080.7201874,44.43359375,33.69140625,36.1328125,51.7578125,14.16015625
1771543080.7240937,49.8046875,35.64453125,29.78515625,47.8515625,27.34375
1771543080.726125,48.828125,38.0859375,33.69140625,43.9453125,30.2734375
1771543080.7300313,28.80859375,36.1328125,41.015625,41.015625,2.9296875
1771543080.7339375,19.53125,38.0859375,42.96875,39.0625,16.11328125
1771543080.7378438,49.31640625,32.71484375,33.69140625,57.12890625,18.06640625
1771543080.74175,56.15234375,31.73828125,33.69140625,55.17578125,24.4140625
1771543080.7456563,31.25,35.64453125,40.0390625,32.71484375,66.40625
1771543080.7495625,26.85546875,32.71484375,43.45703125,39.0625,70.80078125
1771543080.7534688,48.33984375,38.0859375,33.69140625,48.828125,66.40625
1771543080.757375,60.05859375,43.9453125,34.1796875,47.36328125,26.85546875
1771543080.7612813,38.57421875,38.57421875,41.9921875,36.62109375,-0.9765625
1771543080.7651875,25.390625,33.69140625,47.8515625,29.78515625,44.921875
1771543080.7690938,44.921875,34.66796875,52.734375,44.43359375,73.73046875
1771543080.772125,62.98828125,37.109375,41.50390625,51.26953125,40.0390625
1771543080.7760313,52.24609375,39.55078125,33.203125,41.9921875,8.7890625
1771543080.7799375,31.25,40.0390625,41.50390625,33.69140625,41.9921875
1771543080.7838438,36.62109375,39.55078125,47.8515625,38.0859375,76.66015625
1771543080.78775,51.26953125,39.55078125,39.55078125,46.38671875,55.17578125
1771543080.7916563,43.9453125,38.57421875,28.3203125,42.96875,1.953125
1771543080.7955625,23.92578125,41.015625,32.71484375,32.2265625,11.71875
1771543080.7994688,29.78515625,40.52734375,45.41015625,32.2265625,-8.30078125
1771543080.803375,49.8046875,40.52734375,47.36328125,42.96875,-15.625
1771543080.8072813,44.921875,38.0859375,37.109375,36.62109375,84.9609375
1771543080.8111875,26.3671875,37.109375,37.59765625,24.4140625,101.07421875
1771543080.8150938,17.08984375,36.62109375,51.7578125,23.92578125,30.76171875
1771543080.816125,33.69140625,36.1328125,54.19921875,30.76171875,26.85546875
1771543080.8200312,52.24609375,38.0859375,42.48046875,39.0625,52.734375
1771543080.8239374,39.55078125,34.1796875,40.0390625,32.71484375,49.8046875
1771543080.8278437,16.6015625,28.80859375,50.29296875,21.97265625,11.23046875
1771543080.83175,27.83203125,33.69140625,54.6875,33.69140625,28.80859375
1771543080.8356562,45.41015625,39.0625,41.9921875,42.48046875,69.82421875
1771543080.8395624,31.25,40.0390625,30.2734375,31.73828125,55.17578125
1771543080.8434687,10.7421875,38.57421875,47.36328125,21.484375,-29.296875
1771543080.847375,3.41796875,33.69140625,65.4296875,28.3203125,-8.7890625
1771543080.8512812,21.484375,39.0625,48.33984375,39.55078125,65.91796875
1771543080.8551874,30.76171875,41.9921875,40.0390625,30.2734375,38.57421875
1771543080.8590937,0.48828125,36.62109375,51.26953125,10.7421875,52.24609375
1771543080.876125,-4.8828125,36.1328125,55.6640625,20.99609375,88.37890625
1771543080.8800313,20.01953125,32.71484375,45.41015625,37.109375,90.33203125
1771543080.8839376,20.5078125,34.66796875,36.1328125,32.2265625,81.0546875
1771543080.8878438,1.46484375,37.109375,47.8515625,17.578125,54.19921875
1771543080.89175,-5.859375,35.15625,56.15234375,18.06640625,40.0390625
1771543080.8956563,12.6953125,37.59765625,42.48046875,31.73828125,7.32421875
1771543080.8995626,21.484375,34.66796875,29.78515625,28.3203125,-44.921875
1771543080.9034688,5.859375,34.66796875,36.62109375,18.5546875,-22.94921875
1771543080.907375,-11.23046875,35.64453125,50.78125,16.11328125,25.87890625
1771543080.9112813,0.9765625,33.69140625,39.55078125,24.4140625,26.3671875
1771543080.9151876,25.390625,32.2265625,39.0625,32.2265625,46.875
1771543080.9190938,13.18359375,29.78515625,56.15234375,23.4375,67.3828125
1771543080.921125,-7.32421875,32.2265625,49.31640625,18.5546875,24.4140625
1771543080.9250312,-8.7890625,36.62109375,42.48046875,19.04296875,-34.66796875
1771543080.9289374,15.13671875,35.64453125,39.55078125,24.4140625,14.6484375
1771543080.9328437,22.94921875,34.1796875,33.69140625,25.390625,-16.6015625
1771543080.93675,5.37109375,34.1796875,36.1328125,11.71875,-18.06640625
1771543080.9406562,11.23046875,32.71484375,40.52734375,14.16015625,74.70703125
1771543080.9445624,32.71484375,35.64453125,44.43359375,27.83203125,36.62109375
1771543080.9484687,37.59765625,37.109375,36.62109375,26.85546875,49.8046875
1771543080.952375,16.11328125,34.66796875,28.3203125,16.6015625,98.14453125
1771543080.9562812,7.8125,41.50390625,31.73828125,20.99609375,74.70703125
1771543080.9601874,23.4375,43.9453125,42.96875,26.85546875,43.45703125
1771543080.9640937,41.015625,41.9921875,41.50390625,31.25,75.1953125
1771543080.966125,34.1796875,39.55078125,26.85546875,24.4140625,66.40625
1771543080.9700313,8.7890625,34.1796875,39.55078125,12.6953125,-13.18359375
1771543080.9739375,18.06640625,34.66796875,48.33984375,25.87890625,-5.859375
1771543080.9778438,39.0625,37.59765625,36.1328125,36.62109375,20.99609375
1771543080.98175,34.66796875,44.921875,30.2734375,30.76171875,43.9453125
1771543080.9856563,20.5078125,47.36328125,35.15625,23.92578125,22.94921875
1771543080.9895625,24.4140625,38.0859375,45.8984375,28.3203125,11.71875
1771543080.9934688,48.828125,39.55078125,44.921875,41.015625,61.03515625
1771543080.997375,54.19921875,44.921875,23.92578125,39.0625,61.03515625
1771543081.0012813,26.3671875,40.52734375,25.87890625,17.578125,13.18359375
1771543081.0051875,22.4609375,35.64453125,54.6875,19.04296875,22.4609375
1771543081.0090938,45.41015625,36.1328125,48.828125,31.25,28.3203125
1771543081.011125,55.6640625,38.0859375,27.83203125,30.2734375,26.3671875
1771543081.0150313,42.96875,43.9453125,36.62109375,23.92578125,38.57421875
1771543081.0189376,23.4375,42.96875,51.7578125,18.5546875,14.6484375
1771543081.0228438,36.62109375,42.48046875,44.43359375,35.64453125,16.6015625
1771543081.02675,52.24609375,43.9453125,31.73828125,39.0625,8.30078125
1771543081.0306563,36.1328125,43.45703125,31.25,25.87890625,12.6953125
1771543081.0345626,10.7421875,43.9453125,41.50390625,14.16015625,56.15234375
1771543081.0384688,20.01953125,38.0859375,42.48046875,18.5546875,84.9609375
1771543081.042375,42.48046875,32.2265625,26.85546875,29.296875,39.0625
1771543081.0462813,32.71484375,34.1796875,31.25,20.01953125,-40.52734375
1771543081.0501876,5.37109375,38.0859375,42.96875,9.27734375,9.27734375
1771543081.0540938,3.90625,32.71484375,48.33984375,13.18359375,86.42578125
1771543081.057125,32.71484375,37.59765625,39.55078125,25.87890625,87.890625
1771543081.0610313,38.57421875,39.55078125,34.66796875,29.296875,30.2734375
1771543081.0649376,7.32421875,35.64453125,43.9453125,12.20703125,24.90234375
1771543081.0688438,0.9765625,41.015625,38.57421875,15.625,18.5546875
1771543081.07275,25.390625,42.96875,38.0859375,32.71484375,69.3359375
1771543081.0766563,41.50390625,42.96875,33.203125,32.2265625,86.42578125
1771543081.0805626,19.04296875,42.48046875,30.2734375,19.04296875,53.22265625
1771543081.0844688,2.44140625,38.0859375,35.64453125,13.18359375,63.96484375
1771543081.088375,28.80859375,41.015625,31.25,27.34375,28.3203125
1771543081.0922813,65.91796875,45.41015625,31.25,55.17578125,37.59765625
1771543081.0961876,61.03515625,45.41015625,36.1328125,52.734375,86.42578125
1771543081.1000938,3.90625,42.48046875,42.96875,8.30078125,60.05859375
1771543081.101125,-18.06640625,41.50390625,48.828125,-5.37109375,15.625
1771543081.1050313,-8.30078125,38.57421875,47.36328125,-5.37109375,39.0625
1771543081.1089375,-4.8828125,38.0859375,34.1796875,-11.71875,85.44921875
1771543081.1128438,-24.4140625,41.50390625,41.50390625,-20.99609375,49.8046875
1771543081.11675,-46.875,44.43359375,57.6171875,-30.2734375,20.99609375
1771543081.1206563,-31.73828125,43.45703125,47.36328125,-28.3203125,40.52734375
1771543081.1245625,-7.32421875,42.48046875,33.69140625,-17.578125,34.1796875
1771543081.1284688,-24.90234375,47.36328125,31.25,-27.34375,10.7421875
1771543081.132375,-37.109375,41.015625,50.29296875,-33.69140625,-20.5078125
1771543081.1362813,-13.671875,34.1796875,54.6875,-11.23046875,10.25390625
1771543081.1401875,4.39453125,36.1328125,37.59765625,-0.48828125,31.25
1771543081.1440938,-3.90625,37.109375,41.50390625,-7.32421875,17.578125
1771543081.146125,-12.6953125,43.9453125,55.17578125,-5.37109375,-0.9765625
1771543081.1500313,1.46484375,45.8984375,49.8046875,0.48828125,18.5546875
1771543081.1539376,20.01953125,39.55078125,34.66796875,7.8125,38.0859375
1771543081.1578438,14.6484375,40.0390625,34.66796875,7.8125,20.99609375
1771543081.16175,-10.7421875,37.109375,46.875,-5.859375,14.6484375
1771543081.1656563,-11.71875,35.64453125,48.33984375,5.37109375,16.6015625
1771543081.1695626,5.859375,38.0859375,33.69140625,14.16015625,29.78515625
1771543081.1734688,12.20703125,41.015625,34.66796875,6.8359375,37.109375
1771543081.177375,-7.8125,44.43359375,53.22265625,1.46484375,28.80859375
1771543081.1812813,-9.27734375,43.9453125,55.17578125,7.32421875,19.04296875
1771543081.1851876,20.99609375,45.41015625,40.52734375,19.53125,18.5546875
1771543081.1890938,34.1796875,50.29296875,34.66796875,20.01953125,66.40625
1771543081.191125,14.16015625,49.31640625,40.0390625,8.30078125,-8.7890625
1771543081.1950312,2.9296875,45.41015625,45.8984375,6.34765625,-19.04296875
1771543081.1989374,25.87890625,46.38671875,43.9453125,24.4140625,51.7578125
1771543081.2028437,43.9453125,51.26953125,35.64453125,26.3671875,19.53125
1771543081.20675,30.76171875,48.33984375,38.0859375,15.625,64.453125
1771543081.2106562,13.18359375,44.921875,36.62109375,15.625,20.01953125
1771543081.2145624,19.04296875,44.921875,39.55078125,22.94921875,19.53125
1771543081.2184687,37.59765625,42.48046875,42.96875,35.15625,62.5
1771543081.222375,44.921875,46.875,37.59765625,38.0859375,61.03515625
1771543081.2262812,22.94921875,43.45703125,37.109375,23.4375,26.85546875
1771543081.2301874,19.53125,38.57421875,42.96875,25.390625,-3.41796875
1771543081.2340937,46.875,40.52734375,49.8046875,36.62109375,85.44921875
1771543081.251125,50.29296875,43.9453125,41.9921875,36.1328125,109.375
1771543081.2550313,22.4609375,45.8984375,35.64453125,24.4140625,86.9140625
1771543081.2589376,17.578125,41.015625,42.48046875,24.4140625,72.265625
1771543081.2628438,35.64453125,41.9921875,43.9453125,37.109375,27.34375
1771543081.26675,38.0859375,42.96875,31.25,34.66796875,44.921875
1771543081.2706563,28.3203125,35.64453125,29.78515625,24.90234375,49.8046875
1771543081.2745626,14.16015625,37.59765625,42.96875,21.484375,30.2734375
1771543081.2784688,26.85546875,44.43359375,51.7578125,32.2265625,34.66796875
1771543081.282375,42.96875,42.48046875,44.43359375,39.0625,23.4375
1771543081.2862813,28.80859375,44.43359375,24.4140625,27.34375,22.94921875
1771543081.2901876,15.13671875,43.9453125,33.69140625,15.625,56.15234375
1771543081.2940938,22.4609375,41.50390625,56.640625,26.85546875,34.66796875
1771543081.296125,39.55078125,47.36328125,41.50390625,38.57421875,2.9296875
1771543081.3000312,42.96875,42.48046875,33.203125,33.69140625,22.4609375
1771543081.3039374,24.4140625,37.109375,47.36328125,26.3671875,42.48046875
1771543081.3078437,20.01953125,42.48046875,59.5703125,30.76171875,25.87890625
1771543081.31175,43.9453125,43.45703125,46.38671875,41.9921875,33.203125
1771543081.3156562,53.22265625,39.0625,22.4609375,43.9453125,42.96875
1771543081.3195624,23.4375,39.0625,28.80859375,22.94921875,42.96875
1771543081.3234687,16.11328125,37.59765625,49.8046875,17.578125,101.5625
1771543081.327375,36.62109375,40.0390625,38.0859375,34.1796875,119.62890625
1771543081.3312812,46.875,47.8515625,20.01953125,36.1328125,55.17578125
1771543081.3351874,37.59765625,39.55078125,41.50390625,25.390625,33.69140625
1771543081.3390937,16.6015625,31.73828125,54.19921875,16.6015625,22.4609375
1771543081.341125,20.01953125,38.57421875,44.43359375,24.90234375,34.66796875
1771543081.3450313,40.0390625,41.9921875,37.109375,38.57421875,65.91796875
1771543081.3489375,41.9921875,36.1328125,36.1328125,35.15625,38.0859375
1771543081.3528438,20.99609375,36.62109375,41.9921875,19.04296875,24.4140625
1771543081.35675,29.78515625,41.50390625,48.828125,33.69140625,50.78125
1771543081.3606563,53.7109375,44.43359375,47.36328125,52.24609375,30.76171875
1771543081.3645625,49.8046875,37.109375,43.45703125,46.38671875,72.75390625
1771543081.3684688,32.71484375,35.64453125,45.8984375,35.15625,56.15234375
1771543081.372375,26.3671875,39.55078125,37.109375,32.2265625,-2.44140625
1771543081.3762813,46.875,36.62109375,31.73828125,55.6640625,12.20703125
1771543081.3801875,63.96484375,39.55078125,40.52734375,71.2890625,4.39453125
1771543081.3840938,38.0859375,44.43359375,36.62109375,45.8984375,0.48828125
1771543081.387125,5.859375,41.015625,37.59765625,16.6015625,28.3203125
1771543081.3910313,26.3671875,39.55078125,33.203125,28.80859375,82.03125
1771543081.3949375,64.94140625,53.7109375,13.18359375,58.59375,25.87890625
1771543081.3988438,53.7109375,46.38671875,17.578125,52.734375,22.94921875
1771543081.40275,20.01953125,40.0390625,31.25,25.390625,39.0625
1771543081.4066563,41.015625,47.8515625,30.2734375,38.0859375,7.32421875
1771543081.4105625,62.5,49.31640625,21.484375,54.6875,21.484375
1771543081.4144688,48.33984375,45.8984375,16.11328125,45.8984375,13.18359375
1771543081.418375,30.2734375,41.50390625,20.5078125,34.66796875,0.48828125
1771543081.4222813,28.3203125,36.62109375,32.2265625,33.69140625,-17.08984375
1771543081.4261875,38.57421875,35.15625,28.3203125,42.96875,26.3671875
1771543081.4300938,50.29296875,41.015625,22.94921875,50.78125,41.50390625
1771543081.431125,41.9921875,45.8984375,30.76171875,39.0625,45.8984375
1771543081.4350312,34.66796875,50.29296875,34.66796875,31.25,-5.859375
1771543081.4389374,52.24609375,50.78125,30.2734375,46.875,-69.3359375
1771543081.4428437,63.4765625,45.41015625,28.80859375,59.5703125,25.390625
1771543081.44675,48.828125,42.96875,26.3671875,44.921875,83.984375
1771543081.4506562,29.78515625,41.9921875,29.78515625,22.4609375,84.9609375
1771543081.4545624,44.921875,41.50390625,41.015625,34.66796875,82.51953125
1771543081.4584687,60.546875,45.8984375,28.80859375,58.59375,72.265625
1771543081.462375,43.9453125,47.8515625,15.625,47.36328125,34.66796875
1771543081.4662812,25.87890625,47.36328125,32.2265625,22.94921875,-7.32421875
1771543081.4701874,27.83203125,43.9453125,36.62109375,24.90234375,46.875
1771543081.4740937,51.7578125,43.9453125,26.3671875,49.31640625,55.6640625
1771543081.476125,57.6171875,47.8515625,25.87890625,54.19921875,39.55078125
1771543081.4800313,25.390625,41.50390625,30.76171875,30.76171875,79.1015625
1771543081.4839375,27.34375,33.203125,32.71484375,29.78515625,0.48828125
1771543081.4878438,53.7109375,39.0625,33.69140625,52.24609375,16.11328125
1771543081.49175,57.6171875,44.43359375,28.80859375,57.6171875,45.8984375
1771543081.4956563,34.1796875,43.45703125,25.390625,39.0625,-0.48828125
1771543081.4995625,19.53125,45.41015625,30.76171875,24.90234375,37.109375
1771543081.5034688,40.0390625,46.875,20.5078125,35.64453125,47.8515625
1771543081.507375,53.7109375,45.41015625,22.94921875,46.875,28.80859375
1771543081.5112813,39.0625,38.57421875,37.59765625,32.2265625,57.12890625
1771543081.5151875,23.92578125,42.48046875,39.0625,13.671875,77.63671875
1771543081.5190938,34.66796875,47.36328125,43.45703125,23.92578125,75.1953125
1771543081.520125,47.36328125,46.38671875,32.2265625,41.50390625,73.2421875
1771543081.5240312,35.64453125,47.36328125,23.92578125,30.2734375,54.19921875
1771543081.5279374,18.06640625,43.9453125,36.62109375,11.23046875,44.43359375
1771543081.5318437,21.484375,38.57421875,39.55078125,16.11328125,72.265625
1771543081.53575,29.78515625,40.52734375,30.76171875,28.80859375,44.43359375
1771543081.5396562,27.83203125,44.921875,28.80859375,34.1796875,3.90625
1771543081.5435624,8.7890625,42.96875,31.25,18.5546875,22.94921875
1771543081.5474687,0.9765625,36.62109375,43.45703125,8.7890625,20.01953125
1771543081.551375,19.04296875,32.71484375,51.26953125,24.4140625,22.4609375
1771543081.5552812,21.97265625,38.57421875,32.71484375,28.80859375,66.40625
1771543081.5591874,-0.48828125,40.52734375,25.87890625,15.13671875,22.94921875
1771543081.5630937,-11.71875,41.015625,40.0390625,2.9296875,0.9765625
1771543081.566125,9.27734375,42.96875,39.55078125,18.5546875,5.859375
1771543081.5700312,41.015625,31.73828125,30.76171875,51.26953125,41.9921875
1771543081.5739374,35.64453125,31.25,31.73828125,41.9921875,45.41015625
1771543081.5778437,8.7890625,40.0390625,40.52734375,7.32421875,13.671875
1771543081.58175,11.23046875,42.48046875,35.64453125,2.9296875,49.31640625
1771543081.5856562,17.08984375,44.921875,24.90234375,14.6484375,41.015625
1771543081.5895624,9.765625,44.921875,32.71484375,15.13671875,33.69140625
1771543081.5934687,-4.39453125,40.0390625,40.52734375,-3.41796875,27.83203125
1771543081.597375,-4.39453125,38.57421875,37.59765625,-2.9296875,-9.27734375
1771543081.6012812,0.9765625,45.41015625,22.4609375,4.8828125,3.41796875
1771543081.6051874,-1.953125,48.33984375,13.18359375,3.90625,35.15625
1771543081.6090937,-16.6015625,44.43359375,27.83203125,-6.34765625,41.50390625
1771543081.612125,-12.20703125,33.203125,38.57421875,-11.71875,46.875
1771543081.6160312,12.20703125,35.64453125,27.83203125,11.71875,40.0390625
1771543081.6199374,21.484375,43.45703125,20.99609375,30.76171875,26.3671875
1771543081.6238437,0.48828125,43.45703125,31.73828125,8.7890625,-14.6484375
1771543081.62775,-4.8828125,43.9453125,38.57421875,0.0,-16.11328125
1771543081.6316562,18.06640625,46.875,28.3203125,17.08984375,37.59765625
1771543081.6355624,36.1328125,49.8046875,25.390625,33.69140625,50.29296875
1771543081.6394687,31.25,51.7578125,41.9921875,30.2734375,90.8203125
1771543081.643375,13.18359375,48.828125,42.48046875,11.23046875,51.26953125
1771543081.6472812,20.5078125,48.828125,37.59765625,19.53125,-41.015625
1771543081.6511874,31.25,54.19921875,38.57421875,35.64453125,25.390625
1771543081.6550937,31.25,49.31640625,38.57421875,35.64453125,79.58984375
1771543081.672125,15.13671875,47.8515625,39.0625,16.6015625,15.625
1771543081.6760314,14.6484375,45.8984375,39.0625,8.30078125,53.22265625
1771543081.6799376,35.15625,42.48046875,27.83203125,28.80859375,35.15625
1771543081.6838439,34.66796875,41.9921875,25.390625,34.66796875,-1.953125
1771543081.68775,16.6015625,45.41015625,31.73828125,14.6484375,39.0625
1771543081.6916564,13.671875,53.22265625,24.4140625,9.765625,15.625
1771543081.6955626,29.78515625,51.26953125,26.3671875,22.4609375,5.859375
1771543081.6994689,35.15625,45.41015625,39.0625,37.59765625,61.5234375
1771543081.703375,22.4609375,52.734375,34.66796875,28.3203125,76.66015625
1771543081.7072814,16.6015625,49.8046875,36.62109375,9.765625,60.05859375
1771543081.7111876,18.5546875,36.62109375,43.45703125,20.5078125,99.12109375
1771543081.7150939,36.1328125,42.48046875,31.73828125,41.9921875,72.75390625
1771543081.716125,36.1328125,49.31640625,31.25,32.2265625,28.80859375
1771543081.7200313,12.20703125,43.45703125,43.9453125,9.27734375,9.27734375
1771543081.7239375,20.5078125,39.0625,46.38671875,13.671875,7.32421875
1771543081.7278438,35.15625,37.59765625,33.69140625,29.78515625,37.109375
1771543081.73175,33.69140625,43.45703125,24.90234375,36.62109375,52.24609375
1771543081.7356563,15.625,42.48046875,30.76171875,15.625,45.8984375
1771543081.7395625,13.671875,37.59765625,34.66796875,8.7890625,25.390625
1771543081.7434688,29.296875,42.48046875,33.203125,30.2734375,4.8828125
1771543081.747375,43.45703125,43.9453125,21.97265625,42.48046875,-10.25390625
1771543081.7512813,17.08984375,43.9453125,25.390625,14.6484375,1.953125
1771543081.7551875,-0.48828125,41.9921875,48.828125,0.0,65.91796875
1771543081.7590938,29.296875,36.1328125,43.9453125,27.83203125,57.6171875
1771543081.761125,37.109375,36.1328125,32.2265625,39.0625,50.29296875
1771543081.7650313,23.92578125,38.57421875,37.109375,28.3203125,43.45703125
1771543081.7689376,7.8125,41.9921875,39.55078125,13.671875,-47.8515625
1771543081.7728438,15.625,39.55078125,37.109375,18.06640625,-11.71875
1771543081.77675,35.64453125,37.109375,30.76171875,41.50390625,38.57421875
1771543081.7806563,31.25,40.52734375,29.296875,38.57421875,20.01953125
1771543081.7845626,16.11328125,41.50390625,36.62109375,14.6484375,45.8984375
1771543081.7884688,23.4375,41.015625,37.59765625,19.04296875,63.96484375
1771543081.792375,39.55078125,42.96875,24.4140625,41.50390625,18.5546875
1771543081.7962813,42.48046875,45.41015625,27.34375,45.41015625,7.8125
1771543081.8001876,20.99609375,42.96875,41.50390625,13.18359375,65.91796875
1771543081.8040938,25.390625,40.0390625,40.0390625,10.7421875,66.89453125
1771543081.806125,63.96484375,36.1328125,32.71484375,46.875,44.43359375
1771543081.8100312,86.9140625,40.52734375,21.97265625,68.84765625,33.69140625
1771543081.8139374,51.26953125,47.36328125,27.83203125,42.48046875,7.8125
1771543081.8178437,13.671875,32.2265625,44.921875,9.27734375,5.859375
1771543081.82175,49.31640625,28.80859375,45.8984375,46.875,17.578125
1771543081.8256562,76.171875,35.15625,41.50390625,85.44921875,35.15625
1771543081.8295624,71.77734375,28.80859375,44.43359375,84.47265625,25.390625
1771543081.8334687,75.68359375,24.90234375,49.31640625,78.61328125,34.1796875
1771543081.837375,83.49609375,30.2734375,48.33984375,81.0546875,42.48046875
1771543081.8412812,91.30859375,36.1328125,49.8046875,93.26171875,42.96875
1771543081.8451874,86.42578125,30.2734375,52.734375,100.5859375,91.30859375
1771543081.8490937,66.40625,29.78515625,47.8515625,79.58984375,54.6875
1771543081.851125,66.89453125,30.76171875,47.36328125,72.75390625,0.0
1771543081.8550313,86.42578125,28.80859375,49.31640625,88.8671875,35.15625
1771543081.8589375,93.75,32.71484375,38.0859375,97.16796875,31.73828125
1771543081.8628438,70.80078125,31.25,41.015625,81.54296875,36.1328125
1771543081.86675,62.98828125,28.3203125,46.38671875,68.84765625,18.5546875
1771543081.8706563,82.51953125,26.3671875,40.0390625,90.33203125,12.6953125
1771543081.8745625,94.23828125,27.83203125,32.2265625,102.5390625,63.96484375
1771543081.8784688,80.078125,34.1796875,25.390625,81.54296875,6.34765625
1771543081.882375,67.87109375,30.76171875,44.921875,58.10546875,50.78125
1771543081.8862813,73.73046875,28.80859375,48.33984375,71.2890625,73.2421875
1771543081.8901875,76.171875,31.73828125,36.62109375,87.890625,84.47265625
1771543081.8940938,64.94140625,34.66796875,34.1796875,73.2421875,111.328125
1771543081.896125,44.43359375,37.59765625,39.55078125,49.31640625,24.90234375
1771543081.9000313,55.6640625,37.109375,44.921875,60.546875,-15.625
1771543081.9039376,73.2421875,35.15625,31.25,77.1484375,35.64453125
1771543081.9078438,62.01171875,34.1796875,29.296875,70.3125,71.2890625
1771543081.91175,40.52734375,31.73828125,40.52734375,47.36328125,34.1796875
1771543081.9156563,37.59765625,30.2734375,44.43359375,40.52734375,10.7421875
1771543081.9195626,61.03515625,32.71484375,36.62109375,66.40625,17.578125
1771543081.9234688,68.359375,35.64453125,31.73828125,72.265625,12.20703125
1771543081.927375,39.0625,36.62109375,46.38671875,44.43359375,32.71484375
1771543081.9312813,32.71484375,37.59765625,46.38671875,36.62109375,38.57421875
1771543081.9351876,53.22265625,37.109375,41.9921875,60.546875,33.203125
1771543081.9390938,61.5234375,34.66796875,40.52734375,70.3125,20.01953125
1771543081.942125,49.8046875,34.66796875,41.015625,53.22265625,13.671875
1771543081.9460313,32.71484375,30.2734375,42.96875,28.80859375,70.80078125
1771543081.9499376,48.828125,35.15625,35.64453125,38.57421875,66.89453125
1771543081.9538438,71.77734375,40.52734375,33.203125,64.94140625,43.9453125
1771543081.95775,64.94140625,39.55078125,32.2265625,58.59375,15.625
1771543081.9616563,44.43359375,42.48046875,34.66796875,35.64453125,26.3671875
1771543081.9655626,41.9921875,44.921875,28.80859375,40.52734375,91.796875
1771543081.9694688,57.12890625,43.9453125,29.296875,60.546875,43.45703125
1771543081.973375,54.6875,44.43359375,37.59765625,62.01171875,-7.8125
1771543081.9772813,34.1796875,44.43359375,34.66796875,38.0859375,43.9453125
1771543081.9811876,28.3203125,36.62109375,39.0625,25.87890625,62.01171875
1771543081.9850938,41.9921875,37.109375,41.9921875,47.8515625,57.6171875
1771543082.001125,41.9921875,38.0859375,32.2265625,49.8046875,52.734375
1771543082.0050313,28.80859375,38.0859375,30.76171875,22.4609375,60.05859375
1771543082.0089376,21.484375,36.1328125,37.59765625,14.6484375,66.89453125
1771543082.0128438,34.66796875,41.015625,35.64453125,34.66796875,81.0546875
1771543082.01675,51.7578125,43.9453125,29.296875,53.22265625,51.7578125
1771543082.0206563,37.59765625,44.43359375,21.97265625,37.59765625,47.36328125
1771543082.0245626,20.01953125,47.8515625,24.4140625,14.16015625,40.52734375
1771543082.0284688,34.1796875,41.9921875,44.43359375,24.90234375,18.5546875
1771543082.032375,50.78125,41.50390625,40.0390625,41.9921875,58.59375
1771543082.0362813,43.9453125,40.52734375,30.2734375,39.0625,45.8984375
1771543082.0401876,20.01953125,36.62109375,40.0390625,11.23046875,38.57421875
1771543082.0440938,15.13671875,37.59765625,45.41015625,2.9296875,32.71484375
1771543082.046125,39.55078125,40.52734375,38.0859375,28.80859375,14.16015625
1771543082.0500312,40.52734375,43.9453125,32.2265625,35.15625,17.578125
1771543082.0539374,27.83203125,42.48046875,30.76171875,26.3671875,16.6015625
1771543082.0578437,65.4296875,47.8515625,31.25,49.8046875,18.06640625
1771543082.06175,59.5703125,49.31640625,33.203125,38.0859375,27.83203125
1771543082.0656562,10.25390625,43.9453125,24.90234375,5.37109375,32.2265625
1771543082.0695624,-9.765625,46.875,26.85546875,-12.6953125,26.3671875
1771543082.0734687,-36.1328125,38.57421875,38.0859375,-49.8046875,4.8828125
1771543082.077375,-40.0390625,31.25,38.57421875,-50.29296875,0.9765625
1771543082.0812812,-35.64453125,34.1796875,23.92578125,-33.69140625,15.625
1771543082.0851874,-70.3125,38.57421875,29.296875,-67.3828125,-5.859375
1771543082.0890937,-88.8671875,43.45703125,42.48046875,-95.703125,-36.1328125
1771543082.091125,-65.91796875,41.015625,38.0859375,-77.1484375,-38.57421875
1771543082.0950313,-41.015625,44.43359375,34.1796875,-48.33984375,10.7421875
1771543082.0989375,-34.1796875,46.38671875,32.2265625,-31.73828125,56.640625
1771543082.1028438,-52.734375,41.9921875,42.48046875,-48.828125,65.91796875
1771543082.10675,-51.26953125,41.50390625,45.41015625,-47.36328125,55.6640625
1771543082.1106563,-24.90234375,37.59765625,32.2265625,-19.04296875,-7.8125
1771543082.1145625,-16.11328125,35.15625,29.296875,-4.8828125,-12.6953125
1771543082.1184688,-29.78515625,36.62109375,36.62109375,-21.97265625,62.5
1771543082.122375,-35.15625,38.0859375,37.109375,-31.25,45.8984375
1771543082.1262813,-12.20703125,37.109375,38.57421875,-3.41796875,-23.4375
1771543082.1301875,-1.953125,37.109375,47.8515625,10.7421875,20.99609375
1771543082.1340938,-19.04296875,39.0625,45.41015625,-3.90625,61.5234375
1771543082.136125,-23.4375,35.64453125,45.8984375,-14.16015625,32.2265625
1771543082.1400313,-5.37109375,36.62109375,49.8046875,-0.48828125,-3.41796875
1771543082.1439376,5.859375,37.109375,43.9453125,14.16015625,46.875
1771543082.1478438,-0.9765625,39.0625,35.15625,10.25390625,36.1328125
1771543082.15175,-21.97265625,40.0390625,41.50390625,-10.7421875,-22.4609375
1771543082.1556563,-16.6015625,37.59765625,46.38671875,-3.90625,2.9296875
1771543082.1595626,11.71875,39.0625,43.9453125,19.04296875,61.5234375
1771543082.1634688,8.30078125,36.1328125,37.59765625,18.5546875,66.40625
1771543082.167375,-10.25390625,36.62109375,33.69140625,-1.953125,22.4609375
1771543082.1712813,-13.671875,36.62109375,53.22265625,-6.34765625,63.96484375
1771543082.1751876,13.18359375,39.55078125,52.24609375,20.99609375,66.89453125
1771543082.1790938,28.80859375,41.50390625,37.59765625,38.0859375,22.4609375
1771543082.181125,4.8828125,40.0390625,41.9921875,15.625,4.39453125
1771543082.1850312,-2.9296875,40.0390625,52.24609375,1.953125,45.8984375
1771543082.1889374,19.53125,39.55078125,42.96875,25.390625,-4.39453125
1771543082.1928437,31.25,37.59765625,32.71484375,38.0859375,4.8828125
1771543082.19675,15.625,34.66796875,37.109375,18.5546875,33.69140625
1771543082.2006562,8.7890625,38.0859375,42.48046875,9.27734375,-37.59765625
1771543082.2045624,27.34375,44.921875,51.26953125,27.83203125,61.03515625
1771543082.2084687,35.15625,43.45703125,41.015625,36.62109375,99.12109375
1771543082.212375,24.4140625,46.38671875,34.1796875,30.2734375,58.59375
1771543082.2162812,9.765625,46.875,50.29296875,7.32421875,18.5546875
1771543082.2201874,12.6953125,41.9921875,54.6875,10.25390625,14.16015625
1771543082.2240937,27.34375,45.41015625,43.9453125,38.0859375,56.640625
1771543082.227125,35.64453125,46.875,37.59765625,42.96875,80.56640625
1771543082.2310312,19.04296875,39.0625,41.015625,16.11328125,64.94140625
1771543082.2349374,12.20703125,38.0859375,43.9453125,5.37109375,65.91796875
1771543082.2388437,43.9453125,39.0625,38.57421875,39.0625,82.51953125
1771543082.24275,59.08203125,32.71484375,41.015625,63.96484375,58.59375
1771543082.2466562,43.9453125,36.1328125,47.36328125,41.9921875,74.70703125
1771543082.2505624,10.7421875,47.36328125,41.50390625,-1.953125,94.7265625
1771543082.2544687,20.99609375,52.24609375,26.3671875,6.34765625,72.265625
1771543082.258375,52.734375,51.7578125,26.85546875,40.0390625,63.96484375
1771543082.2622812,33.69140625,50.78125,24.90234375,24.90234375,65.4296875
1771543082.2661874,29.78515625,50.78125,18.06640625,11.23046875,59.08203125
1771543082.2700937,37.109375,43.9453125,27.34375,23.92578125,47.36328125
1771543082.271125,35.64453125,45.41015625,24.4140625,33.69140625,29.296875
1771543082.2750313,28.80859375,46.38671875,20.99609375,30.76171875,61.03515625
1771543082.2789376,19.53125,44.43359375,25.87890625,15.625,97.16796875
1771543082.2828438,24.4140625,48.33984375,30.2734375,18.06640625,97.65625
1771543082.28675,41.015625,47.36328125,29.78515625,41.9921875,46.875
1771543082.2906563,56.15234375,49.8046875,26.85546875,58.10546875,-20.99609375
1771543082.2945626,26.3671875,50.29296875,15.625,27.83203125,-0.9765625
1771543082.2984688,18.5546875,43.9453125,19.04296875,14.16015625,34.66796875
1771543082.302375,43.9453125,40.0390625,33.69140625,38.57421875,36.62109375
1771543082.3062813,51.7578125,41.015625,27.83203125,51.7578125,40.0390625
1771543082.3101876,41.50390625,45.8984375,19.53125,40.0390625,41.015625
1771543082.3140938,22.94921875,39.0625,32.71484375,14.6484375,44.43359375
1771543082.316125,34.1796875,37.59765625,39.55078125,29.78515625,62.5
1771543082.3200312,52.734375,46.875,25.87890625,56.15234375,57.12890625
1771543082.3239374,43.45703125,45.41015625,29.296875,48.828125,10.25390625
1771543082.3278437,27.34375,42.96875,42.96875,28.80859375,-22.94921875
1771543082.33175,39.0625,43.9453125,40.0390625,35.64453125,-16.6015625
1771543082.3356562,56.15234375,45.8984375,26.85546875,58.10546875,10.25390625
1771543082.3395624,50.29296875,51.7578125,12.6953125,52.734375,30.2734375
1771543082.3434687,31.25,48.33984375,24.90234375,25.87890625,27.83203125
1771543082.347375,26.85546875,45.8984375,41.9921875,18.5546875,1.953125
1771543082.3512812,50.29296875,46.38671875,33.203125,40.52734375,24.4140625
1771543082.3551874,61.5234375,44.43359375,25.390625,53.22265625,36.1328125
1771543082.3590937,36.62109375,43.45703125,28.80859375,34.1796875,13.671875
1771543082.376125,26.3671875,40.52734375,36.62109375,20.99609375,27.83203125
1771543082.3800313,45.41015625,41.9921875,32.2265625,34.1796875,58.59375
1771543082.3839376,54.19921875,40.52734375,29.296875,51.26953125,65.91796875
1771543082.3878438,41.9921875,40.52734375,34.66796875,41.50390625,54.6875
1771543082.39175,22.4609375,43.45703125,39.0625,19.53125,39.0625
1771543082.3956563,32.2265625,41.50390625,29.296875,31.73828125,28.80859375
1771543082.3995626,54.6875,39.55078125,24.4140625,51.7578125,25.390625
1771543082.4034688,43.45703125,36.1328125,33.203125,41.50390625,3.41796875
1771543082.407375,15.13671875,35.15625,32.71484375,19.04296875,-16.6015625
1771543082.4112813,22.94921875,39.0625,30.76171875,26.3671875,-12.20703125
1771543082.4151876,46.38671875,37.59765625,33.69140625,47.36328125,20.5078125
1771543082.4190938,43.45703125,35.64453125,39.55078125,51.26953125,78.125
1771543082.421125,22.94921875,38.57421875,37.109375,26.3671875,151.85546875
1771543082.4250312,23.4375,41.9921875,34.66796875,14.6484375,93.26171875
1771543082.4289374,37.109375,40.0390625,39.55078125,40.52734375,15.625
1771543082.4328437,45.41015625,40.52734375,41.015625,58.59375,15.13671875
1771543082.43675,31.73828125,40.0390625,39.0625,38.0859375,31.25
1771543082.4406562,19.04296875,38.0859375,38.0859375,23.92578125,56.640625
1771543082.4445624,35.64453125,43.45703125,37.59765625,41.9921875,46.875
1771543082.4484687,48.828125,39.55078125,39.0625,58.10546875,31.25
1771543082.452375,37.109375,38.0859375,37.59765625,48.33984375,43.45703125
1771543082.4562812,23.92578125,41.9921875,36.62109375,27.34375,51.26953125
1771543082.4601874,38.0859375,35.64453125,49.8046875,38.0859375,37.109375
1771543082.4640937,58.10546875,36.1328125,47.36328125,63.96484375,54.6875
1771543082.466125,56.15234375,40.0390625,36.1328125,60.546875,67.87109375
1771543082.4700313,37.109375,39.0625,38.57421875,34.1796875,55.6640625
1771543082.4739375,34.66796875,39.0625,50.78125,32.71484375,81.0546875
1771543082.4778438,50.29296875,42.96875,44.921875,54.19921875,89.84375
1771543082.48175,53.22265625,45.41015625,30.76171875,58.10546875,-0.48828125
1771543082.4856563,31.25,41.015625,36.1328125,33.69140625,-9.27734375
1771543082.4895625,22.4609375,38.0859375,42.96875,20.5078125,25.390625
1771543082.4934688,51.7578125,38.0859375,42.96875,43.9453125,61.5234375
1771543082.497375,63.4765625,39.55078125,26.3671875,61.5234375,104.4921875
1771543082.5012813,36.1328125,39.55078125,22.94921875,39.55078125,50.29296875
1771543082.5051875,23.4375,36.62109375,43.45703125,20.01953125,49.8046875
1771543082.5090938,36.62109375,37.59765625,39.0625,34.66796875,42.96875
1771543082.512125,51.7578125,43.45703125,28.3203125,52.24609375,14.6484375
1771543082.5160313,52.734375,44.43359375,30.76171875,50.29296875,33.203125
1771543082.5199375,27.83203125,39.0625,41.015625,28.3203125,57.12890625
1771543082.5238438,31.25,41.015625,40.0390625,30.2734375,41.015625
1771543082.52775,57.6171875,43.45703125,28.3203125,55.17578125,2.44140625
1771543082.5316563,53.22265625,45.41015625,30.76171875,54.19921875,0.48828125
1771543082.5355625,31.25,46.875,41.9921875,30.76171875,43.9453125
1771543082.5394688,38.0859375,44.921875,42.48046875,28.80859375,34.66796875
1771543082.543375,57.12890625,42.48046875,33.203125,51.7578125,28.3203125
1771543082.5472813,49.8046875,41.9921875,37.59765625,61.03515625,30.76171875
1771543082.5511875,34.1796875,37.59765625,43.45703125,43.45703125,47.36328125
1771543082.5550938,30.76171875,34.1796875,41.015625,30.2734375,9.765625
1771543082.556125,44.921875,38.57421875,43.9453125,47.36328125,-1.953125
1771543082.5600312,55.6640625,40.0390625,43.45703125,62.98828125,51.7578125
1771543082.5639374,40.0390625,40.0390625,39.0625,45.8984375,62.01171875
1771543082.5678437,27.83203125,40.52734375,41.9921875,27.83203125,43.9453125
1771543082.57175,44.43359375,44.43359375,40.0390625,43.45703125,16.6015625
1771543082.5756562,61.5234375,46.875,34.66796875,65.91796875,15.625
1771543082.5795624,52.734375,41.015625,37.109375,58.59375,16.11328125
1771543082.5834687,31.25,40.52734375,33.69140625,30.76171875,20.5078125
1771543082.587375,40.52734375,39.55078125,36.1328125,33.203125,61.03515625
1771543082.5912812,60.546875,38.0859375,43.9453125,56.640625,52.24609375
1771543082.5951874,60.546875,39.55078125,41.015625,60.05859375,54.6875
1771543082.5990937,46.875,37.59765625,42.96875,43.9453125,69.3359375
1771543082.601125,41.015625,38.0859375,53.7109375,38.57421875,82.03125
1771543082.6050313,54.19921875,37.109375,50.29296875,52.24609375,111.328125
1771543082.6089375,64.94140625,36.62109375,33.69140625,64.453125,41.9921875
1771543082.6128438,44.921875,36.62109375,33.203125,46.875,16.11328125
1771543082.61675,30.2734375,33.69140625,41.9921875,35.15625,62.01171875
1771543082.6206563,62.01171875,31.73828125,35.15625,65.91796875,40.52734375
1771543082.6245625,81.54296875,40.52734375,28.3203125,86.9140625,-11.71875
1771543082.6284688,43.45703125,44.921875,29.78515625,49.31640625,27.83203125
1771543082.632375,24.90234375,37.59765625,42.96875,26.3671875,24.90234375
1771543082.6362813,54.19921875,41.50390625,55.6640625,58.10546875,17.08984375
1771543082.6401875,78.61328125,42.48046875,45.8984375,83.0078125,33.69140625
1771543082.6440938,85.9375,37.59765625,41.015625,87.40234375,20.99609375
1771543082.646125,78.61328125,41.015625,49.8046875,70.3125,9.27734375
1771543082.6500313,80.56640625,42.96875,53.22265625,64.453125,9.27734375
1771543082.6539376,90.33203125,45.41015625,45.41015625,78.125,28.80859375
1771543082.6578438,94.23828125,47.8515625,42.48046875,84.9609375,35.15625
1771543082.66175,66.89453125,41.50390625,46.875,64.94140625,14.6484375
1771543082.6656563,55.17578125,37.59765625,44.921875,51.26953125,-14.6484375
1771543082.6695626,81.0546875,36.1328125,36.62109375,74.70703125,-8.30078125
1771543082.6734688,75.68359375,32.71484375,35.64453125,85.9375,1.953125
1771543082.677375,43.45703125,29.296875,43.45703125,59.08203125,-55.17578125
1771543082.6812813,34.1796875,28.80859375,49.8046875,49.31640625,8.30078125
1771543082.6851876,55.6640625,30.76171875,47.8515625,65.4296875,59.5703125
1771543082.6890938,66.40625,34.1796875,40.0390625,73.73046875,33.203125
1771543082.691125,56.640625,32.71484375,43.45703125,68.84765625,58.10546875
1771543082.6950312,45.41015625,27.83203125,47.8515625,52.734375,62.5
1771543082.6989374,49.8046875,31.73828125,43.9453125,58.10546875,-5.37109375
1771543082.7028437,68.84765625,32.71484375,39.0625,75.1953125,-14.16015625
1771543082.70675,73.73046875,29.78515625,35.15625,76.66015625,-5.859375
1771543082.7106562,56.15234375,32.71484375,35.15625,52.734375,-15.13671875
1771543082.7145624,57.12890625,35.15625,35.15625,54.6875,54.19921875
1771543082.7184687,82.03125,37.59765625,38.0859375,71.2890625,30.76171875
1771543082.722375,83.0078125,34.1796875,43.45703125,72.75390625,9.765625
1771543082.7262812,54.6875,38.0859375,36.62109375,54.6875,48.828125
1771543082.7301874,46.875,40.0390625,39.55078125,39.0625,50.78125
1771543082.7340937,62.5,34.1796875,41.015625,56.640625,28.3203125
1771543082.737125,70.80078125,36.1328125,39.0625,68.84765625,43.9453125
1771543082.7410312,60.546875,36.62109375,34.66796875,57.6171875,21.97265625
1771543082.7449374,49.8046875,34.1796875,41.50390625,45.8984375,30.76171875
1771543082.7488437,53.7109375,31.73828125,53.7109375,53.22265625,66.40625
1771543082.75275,64.453125,34.1796875,42.48046875,70.3125,53.7109375
1771543082.7566562,61.5234375,37.109375,28.3203125,70.3125,91.30859375
1771543082.7605624,41.015625,31.73828125,38.57421875,49.8046875,49.31640625
1771543082.7644687,52.24609375,33.203125,54.6875,48.33984375,1.953125
1771543082.768375,67.3828125,36.62109375,49.31640625,67.87109375,34.66796875
1771543082.7722812,52.734375,35.64453125,40.52734375,70.3125,23.4375
1771543082.7761874,31.73828125,35.64453125,43.9453125,43.9453125,8.7890625
1771543082.7800937,35.15625,34.66796875,47.36328125,38.57421875,2.44140625
1771543082.795125,50.29296875,35.64453125,38.0859375,57.6171875,29.296875
1771543082.7990313,52.734375,37.109375,31.25,58.10546875,44.43359375
1771543082.8029375,30.2734375,38.0859375,38.57421875,31.73828125,-19.53125
1771543082.8068438,24.90234375,37.59765625,47.36328125,23.92578125,14.6484375
1771543082.81075,46.875,35.64453125,41.9921875,44.921875,34.1796875
1771543082.8146563,55.6640625,38.0859375,31.25,55.6640625,27.83203125
1771543082.8185625,41.015625,41.9921875,34.66796875,41.015625,30.76171875
1771543082.8224688,20.01953125,37.59765625,48.828125,23.92578125,40.0390625
1771543082.826375,41.9921875,41.015625,44.921875,45.41015625,76.66015625
1771543082.8302813,54.6875,48.33984375,30.76171875,62.98828125,69.82421875
1771543082.8341875,39.55078125,42.48046875,38.0859375,50.78125,79.58984375
1771543082.8380938,22.4609375,41.50390625,45.8984375,30.2734375,48.828125
1771543082.841125,18.06640625,42.48046875,45.8984375,25.87890625,23.4375
1771543082.8450313,40.0390625,44.43359375,36.62109375,49.31640625,9.27734375
1771543082.8489375,39.0625,42.48046875,35.15625,50.78125,-7.32421875
1771543082.8528438,14.16015625,39.55078125,38.57421875,21.97265625,17.08984375
1771543082.85675,19.53125,43.9453125,34.1796875,15.625,33.203125
1771543082.8606563,41.50390625,39.55078125,29.296875,31.25,8.7890625
1771543082.8645625,45.41015625,38.57421875,33.203125,43.9453125,37.59765625
1771543082.8684688,30.2734375,37.109375,39.55078125,30.76171875,51.26953125
1771543082.872375,29.78515625,43.45703125,28.3203125,18.5546875,5.859375
1771543082.8762813,60.546875,46.875,25.87890625,45.8984375,18.06640625
1771543082.8801875,72.265625,35.15625,38.57421875,64.94140625,50.29296875
1771543082.8840938,41.50390625,40.52734375,32.71484375,43.45703125,26.85546875
1771543082.885125,11.71875,40.52734375,39.55078125,14.16015625,43.9453125
1771543082.8890312,22.94921875,35.15625,51.26953125,11.71875,65.4296875
1771543082.8929374,37.109375,40.0390625,46.38671875,35.15625,42.48046875
1771543082.8968437,24.4140625,32.71484375,39.55078125,41.9921875,15.625
1771543082.90075,1.953125,31.25,39.0625,18.06640625,-9.765625
1771543082.9046562,8.30078125,37.59765625,45.8984375,18.5546875,46.875
1771543082.9085624,29.296875,41.015625,43.9453125,41.015625,57.12890625
1771543082.9124687,33.69140625,38.0859375,37.109375,52.24609375,63.96484375
1771543082.916375,20.5078125,34.66796875,33.69140625,31.73828125,27.83203125
1771543082.9202812,15.13671875,31.73828125,53.7109375,20.5078125,63.4765625
