timestamps,TP9,AF7,AF8,TP10,Right AUX
1771542166.995125,57.6171875,20.99609375,19.04296875,85.9375,19.53125
1771542166.9990313,69.82421875,28.80859375,21.97265625,79.58984375,-30.76171875
1771542167.0029376,73.2421875,29.296875,17.578125,61.5234375,16.11328125
1771542167.0068438,62.5,23.92578125,19.53125,62.98828125,3.41796875
1771542167.01075,59.08203125,23.4375,19.53125,70.3125,-32.71484375
1771542167.0146563,61.03515625,19.04296875,15.13671875,68.84765625,9.765625
1771542167.0185626,57.12890625,15.13671875,12.20703125,63.4765625,6.8359375
1771542167.0224688,54.6875,12.6953125,13.18359375,61.5234375,-6.8359375
1771542167.026375,43.45703125,25.390625,13.18359375,63.96484375,59.08203125
1771542167.0302813,42.96875,35.15625,13.18359375,63.96484375,90.33203125
1771542167.0341876,59.08203125,28.3203125,16.6015625,56.640625,46.875
1771542167.0380938,64.453125,24.4140625,17.578125,51.26953125,37.109375
1771542167.038125,57.6171875,22.94921875,21.484375,57.6171875,28.80859375
1771542167.0420313,57.6171875,41.50390625,24.90234375,74.70703125,24.4140625
1771542167.0459375,69.82421875,41.015625,22.94921875,69.82421875,10.7421875
1771542167.0498438,72.265625,22.4609375,15.13671875,60.546875,-1.46484375
1771542167.05375,65.4296875,20.99609375,16.6015625,74.21875,17.578125
1771542167.0576563,46.38671875,24.4140625,22.4609375,55.17578125,-7.32421875
1771542167.0615625,37.59765625,25.390625,23.92578125,28.3203125,21.484375
1771542167.0654688,40.0390625,16.6015625,24.90234375,35.64453125,13.671875
1771542167.069375,36.62109375,22.94921875,30.76171875,41.50390625,43.45703125
1771542167.0732813,33.69140625,27.83203125,29.296875,46.38671875,83.984375
1771542167.0771875,39.55078125,27.83203125,23.4375,46.38671875,21.97265625
1771542167.0810938,43.9453125,26.3671875,28.80859375,36.1328125,-30.2734375
1771542167.099125,33.203125,23.92578125,31.73828125,35.64453125,-11.23046875
1771542167.1030312,21.97265625,28.80859375,26.3671875,44.43359375,22.94921875
1771542167.1069374,33.203125,27.83203125,25.87890625,49.31640625,53.22265625
1771542167.1108437,44.921875,25.390625,29.296875,37.59765625,23.92578125
1771542167.11475,43.9453125,21.484375,31.73828125,36.62109375,8.30078125
1771542167.1186562,33.69140625,21.484375,34.1796875,49.31640625,63.96484375
1771542167.1225624,29.296875,19.53125,32.71484375,50.78125,98.14453125
1771542167.1264687,45.8984375,19.04296875,29.78515625,44.921875,108.88671875
1771542167.130375,48.33984375,24.4140625,29.296875,31.25,62.01171875
1771542167.1342812,40.52734375,25.87890625,28.80859375,33.203125,52.24609375
1771542167.1381874,41.50390625,26.3671875,25.87890625,50.29296875,69.3359375
1771542167.1420937,46.875,28.3203125,23.4375,45.8984375,67.87109375
1771542167.128125,52.734375,26.3671875,23.4375,34.66796875,26.3671875
1771542167.1320312,46.875,25.87890625,22.94921875,40.52734375,16.6015625
1771542167.1359375,41.9921875,29.78515625,23.92578125,49.31640625,55.17578125
1771542167.1398437,48.828125,28.3203125,24.4140625,43.9453125,61.5234375
1771542167.14375,60.546875,36.62109375,26.3671875,37.59765625,62.5
1771542167.1476562,55.17578125,34.1796875,28.3203125,36.62109375,77.63671875
1771542167.1515625,40.0390625,14.6484375,28.80859375,41.9921875,95.703125
1771542167.1554687,45.41015625,22.4609375,25.87890625,44.43359375,79.58984375
1771542167.159375,54.19921875,26.3671875,23.4375,30.2734375,68.359375
1771542167.1632812,48.828125,22.4609375,22.4609375,25.87890625,64.453125
1771542167.1671875,38.57421875,22.94921875,24.90234375,21.97265625,63.4765625
1771542167.1710937,41.9921875,34.1796875,23.4375,25.390625,56.640625
1771542167.188125,50.29296875,38.57421875,23.4375,32.71484375,53.22265625
1771542167.1920311,52.734375,32.71484375,25.390625,24.90234375,37.109375
1771542167.1959374,34.1796875,28.80859375,22.4609375,27.34375,-1.46484375
1771542167.1998436,30.76171875,34.66796875,26.3671875,39.0625,-2.9296875
1771542167.20375,52.734375,37.59765625,26.3671875,43.45703125,-3.90625
1771542167.2076561,51.7578125,24.90234375,22.4609375,34.1796875,0.9765625
1771542167.2115624,32.2265625,22.4609375,21.97265625,25.87890625,17.08984375
1771542167.2154686,19.04296875,30.2734375,22.94921875,33.69140625,8.30078125
1771542167.219375,42.96875,31.73828125,21.97265625,41.50390625,-6.8359375
1771542167.2232811,54.19921875,26.3671875,22.4609375,37.109375,-20.5078125
1771542167.2271874,43.45703125,33.69140625,20.01953125,23.4375,-35.15625
1771542167.2310936,32.2265625,40.0390625,18.5546875,24.90234375,9.27734375
1771542167.233125,26.85546875,31.73828125,23.4375,37.59765625,11.23046875
1771542167.2370312,42.48046875,30.76171875,23.4375,40.0390625,-0.48828125
1771542167.2409375,47.36328125,33.203125,19.04296875,38.0859375,19.53125
1771542167.2448437,41.015625,35.15625,17.08984375,36.62109375,28.3203125
1771542167.24875,43.9453125,31.73828125,20.5078125,42.96875,34.1796875
1771542167.2526562,43.45703125,30.76171875,19.53125,45.8984375,4.8828125
1771542167.2565625,37.59765625,30.76171875,17.578125,35.15625,21.97265625
1771542167.2604687,35.64453125,30.2734375,17.578125,30.2734375,22.94921875
1771542167.264375,41.015625,33.69140625,17.08984375,42.96875,30.76171875
1771542167.2682812,52.24609375,33.69140625,21.484375,40.0390625,22.4609375
1771542167.2721875,47.8515625,34.66796875,20.01953125,29.296875,25.390625
1771542167.2760937,37.109375,31.25,18.5546875,31.25,20.01953125
1771542167.278125,28.80859375,27.83203125,22.4609375,36.62109375,-0.9765625
1771542167.2820313,37.109375,26.3671875,22.94921875,37.59765625,41.9921875
1771542167.2859375,44.921875,31.25,23.4375,31.73828125,33.203125
1771542167.2898438,33.69140625,43.9453125,23.4375,29.296875,14.6484375
1771542167.29375,20.99609375,39.0625,19.04296875,28.3203125,30.2734375
1771542167.2976563,30.2734375,30.2734375,18.5546875,36.62109375,52.24609375
1771542167.3015625,32.2265625,32.2265625,19.04296875,29.78515625,33.203125
1771542167.3054688,19.53125,28.3203125,18.5546875,12.6953125,9.765625
1771542167.309375,20.99609375,20.5078125,20.01953125,21.97265625,12.20703125
1771542167.3132813,20.01953125,26.3671875,22.94921875,34.1796875,9.27734375
1771542167.3171875,30.2734375,32.71484375,22.4609375,33.69140625,29.296875
1771542167.3210938,32.71484375,24.90234375,21.484375,29.296875,56.15234375
1771542167.323125,15.625,20.99609375,25.390625,26.85546875,65.4296875
1771542167.3270311,15.625,27.83203125,24.90234375,33.203125,51.7578125
1771542167.3309374,23.4375,30.76171875,22.94921875,40.0390625,-1.953125
1771542167.3348436,20.5078125,24.4140625,25.390625,33.69140625,29.296875
1771542167.33875,23.92578125,21.484375,26.3671875,27.83203125,-5.859375
1771542167.3426561,23.92578125,31.25,25.390625,36.1328125,-67.3828125
1771542167.3465624,29.78515625,34.66796875,27.34375,40.52734375,-12.6953125
1771542167.3504686,35.15625,28.80859375,20.99609375,26.3671875,31.25
1771542167.354375,35.64453125,24.4140625,15.13671875,12.6953125,57.12890625
1771542167.3582811,20.5078125,30.2734375,21.97265625,15.625,63.4765625
1771542167.3621874,20.5078125,30.2734375,21.484375,29.78515625,62.98828125
1771542167.3660936,34.66796875,28.3203125,20.01953125,28.80859375,71.77734375
1771542167.369125,26.3671875,29.78515625,21.484375,22.4609375,22.4609375
1771542167.3730311,17.578125,27.34375,23.4375,26.85546875,12.6953125
1771542167.3769374,13.671875,28.80859375,22.94921875,35.64453125,48.33984375
1771542167.3808436,29.296875,30.76171875,20.01953125,38.0859375,65.4296875
1771542167.38475,42.96875,30.2734375,21.97265625,28.80859375,48.828125
1771542167.3886561,40.52734375,36.1328125,18.5546875,27.83203125,35.64453125
1771542167.3925624,32.71484375,36.62109375,16.6015625,35.64453125,45.41015625
1771542167.3964686,41.015625,31.25,17.578125,40.52734375,48.828125
1771542167.400375,43.9453125,30.76171875,16.6015625,25.390625,64.453125
1771542167.4042811,31.73828125,32.2265625,23.92578125,21.97265625,53.22265625
1771542167.4081874,24.90234375,30.2734375,25.390625,35.15625,46.38671875
1771542167.4120936,31.73828125,26.85546875,23.92578125,44.43359375,26.85546875
1771542167.414125,51.26953125,27.83203125,25.390625,41.015625,-38.57421875
1771542167.4180312,51.26953125,31.73828125,23.4375,25.87890625,-56.640625
1771542167.4219375,31.73828125,32.71484375,21.97265625,33.203125,8.7890625
1771542167.4258437,28.80859375,30.76171875,22.94921875,45.8984375,42.96875
1771542167.42975,47.8515625,35.64453125,21.484375,43.45703125,61.5234375
1771542167.4336562,45.41015625,36.1328125,18.06640625,31.25,76.66015625
1771542167.4375625,31.73828125,29.296875,20.01953125,28.80859375,57.6171875
1771542167.4414687,31.25,23.92578125,19.04296875,38.57421875,19.04296875
1771542167.445375,29.296875,28.80859375,21.97265625,38.57421875,41.015625
1771542167.4492812,29.296875,29.78515625,21.484375,30.2734375,28.3203125
1771542167.4531875,28.3203125,25.390625,18.5546875,34.1796875,-32.2265625
1771542167.4570937,22.94921875,28.80859375,20.01953125,38.57421875,34.1796875
1771542167.458125,38.57421875,28.3203125,21.97265625,43.9453125,83.49609375
1771542167.4620314,46.38671875,25.87890625,22.94921875,38.57421875,76.66015625
1771542167.4659376,26.85546875,25.390625,18.06640625,27.83203125,25.87890625
1771542167.4698439,20.99609375,29.296875,22.94921875,35.15625,-3.41796875
1771542167.47375,30.76171875,31.73828125,26.85546875,50.78125,-6.34765625
1771542167.4776564,30.76171875,25.87890625,21.484375,48.33984375,6.34765625
1771542167.4815626,24.90234375,20.99609375,20.01953125,38.0859375,54.6875
1771542167.4854689,23.92578125,24.4140625,20.99609375,41.015625,24.4140625
1771542167.489375,22.4609375,33.203125,18.5546875,48.33984375,-8.30078125
1771542167.4932814,31.25,34.66796875,20.5078125,50.29296875,14.6484375
1771542167.4971876,26.85546875,28.3203125,20.5078125,33.69140625,39.0625
1771542167.5010939,6.34765625,23.4375,20.99609375,22.94921875,43.45703125
1771542167.518125,11.71875,24.90234375,27.83203125,38.0859375,40.0390625
1771542167.5220313,29.78515625,27.83203125,28.3203125,48.828125,42.96875
1771542167.5259376,33.203125,27.34375,26.85546875,39.55078125,35.64453125
1771542167.5298438,30.76171875,26.3671875,29.78515625,39.55078125,61.03515625
1771542167.53375,23.92578125,28.80859375,26.3671875,50.78125,32.2265625
1771542167.5376563,22.94921875,27.83203125,21.484375,52.734375,-4.39453125
1771542167.5415626,28.3203125,26.85546875,24.90234375,43.45703125,-2.9296875
1771542167.5454688,25.87890625,28.80859375,25.390625,35.64453125,56.15234375
1771542167.549375,18.06640625,35.15625,21.97265625,42.48046875,49.8046875
1771542167.5532813,22.4609375,34.1796875,20.5078125,54.6875,36.62109375
1771542167.5571876,38.57421875,21.97265625,19.53125,51.26953125,34.1796875
1771542167.5610938,36.1328125,25.87890625,22.4609375,35.15625,27.34375
1771542167.563125,21.97265625,32.71484375,25.390625,32.2265625,150.390625
1771542167.5670311,22.94921875,25.87890625,23.4375,36.1328125,80.56640625
1771542167.5709374,36.62109375,26.85546875,24.4140625,42.48046875,46.38671875
1771542167.5748436,35.64453125,27.34375,22.94921875,33.203125,72.75390625
1771542167.57875,23.92578125,27.34375,17.08984375,29.78515625,98.6328125
1771542167.5826561,19.53125,27.34375,17.08984375,43.45703125,96.19140625
1771542167.5865624,31.25,24.90234375,19.53125,45.8984375,-0.9765625
1771542167.5904686,31.25,28.3203125,20.99609375,37.109375,-2.44140625
1771542167.594375,25.390625,31.73828125,21.484375,31.25,12.6953125
1771542167.5982811,19.53125,24.4140625,20.01953125,40.52734375,-29.78515625
1771542167.6021874,24.4140625,23.4375,19.53125,41.50390625,26.85546875
1771542167.6060936,31.25,26.85546875,20.99609375,27.34375,78.61328125
1771542167.608125,19.53125,22.4609375,23.4375,23.92578125,37.109375
1771542167.6120312,15.13671875,28.3203125,24.90234375,36.62109375,35.15625
1771542167.6159375,26.85546875,43.9453125,26.85546875,53.22265625,27.34375
1771542167.6198437,37.109375,29.296875,21.97265625,42.96875,-16.11328125
1771542167.62375,34.66796875,18.5546875,18.06640625,25.390625,-3.90625
1771542167.6276562,21.97265625,24.4140625,17.08984375,29.78515625,-1.953125
1771542167.6315625,28.3203125,27.83203125,20.5078125,42.48046875,-7.8125
1771542167.6354687,45.41015625,39.0625,24.90234375,41.015625,76.66015625
1771542167.639375,46.875,35.15625,26.3671875,33.203125,120.60546875
1771542167.6432812,31.25,23.92578125,23.4375,34.66796875,72.265625
1771542167.6471875,24.4140625,26.85546875,23.4375,38.57421875,42.48046875
1771542167.6510937,40.0390625,26.3671875,30.2734375,47.36328125,25.87890625
1771542167.654125,41.9921875,27.34375,27.34375,35.15625,22.94921875
1771542167.6580312,38.57421875,30.76171875,21.484375,25.87890625,58.10546875
1771542167.6619375,27.83203125,30.76171875,24.90234375,36.62109375,25.390625
1771542167.6658437,36.62109375,30.76171875,25.87890625,40.0390625,-14.16015625
1771542167.66975,47.36328125,31.73828125,24.90234375,30.76171875,-12.20703125
1771542167.6736562,32.71484375,25.87890625,23.4375,20.5078125,9.27734375
1771542167.6775625,24.90234375,23.92578125,24.90234375,29.78515625,35.64453125
1771542167.6814687,37.59765625,32.2265625,28.3203125,52.24609375,-2.9296875
1771542167.685375,54.19921875,25.87890625,27.34375,49.31640625,-29.78515625
1771542167.6892812,41.50390625,28.3203125,20.5078125,29.78515625,-2.44140625
1771542167.6931875,22.4609375,31.25,20.5078125,33.203125,22.4609375
1771542167.6970937,19.04296875,25.87890625,20.99609375,45.8984375,68.84765625
1771542167.699125,35.64453125,32.71484375,21.484375,47.8515625,75.1953125
1771542167.7030313,42.48046875,30.76171875,25.390625,34.1796875,37.109375
1771542167.7069376,30.76171875,31.73828125,21.484375,26.85546875,35.64453125
1771542167.7108438,32.71484375,28.80859375,15.625,44.43359375,53.22265625
1771542167.71475,46.38671875,24.90234375,19.04296875,47.8515625,50.78125
1771542167.7186563,50.29296875,28.3203125,23.92578125,31.25,14.16015625
1771542167.7225626,35.15625,32.2265625,29.296875,30.2734375,57.6171875
1771542167.7264688,24.90234375,31.25,26.3671875,37.109375,25.390625
1771542167.730375,40.0390625,20.99609375,21.484375,39.55078125,-9.27734375
1771542167.7342813,50.78125,37.59765625,21.97265625,34.66796875,93.75
1771542167.7381876,37.59765625,45.8984375,19.04296875,24.4140625,31.73828125
1771542167.7420938,25.87890625,28.3203125,19.53125,25.87890625,-20.01953125
1771542167.743125,42.48046875,23.92578125,17.08984375,35.15625,69.82421875
1771542167.7470312,57.12890625,22.94921875,17.08984375,41.50390625,69.3359375
1771542167.7509375,48.828125,23.92578125,22.94921875,32.71484375,40.0390625
1771542167.7548437,34.1796875,27.83203125,20.5078125,23.92578125,27.34375
1771542167.75875,39.55078125,33.69140625,21.97265625,39.55078125,-4.39453125
1771542167.7626562,48.33984375,35.15625,20.01953125,41.50390625,22.94921875
1771542167.7665625,43.9453125,26.85546875,18.06640625,31.25,26.3671875
1771542167.7704687,35.15625,16.11328125,20.01953125,32.2265625,6.34765625
1771542167.774375,40.52734375,24.4140625,19.53125,36.1328125,17.08984375
1771542167.7782812,44.921875,30.2734375,24.4140625,38.57421875,51.7578125
1771542167.7821875,46.38671875,24.90234375,25.390625,30.2734375,27.83203125
1771542167.7860937,45.8984375,30.2734375,22.94921875,27.83203125,4.8828125
1771542167.789125,34.66796875,33.203125,22.4609375,32.71484375,25.87890625
1771542167.7930312,35.15625,32.2265625,23.4375,41.9921875,19.04296875
1771542167.7969375,43.9453125,30.2734375,26.3671875,41.50390625,80.078125
1771542167.8008437,47.36328125,29.78515625,25.390625,30.2734375,58.10546875
1771542167.80475,44.921875,34.66796875,24.90234375,35.15625,-17.08984375
1771542167.8086562,42.48046875,36.62109375,21.97265625,46.38671875,0.9765625
1771542167.8125625,52.24609375,27.83203125,20.99609375,43.9453125,29.296875
1771542167.8164687,46.38671875,28.80859375,20.01953125,18.06640625,15.625
1771542167.820375,27.83203125,34.1796875,17.578125,10.25390625,16.11328125
1771542167.8242812,24.90234375,29.296875,17.578125,25.390625,41.50390625
1771542167.8281875,36.1328125,25.87890625,20.01953125,29.78515625,79.1015625
1771542167.8320937,40.52734375,24.4140625,20.99609375,21.97265625,58.59375
1771542167.833125,36.1328125,25.390625,26.3671875,17.578125,24.4140625
1771542167.8370314,34.1796875,24.4140625,24.4140625,30.76171875,42.96875
1771542167.8409376,48.33984375,23.92578125,21.97265625,44.43359375,59.08203125
1771542167.8448439,57.12890625,22.4609375,27.34375,34.1796875,52.24609375
1771542167.84875,47.8515625,24.4140625,24.4140625,19.53125,20.5078125
1771542167.8526564,30.2734375,29.78515625,20.99609375,20.01953125,-13.671875
1771542167.8565626,35.64453125,30.76171875,20.5078125,29.78515625,38.57421875
1771542167.8604689,50.78125,31.25,19.53125,28.80859375,53.22265625
1771542167.864375,44.921875,34.66796875,23.4375,20.01953125,24.90234375
1771542167.8682814,37.109375,33.203125,22.4609375,22.94921875,83.984375
1771542167.8721876,38.57421875,25.87890625,21.97265625,33.203125,39.55078125
1771542167.8760939,36.62109375,24.4140625,24.90234375,29.78515625,-16.11328125
1771542167.879125,41.50390625,27.34375,25.87890625,20.01953125,-19.04296875
1771542167.8830314,32.2265625,26.85546875,23.92578125,19.53125,35.64453125
1771542167.8869376,20.99609375,24.90234375,23.4375,29.78515625,77.1484375
1771542167.8908439,41.9921875,31.73828125,24.90234375,34.1796875,95.703125
1771542167.89475,42.96875,38.0859375,21.97265625,22.4609375,63.96484375
1771542167.8986564,29.78515625,28.80859375,21.484375,20.5078125,16.11328125
1771542167.9025626,29.78515625,25.87890625,23.4375,27.83203125,45.41015625
1771542167.9064689,38.0859375,28.80859375,24.4140625,32.2265625,95.703125
1771542167.910375,51.26953125,22.4609375,28.3203125,28.3203125,108.88671875
1771542167.9142814,55.6640625,33.203125,35.64453125,28.80859375,40.52734375
1771542167.9181876,47.8515625,41.015625,36.1328125,37.109375,40.0390625
1771542167.9220939,43.9453125,25.390625,28.80859375,43.45703125,48.33984375
1771542167.939125,55.17578125,24.4140625,23.4375,35.64453125,41.9921875
1771542167.9430313,58.10546875,31.25,20.5078125,23.4375,35.15625
1771542167.9469376,56.15234375,40.52734375,25.390625,37.109375,71.2890625
1771542167.9508438,57.12890625,39.0625,28.3203125,42.96875,56.640625
1771542167.95475,58.59375,27.83203125,24.90234375,34.66796875,-8.30078125
1771542167.9586563,61.03515625,22.4609375,24.4140625,25.390625,15.625
1771542167.9625626,49.31640625,30.2734375,28.3203125,25.87890625,53.7109375
1771542167.9664688,47.36328125,36.1328125,29.78515625,37.109375,73.2421875
1771542167.970375,62.5,33.203125,25.87890625,45.41015625,45.41015625
1771542167.9742813,60.546875,33.203125,23.92578125,32.71484375,21.97265625
1771542167.9781876,54.19921875,36.1328125,24.4140625,25.87890625,33.69140625
1771542167.9820938,47.36328125,38.57421875,24.4140625,38.57421875,28.3203125
1771542167.983125,45.8984375,42.48046875,25.390625,45.8984375,26.85546875
1771542167.9870312,56.640625,41.9921875,22.4609375,33.203125,10.25390625
1771542167.9909375,58.59375,35.15625,22.4609375,24.90234375,1.953125
1771542167.9948437,49.8046875,31.25,26.3671875,33.69140625,-36.1328125
1771542167.99875,51.7578125,30.76171875,27.34375,37.109375,-24.4140625
1771542168.0026562,61.5234375,31.25,26.3671875,34.1796875,66.89453125
1771542168.0065625,48.33984375,32.71484375,20.5078125,23.4375,71.2890625
1771542168.0104687,26.85546875,31.73828125,22.4609375,18.06640625,32.71484375
1771542168.014375,25.87890625,29.296875,26.3671875,23.92578125,2.9296875
1771542168.0182812,41.50390625,24.4140625,29.78515625,27.83203125,-18.06640625
1771542168.0221875,56.15234375,30.2734375,31.25,20.5078125,25.87890625
1771542168.0260937,46.875,33.69140625,28.3203125,17.08984375,47.36328125
1771542168.028125,34.1796875,34.66796875,26.3671875,26.3671875,6.8359375
1771542168.0320313,45.8984375,35.64453125,22.4609375,40.0390625,-17.08984375
1771542168.0359375,49.8046875,28.3203125,24.4140625,32.71484375,6.8359375
1771542168.0398438,48.33984375,24.4140625,25.87890625,26.85546875,41.015625
1771542168.04375,47.36328125,27.34375,22.94921875,31.73828125,31.73828125
1771542168.0476563,42.48046875,30.76171875,19.53125,33.69140625,49.8046875
1771542168.0515625,46.38671875,28.80859375,22.4609375,30.76171875,59.5703125
1771542168.0554688,43.45703125,30.2734375,25.390625,19.53125,57.12890625
1771542168.059375,32.71484375,24.90234375,22.4609375,26.3671875,42.96875
1771542168.0632813,35.64453125,22.94921875,23.92578125,35.64453125,69.3359375
1771542168.0671875,50.78125,28.80859375,25.390625,31.73828125,71.2890625
1771542168.0710938,52.24609375,28.80859375,25.390625,31.25,42.96875
1771542168.073125,36.62109375,29.78515625,23.4375,25.87890625,77.1484375
1771542168.0770311,39.55078125,28.80859375,21.484375,26.85546875,46.38671875
1771542168.0809374,52.734375,31.25,21.97265625,28.80859375,41.015625
1771542168.0848436,44.43359375,29.78515625,21.97265625,28.3203125,94.7265625
1771542168.08875,34.66796875,26.3671875,24.90234375,33.203125,83.984375
1771542168.0926561,33.69140625,32.71484375,25.87890625,37.59765625,50.78125
1771542168.0965624,39.0625,31.25,24.4140625,30.76171875,12.6953125
1771542168.1004686,44.921875,22.94921875,24.90234375,24.4140625,65.91796875
1771542168.104375,32.2265625,21.484375,27.34375,23.92578125,56.15234375
1771542168.1082811,15.625,34.1796875,27.34375,25.390625,18.5546875
1771542168.1121874,26.3671875,39.55078125,28.80859375,33.69140625,52.24609375
1771542168.1160936,43.45703125,29.296875,26.85546875,30.2734375,20.99609375
1771542168.118125,41.015625,25.87890625,24.90234375,18.5546875,54.6875
1771542168.1220312,36.1328125,29.78515625,23.92578125,27.34375,34.1796875
1771542168.1259375,34.1796875,29.78515625,23.92578125,36.62109375,-1.46484375
1771542168.1298437,41.50390625,31.73828125,26.3671875,30.2734375,67.87109375
1771542168.13375,45.8984375,34.66796875,25.390625,18.5546875,82.03125
1771542168.1376562,31.25,28.3203125,27.34375,20.99609375,51.26953125
1771542168.1415625,25.390625,23.4375,29.296875,29.296875,24.90234375
1771542168.1454687,43.45703125,27.34375,26.3671875,28.3203125,20.5078125
1771542168.149375,41.015625,29.78515625,23.4375,17.578125,3.90625
1771542168.1532812,27.83203125,31.25,26.3671875,9.765625,-33.203125
1771542168.1571875,23.4375,37.59765625,23.92578125,18.06640625,-33.69140625
1771542168.1610937,35.15625,36.62109375,18.5546875,26.3671875,41.015625
1771542168.163125,41.50390625,28.3203125,24.4140625,15.13671875,49.31640625
1771542168.1670313,27.34375,26.85546875,30.2734375,9.765625,14.16015625
1771542168.1709375,37.59765625,29.78515625,27.83203125,28.80859375,34.66796875
1771542168.1748438,42.96875,30.76171875,24.4140625,37.59765625,86.42578125
1771542168.17875,30.2734375,31.73828125,23.92578125,20.5078125,34.1796875
1771542168.1826563,19.53125,32.2265625,28.80859375,2.44140625,-30.2734375
1771542168.1865625,19.53125,25.87890625,31.25,15.625,14.16015625
1771542168.1904688,22.4609375,20.5078125,32.71484375,31.73828125,49.31640625
1771542168.194375,22.4609375,26.3671875,38.0859375,24.90234375,5.859375
1771542168.1982813,24.90234375,24.4140625,35.15625,20.99609375,-30.2734375
1771542168.2021875,26.3671875,14.16015625,32.71484375,22.94921875,14.6484375
1771542168.2060938,26.3671875,16.11328125,35.15625,31.25,24.4140625
1771542168.209125,36.1328125,24.4140625,34.1796875,28.80859375,37.59765625
1771542168.2130313,36.62109375,25.390625,31.73828125,18.06640625,84.47265625
1771542168.2169375,26.85546875,27.83203125,28.3203125,13.671875,78.61328125
1771542168.2208438,22.4609375,29.296875,31.73828125,20.01953125,92.28515625
1771542168.22475,26.3671875,30.76171875,28.3203125,28.3203125,66.89453125
1771542168.2286563,41.50390625,27.34375,27.34375,26.85546875,23.4375
1771542168.2325625,41.015625,23.92578125,30.2734375,18.5546875,0.0
1771542168.2364688,23.92578125,34.66796875,32.2265625,20.01953125,40.52734375
1771542168.240375,32.2265625,37.59765625,35.15625,32.2265625,27.34375
1771542168.2442813,43.9453125,31.73828125,33.203125,28.3203125,-23.92578125
1771542168.2481875,41.9921875,34.66796875,32.2265625,23.4375,27.83203125
1771542168.2520938,30.2734375,33.203125,33.203125,28.80859375,41.015625
1771542168.253125,29.78515625,28.80859375,33.203125,38.57421875,31.25
1771542168.2570312,44.43359375,32.71484375,30.76171875,44.921875,21.484375
1771542168.2609375,51.26953125,29.296875,33.203125,29.296875,38.0859375
1771542168.2648437,37.59765625,26.85546875,32.71484375,22.4609375,59.5703125
1771542168.26875,22.94921875,30.2734375,29.78515625,31.73828125,-1.953125
1771542168.2726562,36.1328125,33.203125,31.73828125,37.59765625,24.4140625
1771542168.2765625,44.921875,38.57421875,32.2265625,29.78515625,76.171875
1771542168.2804687,31.73828125,42.96875,28.80859375,11.71875,87.40234375
1771542168.284375,26.85546875,39.55078125,23.92578125,16.6015625,52.24609375
1771542168.2882812,36.62109375,37.109375,25.390625,29.78515625,44.43359375
1771542168.2921875,38.57421875,34.1796875,23.4375,21.97265625,43.9453125
1771542168.2960937,35.64453125,33.69140625,22.94921875,20.01953125,-11.71875
1771542168.313125,34.66796875,33.69140625,28.3203125,28.80859375,10.25390625
1771542168.3170311,40.0390625,36.1328125,26.85546875,39.0625,76.171875
1771542168.3209374,50.29296875,43.45703125,27.83203125,39.55078125,41.9921875
1771542168.3248436,49.8046875,35.64453125,23.92578125,23.92578125,-10.25390625
1771542168.32875,37.59765625,30.2734375,24.90234375,22.94921875,49.8046875
1771542168.3326561,38.0859375,31.73828125,27.83203125,39.0625,78.61328125
1771542168.3365624,45.8984375,36.1328125,31.25,40.0390625,65.91796875
1771542168.3404686,41.015625,33.69140625,31.25,25.390625,11.71875
1771542168.344375,36.62109375,28.80859375,24.4140625,22.4609375,-20.5078125
1771542168.3482811,26.3671875,25.87890625,21.97265625,30.2734375,9.765625
1771542168.3521874,22.94921875,30.2734375,25.390625,29.296875,79.58984375
1771542168.3560936,32.2265625,36.62109375,30.2734375,21.97265625,47.36328125
1771542168.358125,34.66796875,31.25,27.34375,20.5078125,15.13671875
1771542168.3620312,24.4140625,26.3671875,27.34375,30.76171875,38.0859375
1771542168.3659375,27.34375,31.25,29.296875,35.64453125,12.20703125
1771542168.3698437,40.0390625,35.15625,24.4140625,25.87890625,22.4609375
1771542168.37375,34.66796875,30.2734375,21.484375,17.08984375,34.1796875
1771542168.3776562,27.83203125,31.25,26.85546875,26.85546875,9.765625
1771542168.3815625,25.87890625,41.50390625,25.87890625,30.76171875,37.59765625
1771542168.3854687,29.78515625,35.15625,19.53125,20.5078125,58.10546875
1771542168.389375,30.76171875,26.85546875,19.53125,14.16015625,-5.37109375
1771542168.3932812,13.18359375,20.99609375,20.5078125,10.7421875,4.8828125
1771542168.3971875,12.20703125,26.3671875,22.4609375,17.578125,84.47265625
1771542168.4010937,32.2265625,36.62109375,25.87890625,27.83203125,101.07421875
1771542168.403125,31.25,34.66796875,27.34375,20.5078125,30.2734375
1771542168.4070313,20.99609375,36.62109375,28.80859375,13.18359375,-7.32421875
1771542168.4109375,17.08984375,39.55078125,26.3671875,22.94921875,17.08984375
1771542168.4148438,28.80859375,39.55078125,23.92578125,28.80859375,42.48046875
1771542168.41875,29.78515625,40.52734375,21.97265625,20.5078125,39.55078125
1771542168.4226563,15.625,36.62109375,20.99609375,3.41796875,30.76171875
1771542168.4265625,11.23046875,35.64453125,23.92578125,5.859375,37.59765625
1771542168.4304688,10.7421875,34.66796875,20.99609375,19.53125,-2.44140625
1771542168.434375,20.01953125,28.3203125,22.4609375,20.99609375,-73.2421875
1771542168.4382813,27.34375,33.203125,26.85546875,7.8125,-35.64453125
1771542168.4421875,17.08984375,38.57421875,23.4375,4.8828125,74.70703125
1771542168.4460938,10.7421875,33.69140625,19.53125,14.6484375,104.00390625
1771542168.448125,18.06640625,36.1328125,25.87890625,16.6015625,72.75390625
1771542168.4520311,18.06640625,37.59765625,26.85546875,10.7421875,50.78125
1771542168.4559374,11.71875,32.71484375,22.94921875,8.30078125,43.45703125
1771542168.4598436,6.34765625,34.1796875,25.390625,19.53125,108.3984375
1771542168.46375,17.578125,37.109375,26.3671875,25.87890625,111.81640625
1771542168.4676561,29.78515625,41.015625,27.83203125,22.4609375,38.0859375
1771542168.4715624,26.3671875,23.92578125,23.92578125,26.85546875,-17.08984375
1771542168.4754686,27.34375,1.46484375,21.97265625,44.921875,4.39453125
1771542168.479375,38.57421875,17.08984375,17.08984375,44.43359375,20.99609375
1771542168.4832811,40.0390625,39.0625,10.7421875,21.97265625,50.78125
1771542168.4871874,21.484375,32.71484375,14.16015625,3.90625,69.3359375
1771542168.4910936,23.4375,27.83203125,12.20703125,13.671875,4.39453125
1771542168.510125,41.50390625,30.2734375,7.8125,32.2265625,10.25390625
1771542168.5140312,48.828125,32.2265625,7.32421875,36.1328125,36.1328125
1771542168.5179374,45.8984375,36.1328125,8.30078125,25.87890625,15.625
1771542168.5218437,28.80859375,31.25,8.30078125,23.4375,44.43359375
1771542168.52575,37.109375,30.2734375,9.27734375,39.0625,25.390625
1771542168.5296562,53.7109375,37.109375,12.20703125,41.9921875,-13.671875
1771542168.5335624,55.17578125,34.1796875,10.7421875,36.1328125,16.6015625
1771542168.5374687,51.26953125,25.390625,9.765625,34.1796875,27.34375
1771542168.541375,39.55078125,25.87890625,7.8125,38.57421875,31.73828125
1771542168.5452812,50.29296875,34.66796875,15.13671875,44.921875,37.59765625
1771542168.5491874,55.17578125,39.0625,20.99609375,41.50390625,26.3671875
1771542168.5530937,47.8515625,34.1796875,20.99609375,42.48046875,11.71875
1771542168.538125,39.55078125,33.69140625,21.97265625,49.8046875,1.46484375
1771542168.5420313,41.9921875,36.62109375,27.83203125,54.6875,49.31640625
1771542168.5459375,46.38671875,37.59765625,24.90234375,41.50390625,51.7578125
1771542168.5498438,32.71484375,36.1328125,22.94921875,26.85546875,-26.85546875
1771542168.55375,12.6953125,37.109375,28.3203125,26.3671875,8.7890625
1771542168.5576563,4.8828125,38.57421875,25.390625,20.99609375,39.55078125
1771542168.5615625,12.6953125,27.83203125,28.80859375,11.71875,36.1328125
1771542168.5654688,1.46484375,31.73828125,38.0859375,-2.44140625,48.828125
1771542168.569375,-10.7421875,42.96875,43.45703125,-3.41796875,15.13671875
1771542168.5732813,-17.578125,38.57421875,37.109375,0.0,1.46484375
1771542168.5771875,-11.71875,40.52734375,33.203125,-3.90625,-7.32421875
1771542168.5810938,-0.48828125,41.015625,46.38671875,-1.953125,28.3203125
1771542168.584125,-9.765625,45.8984375,54.19921875,-3.90625,93.75
1771542168.5880313,-40.0390625,57.6171875,52.734375,-20.01953125,15.625
1771542168.5919375,-44.43359375,69.82421875,46.38671875,-40.0390625,-3.41796875
1771542168.5958438,-38.0859375,75.68359375,50.29296875,-49.31640625,30.2734375
1771542168.59975,-57.12890625,86.9140625,52.24609375,-65.91796875,38.57421875
1771542168.6036563,-79.1015625,88.37890625,54.19921875,-78.61328125,31.25
1771542168.6075625,-97.16796875,80.56640625,57.12890625,-85.44921875,58.59375
1771542168.6114688,-94.7265625,83.49609375,62.98828125,-92.28515625,71.77734375
1771542168.615375,-105.95703125,88.8671875,76.66015625,-109.375,29.78515625
1771542168.6192813,-127.44140625,99.12109375,70.80078125,-120.1171875,0.48828125
1771542168.6231875,-145.01953125,99.12109375,66.40625,-128.41796875,-13.671875
1771542168.6270938,-131.34765625,90.33203125,74.70703125,-129.8828125,14.16015625
1771542168.628125,-122.55859375,103.515625,78.125,-131.8359375,26.85546875
1771542168.6320312,-144.53125,110.83984375,85.44921875,-148.92578125,1.46484375
1771542168.6359375,-161.1328125,99.609375,87.40234375,-161.1328125,17.578125
1771542168.6398437,-136.23046875,92.7734375,80.078125,-144.53125,15.13671875
1771542168.64375,-118.65234375,95.21484375,87.890625,-131.8359375,33.69140625
1771542168.6476562,-132.8125,100.5859375,92.7734375,-140.13671875,62.5
1771542168.6515625,-138.671875,91.30859375,82.51953125,-141.11328125,72.75390625
1771542168.6554687,-126.953125,86.42578125,81.0546875,-127.9296875,17.578125
1771542168.659375,-120.1171875,90.8203125,83.984375,-136.71875,51.26953125
1771542168.6632812,-117.1875,78.61328125,77.63671875,-136.71875,68.359375
1771542168.6671875,-113.28125,72.75390625,76.66015625,-113.76953125,-6.8359375
1771542168.6710937,-92.7734375,76.66015625,77.63671875,-93.26171875,67.3828125
1771542168.703125,-71.77734375,75.68359375,72.265625,-83.49609375,95.703125
1771542168.7070312,-70.80078125,66.40625,74.70703125,-83.0078125,41.015625
1771542168.7109375,-66.40625,61.03515625,70.3125,-70.3125,8.7890625
1771542168.7148438,-49.31640625,56.15234375,66.40625,-45.41015625,40.52734375
1771542168.71875,-18.06640625,42.48046875,62.5,-25.390625,48.828125
1771542168.7226562,2.9296875,33.69140625,58.10546875,-15.625,52.24609375
1771542168.7265625,7.32421875,31.25,56.15234375,-2.44140625,69.3359375
1771542168.7304688,8.30078125,27.83203125,45.41015625,12.6953125,55.17578125
1771542168.734375,37.109375,16.6015625,32.71484375,41.50390625,48.33984375
1771542168.7382812,73.73046875,12.20703125,33.203125,60.546875,60.05859375
1771542168.7421875,69.3359375,15.625,30.2734375,57.6171875,77.1484375
1771542168.7460938,73.2421875,7.32421875,20.99609375,75.68359375,46.875
1771542168.733125,112.79296875,4.39453125,16.11328125,107.421875,-11.23046875
1771542168.7370312,130.37109375,9.765625,12.6953125,113.28125,33.203125
1771542168.7409375,125.0,4.39453125,3.90625,104.4921875,29.78515625
1771542168.7448437,133.30078125,-2.44140625,-10.7421875,125.48828125,-31.25
1771542168.74875,142.578125,-1.46484375,-9.27734375,140.625,-7.32421875
1771542168.7526562,146.97265625,-6.34765625,-10.25390625,138.671875,-2.9296875
1771542168.7565625,163.57421875,-9.765625,-11.23046875,153.3203125,-22.94921875
1771542168.7604687,153.3203125,-9.27734375,-7.8125,153.80859375,60.546875
1771542168.764375,153.3203125,-2.9296875,-15.13671875,154.78515625,66.89453125
1771542168.7682812,172.8515625,1.46484375,-16.6015625,154.78515625,27.34375
1771542168.7721875,171.875,8.30078125,-17.578125,152.34375,33.203125
1771542168.7760937,158.69140625,8.30078125,-17.08984375,159.1796875,-7.32421875
1771542168.778125,153.80859375,-4.8828125,-17.08984375,163.0859375,19.04296875
1771542168.7820313,165.0390625,-7.8125,-22.4609375,164.55078125,59.08203125
1771542168.7859375,161.62109375,-1.46484375,-15.625,156.25,41.9921875
1771542168.7898438,162.59765625,0.48828125,-12.20703125,155.76171875,75.68359375
1771542168.79375,156.25,-1.46484375,-15.13671875,153.80859375,125.48828125
1771542168.7976563,141.11328125,-5.37109375,-15.13671875,150.390625,129.8828125
1771542168.8015625,148.4375,-7.8125,-15.13671875,146.97265625,101.07421875
1771542168.8054688,148.4375,12.20703125,-11.23046875,143.5546875,28.80859375
1771542168.809375,128.41796875,10.7421875,-17.08984375,145.01953125,-0.9765625
1771542168.8132813,122.0703125,-9.27734375,-18.06640625,137.6953125,23.4375
1771542168.8171875,135.25390625,2.44140625,-11.71875,134.765625,47.36328125
1771542168.8210938,130.37109375,3.90625,-14.16015625,128.41796875,52.24609375
1771542168.823125,112.79296875,-0.48828125,-14.16015625,125.48828125,52.734375
1771542168.8270311,114.74609375,4.8828125,-12.20703125,134.765625,39.55078125
1771542168.8309374,127.9296875,6.8359375,-10.25390625,137.6953125,55.17578125
1771542168.8348436,126.953125,8.7890625,-6.34765625,129.8828125,56.640625
1771542168.83875,115.234375,5.37109375,-2.9296875,123.53515625,29.296875
1771542168.8426561,104.00390625,8.30078125,0.9765625,125.9765625,2.44140625
1771542168.8465624,109.86328125,22.94921875,-0.48828125,129.8828125,-19.53125
1771542168.8504686,112.79296875,17.08984375,-5.37109375,119.62890625,38.0859375
1771542168.854375,110.83984375,9.27734375,-3.41796875,116.69921875,27.83203125
1771542168.8582811,104.4921875,20.5078125,2.9296875,117.67578125,7.8125
1771542168.8621874,89.35546875,26.3671875,8.30078125,105.95703125,71.2890625
1771542168.8660936,76.171875,20.99609375,9.765625,84.9609375,89.35546875
1771542168.868125,68.359375,17.08984375,11.23046875,76.66015625,76.171875
1771542168.8720312,49.8046875,19.04296875,14.16015625,79.58984375,34.66796875
1771542168.8759375,43.9453125,20.01953125,21.97265625,74.21875,19.53125
1771542168.8798437,55.17578125,21.97265625,23.92578125,71.2890625,13.18359375
1771542168.88375,54.19921875,25.87890625,13.671875,57.12890625,3.90625
1771542168.8876562,36.62109375,24.90234375,13.18359375,52.24609375,-21.97265625
1771542168.8915625,18.06640625,27.34375,17.578125,52.734375,5.859375
1771542168.8954687,32.2265625,20.5078125,15.625,51.26953125,11.23046875
1771542168.899375,41.015625,16.6015625,20.99609375,52.734375,8.30078125
1771542168.9032812,44.43359375,17.08984375,24.90234375,57.6171875,67.87109375
1771542168.9071875,45.8984375,12.6953125,20.5078125,70.3125,85.9375
1771542168.9110937,53.7109375,17.578125,18.5546875,75.1953125,60.05859375
1771542168.913125,68.359375,20.5078125,19.04296875,71.2890625,-11.23046875
1771542168.9170313,68.359375,26.3671875,16.11328125,71.2890625,-16.6015625
1771542168.9209375,55.6640625,28.3203125,15.625,73.73046875,34.1796875
1771542168.9248438,57.12890625,24.4140625,18.06640625,76.171875,43.45703125
1771542168.92875,77.63671875,28.3203125,19.53125,71.2890625,49.31640625
1771542168.9326563,68.359375,22.4609375,16.11328125,60.05859375,17.08984375
1771542168.9365625,53.22265625,13.18359375,13.18359375,64.453125,-1.46484375
1771542168.9404688,65.4296875,20.01953125,15.13671875,80.078125,28.3203125
1771542168.944375,71.77734375,31.25,19.53125,83.0078125,31.25
1771542168.9482813,71.2890625,29.78515625,19.53125,75.68359375,8.7890625
1771542168.9521875,67.3828125,27.83203125,17.08984375,75.1953125,36.1328125
1771542168.9560938,60.05859375,25.87890625,18.06640625,78.125,76.66015625
1771542168.958125,66.40625,21.97265625,18.06640625,78.61328125,59.08203125
1771542168.9620314,65.4296875,20.01953125,14.16015625,70.80078125,40.52734375
1771542168.9659376,53.22265625,18.5546875,13.671875,63.4765625,7.32421875
1771542168.9698439,48.33984375,19.53125,13.671875,70.3125,29.296875
1771542168.97375,56.640625,25.390625,14.16015625,72.75390625,99.609375
1771542168.9776564,65.4296875,31.25,12.6953125,67.3828125,57.12890625
1771542168.9815626,65.91796875,26.3671875,11.71875,64.453125,-0.48828125
1771542168.9854689,52.24609375,26.85546875,13.18359375,65.4296875,-5.37109375
1771542168.989375,47.8515625,33.203125,13.671875,68.84765625,32.2265625
1771542168.9932814,52.734375,23.4375,13.671875,61.03515625,65.4296875
1771542168.9971876,49.8046875,19.53125,11.23046875,53.7109375,28.80859375
1771542169.0010939,42.96875,24.90234375,14.16015625,57.12890625,25.390625
1771542169.018125,34.66796875,27.34375,16.6015625,58.59375,51.7578125
1771542169.0220313,33.69140625,25.390625,17.578125,60.05859375,43.9453125
1771542169.0259376,41.9921875,29.296875,20.01953125,55.6640625,46.875
1771542169.0298438,41.9921875,31.25,16.11328125,52.24609375,25.390625
1771542169.03375,38.57421875,28.3203125,14.6484375,62.01171875,19.04296875
1771542169.0376563,47.8515625,28.80859375,16.6015625,71.2890625,81.54296875
1771542169.0415626,61.03515625,35.15625,16.6015625,63.4765625,118.65234375
1771542169.0454688,44.43359375,37.59765625,15.13671875,46.875,85.9375
1771542169.049375,26.85546875,27.34375,13.671875,44.43359375,66.89453125
1771542169.0532813,32.2265625,21.97265625,11.71875,46.875,11.23046875
1771542169.0571876,38.57421875,23.92578125,8.7890625,40.52734375,-37.109375
1771542169.0610938,42.48046875,25.390625,14.6484375,41.015625,38.57421875
1771542169.064125,31.73828125,28.3203125,15.625,47.36328125,39.0625
1771542169.0680313,31.73828125,29.296875,15.625,59.5703125,-41.015625
1771542169.0719376,47.36328125,30.76171875,17.578125,61.03515625,23.92578125
1771542169.0758438,46.38671875,32.71484375,16.11328125,48.33984375,83.0078125
1771542169.07975,32.2265625,27.34375,16.11328125,51.26953125,53.22265625
1771542169.0836563,25.87890625,23.92578125,17.578125,55.6640625,79.58984375
1771542169.0875626,33.69140625,24.4140625,16.11328125,54.6875,71.2890625
1771542169.0914688,39.55078125,23.92578125,13.671875,45.8984375,28.80859375
1771542169.095375,36.1328125,30.76171875,15.625,45.41015625,11.71875
1771542169.0992813,26.3671875,24.90234375,18.06640625,62.01171875,21.97265625
1771542169.1031876,37.59765625,21.97265625,16.6015625,69.82421875,52.734375
1771542169.1070938,39.55078125,33.203125,18.5546875,46.875,30.76171875
1771542169.108125,5.859375,27.34375,22.4609375,18.06640625,11.71875
1771542169.1120312,-8.7890625,29.296875,20.99609375,17.08984375,20.5078125
1771542169.1159375,-2.9296875,37.59765625,24.4140625,15.13671875,3.41796875
1771542169.1198437,-14.6484375,35.64453125,25.87890625,-7.32421875,34.1796875
1771542169.12375,-18.06640625,31.25,20.99609375,-15.625,78.61328125
1771542169.1276562,-17.578125,38.0859375,20.5078125,-7.32421875,52.734375
1771542169.1315625,-35.15625,44.921875,22.4609375,-23.4375,74.70703125
1771542169.1354687,-43.45703125,43.45703125,19.53125,-36.1328125,63.4765625
1771542169.139375,-50.29296875,48.33984375,20.5078125,-37.59765625,40.52734375
1771542169.1432812,-56.15234375,46.38671875,20.01953125,-37.109375,53.22265625
1771542169.1471875,-55.17578125,41.50390625,16.6015625,-27.34375,70.3125
1771542169.1510937,-41.015625,39.0625,17.08984375,-20.99609375,85.9375
1771542169.168125,-35.15625,38.0859375,18.5546875,-20.01953125,82.03125
1771542169.1720312,-35.64453125,38.57421875,24.4140625,-10.25390625,-6.34765625
1771542169.1759374,-38.0859375,40.52734375,23.4375,-1.953125,0.0
1771542169.1798437,-34.1796875,36.1328125,19.04296875,-4.39453125,88.37890625
1771542169.18375,-21.97265625,28.80859375,20.01953125,-2.9296875,64.94140625
1771542169.1876562,-14.16015625,30.76171875,23.4375,2.9296875,24.4140625
1771542169.1915624,-16.6015625,32.2265625,26.3671875,8.30078125,10.25390625
1771542169.1954687,-10.7421875,33.69140625,20.99609375,20.5078125,23.4375
1771542169.199375,7.8125,32.2265625,17.578125,23.92578125,44.43359375
1771542169.2032812,20.01953125,29.78515625,21.484375,18.5546875,0.48828125
1771542169.2071874,9.27734375,42.96875,25.87890625,23.4375,15.625
1771542169.2110937,2.9296875,43.9453125,22.94921875,35.64453125,35.64453125
1771542169.198125,21.97265625,40.52734375,21.484375,38.0859375,-59.08203125
1771542169.2020311,23.92578125,38.57421875,21.97265625,26.3671875,-31.73828125
1771542169.2059374,5.859375,31.25,20.5078125,22.4609375,29.78515625
1771542169.2098436,-3.90625,31.73828125,21.97265625,28.3203125,6.34765625
1771542169.21375,0.0,31.73828125,19.53125,19.04296875,48.828125
1771542169.2176561,5.37109375,28.80859375,16.11328125,11.23046875,98.6328125
1771542169.2215624,3.41796875,34.1796875,14.16015625,12.20703125,86.42578125
1771542169.2254686,1.46484375,32.71484375,17.578125,20.99609375,40.0390625
1771542169.229375,7.8125,30.76171875,17.08984375,31.73828125,43.45703125
1771542169.2332811,18.5546875,32.2265625,16.11328125,21.97265625,35.64453125
1771542169.2371874,11.23046875,34.66796875,20.99609375,19.04296875,24.90234375
1771542169.2410936,0.9765625,38.57421875,21.97265625,26.85546875,61.03515625
1771542169.243125,2.9296875,30.76171875,20.99609375,31.25,51.26953125
1771542169.2470312,6.8359375,28.3203125,23.92578125,35.64453125,45.8984375
1771542169.2509375,4.39453125,30.76171875,24.4140625,35.15625,-11.23046875
1771542169.2548437,-9.27734375,27.34375,22.94921875,34.1796875,-14.6484375
1771542169.25875,-14.16015625,28.80859375,24.90234375,32.71484375,14.16015625
1771542169.2626562,0.9765625,31.73828125,23.92578125,26.85546875,-13.671875
1771542169.2665625,8.30078125,29.296875,22.94921875,17.578125,0.48828125
1771542169.2704687,1.953125,27.83203125,25.87890625,17.578125,38.0859375
1771542169.274375,-5.859375,29.78515625,28.3203125,23.4375,27.83203125
1771542169.2782812,-0.48828125,35.15625,27.34375,26.85546875,23.92578125
1771542169.2821875,5.37109375,33.69140625,28.80859375,30.2734375,38.0859375
1771542169.2860937,0.9765625,32.2265625,28.80859375,29.78515625,28.80859375
1771542169.288125,-7.8125,33.203125,22.4609375,26.3671875,-2.9296875
1771542169.2920313,3.41796875,33.69140625,21.484375,28.3203125,-5.859375
1771542169.2959375,23.4375,35.15625,22.4609375,21.97265625,58.59375
1771542169.2998438,11.23046875,28.80859375,19.53125,16.6015625,48.828125
1771542169.30375,-2.44140625,30.2734375,20.01953125,24.90234375,38.0859375
1771542169.3076563,11.71875,32.2265625,23.4375,29.296875,49.31640625
1771542169.3115625,21.484375,27.83203125,21.484375,24.90234375,11.23046875
1771542169.3154688,11.23046875,25.390625,21.97265625,16.6015625,-13.671875
1771542169.319375,1.46484375,33.69140625,24.90234375,17.578125,-1.46484375
1771542169.3232813,0.48828125,35.15625,28.3203125,28.3203125,13.18359375
1771542169.3271875,15.625,36.62109375,27.34375,36.1328125,41.015625
1771542169.3310938,17.578125,33.69140625,24.90234375,26.3671875,49.8046875
1771542169.335125,4.39453125,32.2265625,23.92578125,21.484375,1.46484375
1771542169.3390312,1.953125,34.66796875,23.92578125,27.34375,31.25
1771542169.3429375,11.23046875,25.87890625,27.34375,31.25,63.96484375
1771542169.3468437,18.06640625,29.78515625,25.390625,29.78515625,39.55078125
1771542169.35075,10.25390625,34.1796875,25.390625,23.4375,-10.7421875
1771542169.3546562,-3.90625,31.25,30.76171875,30.76171875,-15.625
1771542169.3585625,4.39453125,25.87890625,28.3203125,37.59765625,70.80078125
1771542169.3624687,17.08984375,22.4609375,24.4140625,29.296875,26.3671875
1771542169.366375,16.6015625,27.34375,25.390625,27.83203125,-1.953125
1771542169.3702812,10.25390625,28.3203125,24.4140625,34.1796875,124.0234375
1771542169.3741875,10.25390625,26.85546875,20.01953125,43.45703125,91.30859375
1771542169.3780937,22.94921875,29.78515625,19.04296875,42.48046875,22.4609375
1771542169.378125,32.2265625,32.71484375,21.97265625,35.64453125,63.96484375
1771542169.3820312,23.4375,29.296875,22.4609375,40.52734375,12.6953125
1771542169.3859375,7.8125,32.71484375,22.4609375,40.52734375,5.859375
1771542169.3898437,14.6484375,40.0390625,25.390625,36.62109375,72.265625
1771542169.39375,23.92578125,30.2734375,26.85546875,28.3203125,24.4140625
1771542169.3976562,15.625,23.92578125,22.4609375,27.34375,27.34375
1771542169.4015625,4.8828125,23.92578125,19.53125,25.87890625,76.66015625
1771542169.4054687,9.765625,27.34375,18.06640625,25.390625,63.4765625
1771542169.409375,19.53125,30.76171875,19.04296875,30.2734375,93.26171875
1771542169.4132812,18.06640625,26.85546875,24.4140625,28.80859375,115.234375
1771542169.4171875,12.6953125,31.25,26.3671875,35.64453125,46.875
1771542169.4210937,20.99609375,39.55078125,30.2734375,46.38671875,3.41796875
1771542169.437125,30.76171875,33.203125,29.78515625,45.41015625,-1.953125
1771542169.4410312,26.85546875,26.85546875,24.4140625,39.55078125,4.8828125
1771542169.4449375,19.53125,31.73828125,25.87890625,43.45703125,-22.94921875
1771542169.4488437,18.06640625,37.59765625,29.78515625,47.36328125,10.25390625
1771542169.45275,21.97265625,32.71484375,25.390625,44.43359375,55.6640625
1771542169.4566562,27.34375,22.94921875,23.92578125,40.52734375,12.6953125
1771542169.4605625,9.765625,29.78515625,24.90234375,34.1796875,38.57421875
1771542169.4644687,1.46484375,42.48046875,24.90234375,39.0625,71.77734375
1771542169.468375,21.484375,38.57421875,26.85546875,45.8984375,73.2421875
1771542169.4722812,27.34375,34.66796875,25.87890625,36.1328125,85.9375
1771542169.4761875,20.99609375,37.109375,25.87890625,32.71484375,62.5
1771542169.4800937,8.7890625,30.2734375,25.87890625,34.1796875,64.94140625
1771542169.483125,10.25390625,28.3203125,24.90234375,34.66796875,18.5546875
1771542169.4870312,26.3671875,29.78515625,27.83203125,38.0859375,-24.90234375
1771542169.4909375,24.4140625,31.25,26.85546875,38.57421875,38.57421875
1771542169.4948437,10.7421875,34.66796875,27.34375,41.50390625,13.671875
1771542169.49875,11.71875,42.48046875,29.296875,44.43359375,17.08984375
1771542169.5026562,23.92578125,35.15625,27.34375,44.43359375,16.11328125
1771542169.5065625,29.78515625,31.73828125,29.296875,39.0625,20.99609375
1771542169.5104687,25.87890625,38.57421875,27.83203125,34.1796875,36.1328125
1771542169.514375,20.01953125,27.83203125,26.3671875,35.15625,14.16015625
1771542169.5182812,35.64453125,23.92578125,26.3671875,38.57421875,47.36328125
1771542169.5221875,39.55078125,33.203125,26.3671875,35.15625,-6.34765625
1771542169.5260937,33.203125,35.64453125,26.3671875,30.2734375,-2.9296875
1771542169.528125,26.85546875,34.1796875,24.4140625,36.62109375,60.05859375
1771542169.5320313,26.85546875,35.15625,24.4140625,42.48046875,66.40625
1771542169.5359375,31.73828125,32.2265625,24.90234375,32.2265625,28.3203125
1771542169.5398438,23.92578125,30.76171875,27.83203125,22.94921875,15.13671875
1771542169.54375,17.08984375,35.64453125,30.2734375,31.73828125,36.62109375
1771542169.5476563,11.71875,28.80859375,28.80859375,34.66796875,58.10546875
1771542169.5515625,13.18359375,19.53125,24.4140625,25.390625,81.54296875
1771542169.5554688,12.6953125,22.94921875,21.97265625,21.484375,40.52734375
1771542169.559375,4.39453125,22.4609375,22.4609375,29.78515625,29.78515625
1771542169.5632813,10.7421875,22.94921875,27.83203125,40.0390625,18.5546875
1771542169.5671875,23.92578125,33.203125,34.1796875,36.62109375,25.390625
1771542169.5710938,32.71484375,31.25,28.3203125,20.99609375,102.5390625
1771542169.574125,21.97265625,29.296875,26.3671875,22.4609375,88.37890625
1771542169.5780313,9.765625,42.96875,29.78515625,26.85546875,46.875
1771542169.5819376,14.16015625,45.41015625,25.390625,23.4375,-9.765625
1771542169.5858438,22.4609375,32.71484375,24.4140625,18.06640625,12.6953125
1771542169.58975,20.5078125,24.4140625,26.85546875,16.11328125,80.078125
1771542169.5936563,12.6953125,24.4140625,28.80859375,26.85546875,82.51953125
1771542169.5975626,18.5546875,30.76171875,27.34375,28.80859375,47.36328125
1771542169.6014688,28.3203125,32.71484375,24.90234375,24.90234375,56.640625
1771542169.605375,31.25,22.4609375,25.87890625,22.94921875,94.7265625
1771542169.6092813,17.578125,29.78515625,24.90234375,22.4609375,61.5234375
1771542169.6131876,18.5546875,39.0625,27.34375,34.1796875,21.97265625
1771542169.6170938,39.0625,26.3671875,28.80859375,43.9453125,-1.46484375
1771542169.618125,59.5703125,29.78515625,27.34375,46.875,23.92578125
1771542169.6220312,51.26953125,44.921875,18.5546875,42.96875,62.5
1771542169.6259375,29.296875,42.96875,15.13671875,31.25,75.68359375
1771542169.6298437,27.83203125,38.57421875,20.5078125,30.2734375,98.14453125
1771542169.63375,27.34375,38.57421875,20.99609375,29.78515625,39.55078125
1771542169.6376562,14.6484375,39.55078125,19.04296875,22.4609375,18.06640625
1771542169.6415625,16.6015625,41.015625,19.53125,26.3671875,62.5
1771542169.6454687,34.1796875,34.1796875,18.06640625,31.25,54.19921875
1771542169.649375,45.41015625,35.15625,19.04296875,32.2265625,24.4140625
1771542169.6532812,36.62109375,44.43359375,24.90234375,31.25,7.32421875
1771542169.6571875,16.11328125,36.62109375,19.53125,34.66796875,-70.3125
1771542169.6610937,18.5546875,30.2734375,17.08984375,38.57421875,-64.453125
1771542169.664125,34.66796875,34.66796875,19.53125,27.83203125,-10.7421875
1771542169.6680312,35.15625,32.2265625,18.06640625,21.484375,25.87890625
1771542169.6719375,19.53125,28.80859375,16.6015625,26.85546875,8.7890625
1771542169.6758437,21.97265625,30.76171875,20.99609375,34.1796875,-0.9765625
1771542169.67975,34.1796875,35.64453125,22.4609375,33.69140625,23.92578125
1771542169.6836562,32.2265625,31.73828125,20.5078125,29.296875,39.55078125
1771542169.6875625,27.34375,33.203125,21.97265625,28.80859375,68.84765625
1771542169.6914687,26.3671875,33.203125,20.99609375,27.83203125,43.9453125
1771542169.695375,41.50390625,35.15625,23.4375,29.296875,50.29296875
1771542169.6992812,50.29296875,37.109375,23.92578125,26.3671875,33.69140625
1771542169.7031875,28.80859375,34.66796875,21.484375,21.484375,21.484375
1771542169.7070937,20.01953125,37.59765625,21.97265625,26.85546875,27.83203125
1771542169.708125,39.55078125,34.66796875,24.90234375,33.203125,43.45703125
1771542169.7120314,46.38671875,33.203125,25.390625,34.1796875,34.66796875
1771542169.7159376,43.9453125,34.66796875,22.94921875,32.71484375,20.5078125
1771542169.7198439,41.9921875,30.2734375,22.94921875,39.55078125,17.578125
1771542169.72375,49.31640625,34.1796875,23.92578125,44.921875,61.03515625
1771542169.7276564,54.6875,38.57421875,26.85546875,42.96875,78.61328125
1771542169.7315626,38.57421875,30.2734375,24.4140625,32.71484375,36.1328125
1771542169.7354689,24.4140625,23.92578125,28.3203125,37.109375,14.16015625
1771542169.739375,25.87890625,25.87890625,30.76171875,38.57421875,25.87890625
1771542169.7432814,37.59765625,27.83203125,28.3203125,30.2734375,31.25
1771542169.7471876,50.29296875,29.296875,30.76171875,33.69140625,-11.71875
1771542169.7510939,35.64453125,31.25,30.76171875,28.80859375,41.50390625
1771542169.753125,32.71484375,30.2734375,31.25,34.66796875,84.47265625
1771542169.7570312,44.921875,27.34375,30.76171875,41.50390625,83.49609375
1771542169.7609375,50.78125,28.3203125,28.3203125,35.64453125,67.87109375
1771542169.7648437,46.875,33.203125,25.87890625,34.66796875,16.6015625
1771542169.76875,41.50390625,38.0859375,31.73828125,43.45703125,3.41796875
1771542169.7726562,49.31640625,30.2734375,30.2734375,47.8515625,49.8046875
1771542169.7765625,63.4765625,27.83203125,24.90234375,32.2265625,65.4296875
1771542169.7804687,57.12890625,37.59765625,24.90234375,27.34375,26.85546875
1771542169.784375,41.9921875,36.1328125,24.90234375,39.55078125,3.90625
1771542169.7882812,38.0859375,30.76171875,26.85546875,44.43359375,52.24609375
1771542169.7921875,45.8984375,35.15625,25.390625,41.50390625,38.57421875
1771542169.7960937,42.48046875,38.0859375,23.92578125,26.3671875,-28.3203125
1771542169.813125,28.3203125,38.57421875,23.4375,29.78515625,-6.34765625
1771542169.8170311,33.203125,42.96875,23.92578125,38.57421875,-1.953125
1771542169.8209374,48.828125,35.64453125,22.94921875,34.1796875,19.04296875
1771542169.8248436,50.29296875,37.109375,21.484375,31.25,47.8515625
1771542169.82875,31.25,46.38671875,21.97265625,26.3671875,51.7578125
1771542169.8326561,27.34375,33.203125,22.94921875,28.80859375,51.7578125
1771542169.8365624,40.0390625,27.34375,22.94921875,25.390625,38.0859375
1771542169.8404686,36.62109375,33.203125,26.3671875,20.01953125,36.1328125
1771542169.844375,18.06640625,32.71484375,31.25,20.01953125,42.96875
1771542169.8482811,12.6953125,28.80859375,33.203125,27.83203125,71.77734375
1771542169.8521874,26.85546875,27.34375,33.203125,35.64453125,0.48828125
1771542169.8560936,27.83203125,29.78515625,31.25,25.390625,-29.296875
1771542169.858125,31.25,35.15625,29.296875,22.4609375,37.109375
1771542169.8620312,34.66796875,41.015625,29.296875,33.203125,49.31640625
1771542169.8659375,38.57421875,41.9921875,30.2734375,38.0859375,42.96875
1771542169.8698437,49.31640625,31.25,28.80859375,32.2265625,23.4375
1771542169.87375,42.48046875,23.4375,27.34375,28.3203125,19.04296875
1771542169.8776562,29.78515625,26.85546875,26.3671875,30.76171875,44.921875
1771542169.8815625,28.3203125,27.83203125,27.83203125,31.25,33.203125
1771542169.8854687,35.15625,24.4140625,24.90234375,30.2734375,6.34765625
1771542169.889375,40.0390625,19.53125,21.97265625,26.85546875,14.6484375
1771542169.8932812,35.64453125,18.06640625,26.3671875,34.1796875,7.32421875
1771542169.8971875,41.50390625,31.25,28.3203125,38.0859375,-44.921875
1771542169.9010937,49.31640625,41.50390625,31.25,39.0625,-19.04296875
1771542169.903125,46.38671875,33.69140625,31.25,36.1328125,23.4375
1771542169.9070313,33.69140625,22.4609375,33.203125,31.73828125,31.73828125
1771542169.9109375,23.92578125,24.4140625,35.15625,50.78125,60.546875
1771542169.9148438,36.1328125,39.0625,33.203125,55.6640625,43.45703125
1771542169.91875,34.66796875,38.57421875,30.2734375,30.2734375,17.578125
1771542169.9226563,28.3203125,29.296875,25.390625,20.01953125,25.87890625
1771542169.9265625,22.4609375,30.76171875,26.85546875,28.80859375,60.546875
1771542169.9304688,30.76171875,30.76171875,30.2734375,35.64453125,50.78125
1771542169.934375,45.41015625,26.85546875,27.34375,33.203125,36.62109375
1771542169.9382813,33.69140625,24.90234375,26.85546875,23.4375,14.16015625
1771542169.9421875,20.99609375,32.2265625,29.296875,22.4609375,22.94921875
1771542169.9460938,16.11328125,34.1796875,25.390625,27.83203125,82.03125
1771542169.963125,19.04296875,28.3203125,23.92578125,25.390625,66.89453125
1771542169.9670312,28.3203125,26.85546875,27.34375,20.01953125,45.8984375
1771542169.9709375,23.4375,32.71484375,28.80859375,23.92578125,37.59765625
1771542169.9748437,19.53125,29.296875,28.3203125,28.3203125,17.578125
1771542169.97875,30.76171875,21.484375,27.34375,26.3671875,38.0859375
1771542169.9826562,41.50390625,27.83203125,26.3671875,24.4140625,32.71484375
1771542169.9865625,44.921875,34.66796875,25.87890625,27.83203125,11.23046875
1771542169.9904687,31.73828125,31.73828125,28.80859375,34.1796875,15.13671875
1771542169.994375,30.76171875,33.69140625,29.78515625,36.62109375,18.5546875
1771542169.9982812,36.1328125,36.62109375,32.71484375,30.2734375,55.17578125
1771542170.0021875,44.921875,31.25,31.73828125,26.3671875,79.58984375
1771542170.0060937,30.76171875,30.2734375,26.3671875,31.73828125,34.66796875
1771542169.993125,20.99609375,32.71484375,29.78515625,34.66796875,-21.484375
1771542169.9970312,40.0390625,33.203125,28.3203125,29.78515625,-9.27734375
1771542170.0009375,33.203125,33.69140625,24.90234375,21.484375,32.71484375
1771542170.0048437,16.11328125,36.62109375,22.4609375,15.13671875,32.2265625
1771542170.00875,10.7421875,31.73828125,20.01953125,20.01953125,-28.80859375
1771542170.0126562,16.6015625,29.296875,25.390625,28.3203125,2.9296875
1771542170.0165625,20.01953125,28.80859375,23.92578125,25.87890625,24.4140625
1771542170.0204687,9.27734375,23.92578125,19.04296875,24.4140625,-10.25390625
1771542170.024375,8.30078125,29.296875,22.94921875,28.3203125,34.1796875
1771542170.0282812,27.83203125,36.1328125,24.4140625,27.83203125,81.0546875
1771542170.0321875,33.69140625,33.69140625,22.4609375,21.97265625,34.66796875
1771542170.0360937,28.80859375,26.85546875,23.92578125,20.01953125,-14.16015625
1771542170.038125,26.3671875,28.80859375,26.3671875,25.390625,-7.32421875
1771542170.0420313,33.203125,37.59765625,26.85546875,33.69140625,16.11328125
1771542170.0459375,41.50390625,38.0859375,24.90234375,35.64453125,17.08984375
1771542170.0498438,40.0390625,33.203125,25.87890625,34.1796875,46.875
1771542170.05375,23.4375,33.69140625,29.296875,31.73828125,35.15625
1771542170.0576563,16.11328125,32.2265625,25.87890625,34.66796875,37.109375
1771542170.0615625,30.2734375,28.80859375,24.90234375,35.15625,62.5
1771542170.0654688,36.1328125,25.390625,25.390625,24.4140625,82.51953125
1771542170.069375,22.94921875,29.296875,29.78515625,21.484375,48.33984375
1771542170.0732813,19.04296875,35.64453125,33.203125,30.2734375,22.94921875
1771542170.0771875,33.69140625,34.66796875,30.76171875,28.80859375,57.6171875
1771542170.0810938,37.109375,34.66796875,32.2265625,24.90234375,103.515625
1771542170.084125,36.62109375,38.57421875,34.66796875,38.57421875,83.49609375
1771542170.0880313,29.78515625,42.48046875,32.2265625,44.921875,13.18359375
1771542170.0919375,42.96875,40.52734375,28.80859375,41.9921875,13.671875
1771542170.0958438,51.26953125,34.1796875,24.4140625,33.203125,-21.97265625
1771542170.09975,31.25,34.1796875,22.4609375,23.4375,6.8359375
1771542170.1036563,23.4375,40.52734375,23.4375,33.203125,102.05078125
1771542170.1075625,29.296875,31.25,18.06640625,37.109375,42.96875
1771542170.1114688,31.25,27.34375,19.04296875,23.92578125,-13.671875
1771542170.115375,26.85546875,38.0859375,21.484375,15.13671875,-16.11328125
1771542170.1192813,11.71875,41.9921875,23.4375,23.92578125,30.2734375
1771542170.1231875,16.6015625,38.0859375,24.90234375,37.109375,75.68359375
1771542170.1270938,26.85546875,35.15625,23.92578125,32.71484375,46.38671875
1771542170.128125,23.4375,37.109375,25.390625,26.3671875,29.296875
1771542170.1320312,13.671875,36.62109375,25.87890625,28.80859375,6.8359375
1771542170.1359375,4.8828125,19.53125,30.2734375,37.59765625,78.61328125
1771542170.1398437,31.25,7.32421875,33.69140625,56.640625,44.921875
1771542170.14375,49.31640625,27.34375,27.34375,57.6171875,-20.01953125
1771542170.1476562,22.4609375,41.015625,20.5078125,21.97265625,47.36328125
1771542170.1515625,-3.41796875,37.109375,20.01953125,3.90625,68.359375
1771542170.1554687,-0.48828125,45.8984375,20.99609375,4.39453125,57.6171875
1771542170.159375,4.8828125,47.8515625,17.08984375,-3.41796875,63.4765625
1771542170.1632812,8.30078125,41.9921875,16.11328125,-2.44140625,48.33984375
1771542170.1671875,-7.32421875,52.24609375,12.6953125,-14.6484375,62.5
1771542170.1710937,-9.27734375,54.19921875,8.7890625,-19.04296875,71.2890625
1771542170.174125,2.9296875,43.9453125,13.18359375,-16.11328125,41.015625
1771542170.1780312,1.46484375,43.45703125,15.625,-22.94921875,30.76171875
1771542170.1819375,-1.46484375,46.38671875,17.578125,-13.18359375,83.0078125
1771542170.1858437,4.39453125,50.29296875,19.53125,4.8828125,88.37890625
1771542170.18975,21.97265625,47.8515625,17.578125,10.7421875,23.4375
1771542170.1936562,32.71484375,37.59765625,15.625,6.34765625,-2.9296875
1771542170.1975625,18.5546875,41.50390625,17.08984375,6.34765625,13.671875
1771542170.2014687,7.32421875,47.8515625,20.01953125,15.13671875,77.63671875
1771542170.205375,19.04296875,44.43359375,17.578125,16.6015625,113.28125
1771542170.2092812,23.4375,41.015625,15.625,7.32421875,78.125
1771542170.2131875,19.53125,46.38671875,18.5546875,7.8125,35.15625
1771542170.2170937,14.6484375,51.26953125,21.484375,20.01953125,59.08203125
1771542170.233125,15.13671875,40.52734375,19.53125,24.4140625,80.078125
1771542170.2370312,23.4375,28.80859375,17.578125,20.01953125,30.2734375
1771542170.2409375,23.4375,34.1796875,18.5546875,11.71875,34.1796875
1771542170.2448437,12.6953125,34.1796875,19.53125,15.625,74.21875
1771542170.24875,18.5546875,31.25,22.4609375,21.97265625,61.03515625
1771542170.2526562,34.66796875,37.59765625,18.06640625,16.6015625,-17.08984375
1771542170.2565625,30.76171875,40.0390625,18.5546875,10.7421875,-2.44140625
1771542170.2604687,27.83203125,50.78125,23.4375,18.5546875,9.27734375
1771542170.264375,30.2734375,50.29296875,22.94921875,32.2265625,-56.640625
1771542170.2682812,35.15625,34.66796875,22.4609375,34.1796875,-7.8125
1771542170.2721875,43.45703125,34.1796875,19.04296875,26.85546875,7.8125
1771542170.2760937,39.0625,38.57421875,18.06640625,28.3203125,-17.578125
1771542170.278125,33.203125,37.59765625,20.01953125,43.45703125,17.08984375
1771542170.2820313,41.015625,37.59765625,18.06640625,42.48046875,44.43359375
1771542170.2859375,49.8046875,40.52734375,19.04296875,27.34375,39.55078125
1771542170.2898438,41.50390625,38.57421875,21.484375,26.85546875,56.640625
1771542170.29375,31.73828125,35.64453125,21.97265625,30.76171875,79.58984375
1771542170.2976563,44.921875,36.1328125,20.5078125,31.25,78.61328125
1771542170.3015625,48.33984375,38.57421875,19.04296875,30.76171875,65.91796875
1771542170.3054688,41.015625,41.9921875,23.92578125,33.203125,51.26953125
1771542170.309375,32.71484375,31.25,22.4609375,40.0390625,10.25390625
1771542170.3132813,32.2265625,27.83203125,22.4609375,37.109375,-3.41796875
1771542170.3171875,40.0390625,32.71484375,27.83203125,34.66796875,11.71875
1771542170.3210938,48.33984375,30.76171875,29.296875,39.55078125,66.40625
1771542170.324125,41.50390625,37.109375,25.87890625,41.9921875,39.55078125
1771542170.3280313,32.2265625,39.0625,25.390625,44.921875,8.7890625
1771542170.3319376,43.45703125,32.2265625,30.2734375,47.8515625,-4.8828125
1771542170.3358438,52.24609375,32.2265625,26.3671875,42.48046875,-21.97265625
1771542170.33975,43.9453125,38.0859375,21.97265625,40.52734375,9.765625
1771542170.3436563,35.15625,41.9921875,27.83203125,46.875,-3.90625
1771542170.3475626,44.43359375,33.203125,27.83203125,43.9453125,36.62109375
1771542170.3514688,57.12890625,29.296875,21.97265625,35.15625,62.01171875
1771542170.355375,54.19921875,41.9921875,26.3671875,30.76171875,45.8984375
1771542170.3592813,42.48046875,46.875,29.296875,35.64453125,68.359375
1771542170.3631876,43.9453125,41.50390625,27.34375,36.62109375,101.5625
1771542170.3670938,52.734375,36.1328125,25.87890625,26.85546875,89.84375
1771542170.368125,49.31640625,33.69140625,24.90234375,23.4375,18.06640625
1771542170.3720312,33.203125,40.0390625,25.87890625,26.3671875,41.015625
1771542170.3759375,38.0859375,41.50390625,23.92578125,28.80859375,70.3125
1771542170.3798437,46.875,39.0625,22.4609375,24.4140625,34.66796875
1771542170.38375,40.52734375,35.64453125,21.97265625,19.53125,-17.578125
1771542170.3876562,41.50390625,41.015625,23.92578125,29.296875,22.4609375
1771542170.3915625,44.43359375,42.96875,27.34375,38.0859375,20.99609375
1771542170.3954687,55.6640625,31.25,22.4609375,37.109375,-23.92578125
1771542170.399375,51.7578125,25.390625,21.97265625,26.85546875,30.2734375
1771542170.4032812,33.203125,28.80859375,20.99609375,20.99609375,27.83203125
1771542170.4071875,30.2734375,30.2734375,23.92578125,32.2265625,14.16015625
1771542170.4110937,43.9453125,26.3671875,25.87890625,41.9921875,20.01953125
1771542170.413125,54.6875,26.85546875,21.97265625,32.2265625,39.0625
1771542170.4170313,49.8046875,29.296875,21.97265625,24.90234375,12.6953125
1771542170.4209375,45.41015625,35.15625,23.4375,36.1328125,6.8359375
1771542170.4248438,49.8046875,37.59765625,25.87890625,42.96875,31.25
1771542170.42875,49.31640625,34.1796875,26.85546875,35.64453125,24.90234375
1771542170.4326563,43.9453125,30.76171875,22.4609375,22.4609375,-19.53125
1771542170.4365625,37.59765625,26.3671875,20.99609375,27.34375,20.99609375
1771542170.4404688,37.109375,26.85546875,22.4609375,39.55078125,40.0390625
1771542170.444375,44.921875,33.69140625,24.4140625,36.62109375,45.41015625
1771542170.4482813,45.41015625,31.25,26.3671875,34.66796875,68.84765625
1771542170.4521875,42.48046875,25.87890625,23.92578125,28.80859375,37.109375
1771542170.4560938,39.55078125,32.2265625,24.90234375,31.73828125,44.43359375
1771542170.458125,42.96875,43.9453125,28.3203125,37.109375,33.69140625
1771542170.4620314,54.6875,42.48046875,24.4140625,26.3671875,9.765625
1771542170.4659376,45.41015625,33.69140625,19.04296875,25.390625,11.23046875
1771542170.4698439,33.69140625,35.64453125,19.53125,30.2734375,20.99609375
1771542170.47375,47.36328125,43.9453125,21.97265625,35.15625,43.9453125
1771542170.4776564,76.171875,37.109375,18.5546875,50.29296875,49.31640625
1771542170.4815626,71.2890625,27.34375,21.484375,50.29296875,50.29296875
1771542170.4854689,35.15625,34.66796875,26.3671875,29.78515625,66.40625
1771542170.489375,31.25,30.76171875,30.76171875,30.2734375,43.45703125
1771542170.4932814,49.31640625,26.3671875,39.55078125,41.015625,46.38671875
1771542170.4971876,47.8515625,27.83203125,41.9921875,43.45703125,79.1015625
1771542170.5010939,34.1796875,24.90234375,38.57421875,41.015625,69.3359375
1771542170.504125,29.296875,25.87890625,39.55078125,39.0625,41.9921875
1771542170.5080314,35.64453125,22.4609375,41.9921875,38.57421875,31.73828125
1771542170.5119376,41.015625,12.6953125,41.9921875,38.0859375,25.390625
1771542170.5158439,40.0390625,17.08984375,43.45703125,41.015625,45.8984375
1771542170.51975,42.48046875,26.3671875,41.9921875,51.7578125,69.82421875
1771542170.5236564,48.33984375,20.99609375,35.64453125,51.26953125,54.6875
1771542170.5275626,53.7109375,12.6953125,36.62109375,39.55078125,18.5546875
1771542170.5314689,52.734375,19.53125,41.015625,46.875,37.109375
1771542170.535375,44.921875,26.3671875,37.109375,56.15234375,76.66015625
1771542170.5392814,50.78125,23.92578125,36.62109375,54.6875,69.3359375
1771542170.5431876,61.03515625,24.4140625,35.64453125,43.45703125,49.8046875
1771542170.5470939,56.15234375,30.2734375,32.71484375,33.203125,44.921875
1771542170.563125,33.203125,32.71484375,35.15625,34.1796875,46.38671875
1771542170.5670311,29.296875,27.83203125,32.2265625,36.1328125,25.390625
1771542170.5709374,46.875,23.92578125,28.3203125,33.203125,2.44140625
1771542170.5748436,56.640625,22.94921875,24.90234375,35.15625,-18.5546875
1771542170.57875,60.05859375,26.3671875,25.87890625,46.38671875,49.31640625
1771542170.5826561,58.10546875,25.87890625,29.78515625,47.8515625,89.84375
1771542170.5865624,58.59375,24.90234375,29.296875,43.45703125,0.48828125
1771542170.5904686,59.5703125,31.25,30.2734375,31.73828125,0.9765625
1771542170.594375,52.734375,34.66796875,34.1796875,32.2265625,48.33984375
1771542170.5982811,37.59765625,34.66796875,31.25,42.48046875,41.50390625
1771542170.6021874,41.50390625,28.80859375,25.390625,37.59765625,-6.34765625
1771542170.6060936,54.19921875,23.4375,22.94921875,25.87890625,20.01953125
1771542170.608125,50.78125,23.92578125,23.92578125,26.3671875,87.40234375
1771542170.6120312,45.8984375,21.97265625,23.4375,36.62109375,35.64453125
1771542170.6159375,51.7578125,25.87890625,22.94921875,38.0859375,11.23046875
1771542170.6198437,58.10546875,31.73828125,23.4375,33.203125,21.97265625
1771542170.62375,68.359375,30.2734375,26.3671875,41.015625,15.13671875
1771542170.6276562,64.453125,30.76171875,30.76171875,53.22265625,37.109375
1771542170.6315625,46.875,26.3671875,27.83203125,48.828125,40.0390625
1771542170.6354687,53.22265625,25.390625,26.3671875,44.43359375,37.109375
1771542170.639375,66.89453125,28.80859375,29.78515625,40.52734375,-11.71875
1771542170.6432812,52.24609375,20.99609375,26.85546875,39.0625,12.20703125
1771542170.6471875,36.62109375,20.5078125,30.76171875,36.1328125,38.57421875
1771542170.6510937,50.78125,29.296875,29.296875,36.62109375,-0.48828125
1771542170.653125,48.828125,27.34375,26.85546875,29.296875,39.55078125
1771542170.6570313,35.15625,27.83203125,28.80859375,29.78515625,83.49609375
1771542170.6609375,37.59765625,33.69140625,29.296875,39.0625,63.96484375
1771542170.6648438,42.48046875,29.78515625,26.85546875,36.62109375,69.3359375
1771542170.66875,45.8984375,22.4609375,25.87890625,33.69140625,66.89453125
1771542170.6726563,43.45703125,22.4609375,27.34375,38.57421875,28.80859375
1771542170.6765625,38.57421875,32.71484375,26.3671875,35.15625,27.34375
1771542170.6804688,48.828125,33.69140625,27.34375,34.66796875,92.28515625
1771542170.684375,52.734375,24.4140625,23.4375,32.2265625,121.58203125
1771542170.6882813,49.8046875,30.76171875,22.94921875,20.5078125,53.22265625
1771542170.6921875,48.33984375,41.50390625,26.3671875,27.34375,20.5078125
1771542170.6960938,45.41015625,36.1328125,24.4140625,40.0390625,-0.9765625
1771542170.698125,47.36328125,32.2265625,23.92578125,33.69140625,78.125
1771542170.7020311,46.875,26.3671875,24.90234375,24.4140625,87.890625
1771542170.7059374,39.0625,23.92578125,20.99609375,20.5078125,-5.37109375
1771542170.7098436,36.62109375,25.390625,23.4375,24.4140625,14.6484375
1771542170.71375,49.31640625,25.87890625,28.80859375,34.66796875,61.5234375
1771542170.7176561,56.640625,27.34375,26.3671875,28.3203125,48.828125
1771542170.7215624,52.734375,30.2734375,24.4140625,26.3671875,48.33984375
1771542170.7254686,41.9921875,38.57421875,29.296875,38.0859375,76.171875
1771542170.729375,52.24609375,40.0390625,29.296875,34.66796875,77.63671875
1771542170.7332811,51.26953125,31.73828125,20.99609375,27.34375,53.22265625
1771542170.7371874,35.64453125,25.390625,17.08984375,19.53125,39.55078125
1771542170.7410936,36.1328125,23.92578125,19.04296875,24.90234375,10.25390625
1771542170.743125,34.1796875,26.85546875,21.484375,30.2734375,22.94921875
1771542170.7470312,39.55078125,29.296875,22.4609375,23.92578125,69.3359375
1771542170.7509375,45.8984375,22.94921875,26.85546875,20.99609375,58.59375
1771542170.7548437,38.0859375,26.3671875,25.390625,20.5078125,20.5078125
1771542170.75875,33.203125,31.25,17.578125,26.3671875,-8.30078125
1771542170.7626562,46.38671875,33.203125,18.06640625,31.25,-17.578125
1771542170.7665625,42.96875,43.45703125,21.97265625,22.94921875,16.6015625
1771542170.7704687,29.78515625,38.57421875,21.484375,16.11328125,58.59375
1771542170.774375,28.80859375,25.87890625,19.04296875,20.5078125,29.78515625
1771542170.7782812,32.2265625,27.83203125,22.94921875,20.01953125,51.7578125
1771542170.7821875,48.828125,27.83203125,24.90234375,16.11328125,41.50390625
1771542170.7860937,42.96875,30.76171875,24.4140625,18.5546875,-16.11328125
1771542170.788125,36.62109375,34.66796875,26.85546875,35.64453125,0.48828125
1771542170.7920313,50.29296875,33.203125,25.87890625,42.48046875,-16.11328125
1771542170.7959375,51.7578125,36.1328125,25.87890625,31.73828125,20.01953125
1771542170.7998438,46.875,36.1328125,27.34375,25.390625,51.26953125
1771542170.80375,38.57421875,34.1796875,25.390625,29.78515625,20.5078125
1771542170.8076563,37.59765625,31.25,21.97265625,29.78515625,34.66796875
1771542170.8115625,41.50390625,30.76171875,22.94921875,22.94921875,21.97265625
1771542170.8154688,36.1328125,26.85546875,24.4140625,14.16015625,-26.85546875
1771542170.819375,25.390625,29.78515625,24.90234375,10.25390625,20.01953125
1771542170.8232813,27.34375,32.71484375,24.4140625,20.5078125,81.54296875
1771542170.8271875,40.0390625,27.83203125,23.4375,21.484375,28.80859375
1771542170.8310938,41.9921875,31.25,23.4375,14.6484375,8.30078125
1771542170.833125,32.71484375,28.80859375,24.90234375,21.97265625,46.875
1771542170.8370314,26.85546875,26.85546875,23.92578125,32.2265625,41.50390625
1771542170.8409376,41.015625,30.76171875,23.92578125,37.59765625,22.94921875
1771542170.8448439,41.50390625,28.3203125,26.3671875,27.34375,36.1328125
1771542170.84875,29.296875,31.73828125,24.4140625,21.484375,35.64453125
1771542170.8526564,27.83203125,29.78515625,27.83203125,28.3203125,1.46484375
1771542170.8565626,23.4375,29.78515625,27.34375,23.4375,23.92578125
1771542170.8604689,29.78515625,32.71484375,20.99609375,6.8359375,50.29296875
1771542170.864375,29.296875,35.64453125,20.5078125,1.46484375,33.203125
1771542170.8682814,19.04296875,32.2265625,23.4375,15.13671875,64.453125
1771542170.8721876,32.2265625,23.92578125,26.3671875,30.2734375,33.69140625
1771542170.8760939,56.640625,26.85546875,25.87890625,32.71484375,23.4375
1771542170.878125,46.875,28.3203125,24.90234375,25.390625,-20.99609375
1771542170.8820312,29.296875,26.85546875,25.87890625,27.83203125,-50.78125
1771542170.8859375,34.66796875,24.90234375,23.92578125,38.57421875,-19.53125
1771542170.8898437,44.43359375,26.85546875,22.4609375,30.76171875,30.2734375
1771542170.89375,48.33984375,33.203125,24.90234375,23.92578125,29.296875
1771542170.8976562,42.48046875,37.109375,27.83203125,30.2734375,16.6015625
1771542170.9015625,28.3203125,25.390625,26.3671875,24.4140625,103.02734375
1771542170.9054687,35.64453125,22.4609375,24.4140625,23.4375,62.01171875
1771542170.909375,42.48046875,30.76171875,23.4375,19.53125,39.0625
1771542170.9132812,36.1328125,23.92578125,26.85546875,20.01953125,78.61328125
1771542170.9171875,37.59765625,19.53125,27.83203125,41.015625,47.36328125
1771542170.9210937,58.59375,30.76171875,25.390625,54.6875,48.33984375
1771542170.938125,58.10546875,39.0625,20.5078125,30.76171875,5.37109375
1771542170.9420311,20.5078125,33.203125,20.01953125,1.953125,-18.5546875
1771542170.9459374,10.7421875,36.62109375,23.4375,11.23046875,73.2421875
1771542170.9498436,16.6015625,48.828125,21.484375,10.7421875,71.77734375
1771542170.95375,18.06640625,38.57421875,20.5078125,1.953125,-9.765625
1771542170.9576561,20.01953125,29.78515625,18.5546875,6.8359375,43.45703125
1771542170.9615624,9.27734375,35.64453125,21.484375,7.8125,84.9609375
1771542170.9654686,13.18359375,37.109375,23.4375,8.30078125,47.36328125
1771542170.969375,35.64453125,35.64453125,18.06640625,13.671875,6.8359375
1771542170.9732811,43.45703125,34.1796875,16.6015625,9.27734375,8.30078125
1771542170.9771874,30.2734375,38.57421875,17.578125,2.44140625,61.03515625
1771542170.9810936,23.4375,36.62109375,18.5546875,8.30078125,31.25
1771542170.983125,30.76171875,29.296875,17.578125,16.6015625,14.16015625
1771542170.9870312,36.62109375,34.1796875,20.01953125,18.06640625,33.69140625
1771542170.9909375,27.83203125,36.1328125,20.01953125,12.6953125,57.12890625
1771542170.9948437,21.97265625,37.59765625,19.53125,20.01953125,70.80078125
1771542170.99875,37.109375,34.1796875,23.92578125,34.66796875,45.8984375
1771542171.0026562,41.015625,32.71484375,22.4609375,30.2734375,91.796875
1771542171.0065625,34.66796875,39.0625,19.04296875,24.90234375,143.06640625
1771542171.0104687,18.06640625,34.66796875,20.5078125,29.78515625,54.19921875
1771542171.014375,12.6953125,30.76171875,20.99609375,33.203125,-4.39453125
1771542171.0182812,25.87890625,27.34375,23.92578125,34.66796875,29.78515625
1771542171.0221875,21.484375,26.85546875,27.34375,21.97265625,28.80859375
1771542171.0260937,15.625,29.296875,24.4140625,20.99609375,-13.18359375
1771542171.028125,19.04296875,37.59765625,23.92578125,32.2265625,13.18359375
1771542171.0320313,26.85546875,43.9453125,22.4609375,32.71484375,49.8046875
1771542171.0359375,33.69140625,35.64453125,19.53125,25.390625,6.34765625
1771542171.0398438,33.203125,28.80859375,19.53125,25.390625,44.43359375
1771542171.04375,26.85546875,30.2734375,21.97265625,38.57421875,54.6875
1771542171.0476563,33.69140625,32.2265625,28.3203125,44.921875,5.37109375
1771542171.0515625,41.015625,35.64453125,27.83203125,37.109375,74.21875
1771542171.0554688,43.9453125,37.59765625,23.92578125,35.15625,122.0703125
1771542171.059375,36.62109375,35.64453125,26.3671875,38.0859375,73.2421875
1771542171.0632813,33.69140625,43.45703125,28.3203125,42.96875,48.33984375
1771542171.0671875,42.48046875,41.015625,27.34375,44.43359375,58.59375
1771542171.0710938,45.8984375,32.2265625,25.87890625,33.69140625,42.48046875
1771542171.073125,41.015625,36.62109375,21.97265625,31.73828125,59.08203125
1771542171.0770311,27.34375,34.66796875,21.97265625,37.59765625,30.2734375
1771542171.0809374,34.1796875,37.59765625,24.4140625,33.203125,16.6015625
1771542171.0848436,43.45703125,33.203125,24.90234375,26.85546875,31.73828125
1771542171.08875,32.71484375,30.76171875,26.3671875,29.78515625,45.8984375
1771542171.0926561,23.4375,36.1328125,29.296875,38.57421875,76.66015625
1771542171.0965624,32.71484375,31.73828125,32.71484375,46.38671875,2.9296875
1771542171.1004686,38.0859375,27.34375,30.76171875,41.015625,1.953125
1771542171.104375,27.83203125,34.1796875,29.296875,33.203125,46.875
1771542171.1082811,25.390625,36.62109375,29.296875,34.66796875,66.89453125
1771542171.1121874,36.1328125,29.78515625,29.296875,40.52734375,74.21875
1771542171.1160936,36.1328125,27.83203125,28.80859375,34.1796875,7.8125
1771542171.118125,31.73828125,28.80859375,25.87890625,29.78515625,28.80859375
1771542171.1220312,29.78515625,37.109375,25.390625,38.0859375,66.40625
1771542171.1259375,30.76171875,39.0625,25.87890625,40.52734375,55.6640625
1771542171.1298437,35.64453125,30.2734375,22.4609375,30.76171875,5.859375
1771542171.13375,43.45703125,36.1328125,21.484375,23.92578125,-22.94921875
1771542171.1376562,35.64453125,40.52734375,27.34375,24.4140625,-30.76171875
1771542171.1415625,16.11328125,35.15625,26.85546875,29.296875,3.41796875
1771542171.1454687,23.4375,29.78515625,21.97265625,26.3671875,76.66015625
1771542171.149375,34.1796875,36.1328125,21.97265625,14.16015625,51.26953125
1771542171.1532812,31.73828125,42.48046875,24.90234375,21.484375,28.3203125
1771542171.1571875,36.62109375,39.0625,23.92578125,35.64453125,47.36328125
1771542171.1610937,44.43359375,41.9921875,22.4609375,37.109375,9.27734375
1771542171.163125,43.45703125,36.62109375,23.4375,26.3671875,50.29296875
1771542171.1670313,29.296875,26.3671875,19.53125,19.04296875,109.375
1771542171.1709375,26.3671875,29.296875,20.5078125,29.78515625,-3.41796875
1771542171.1748438,37.109375,35.15625,24.4140625,33.203125,-25.390625
1771542171.17875,46.38671875,37.59765625,25.390625,26.85546875,50.29296875
1771542171.1826563,42.96875,41.50390625,21.97265625,23.92578125,68.84765625
1771542171.1865625,26.85546875,34.1796875,17.578125,21.97265625,66.40625
1771542171.1904688,35.15625,29.296875,20.99609375,29.78515625,44.921875
1771542171.194375,40.52734375,39.0625,24.90234375,37.59765625,23.92578125
1771542171.1982813,25.87890625,40.0390625,20.01953125,26.85546875,41.50390625
1771542171.2021875,21.484375,28.80859375,16.6015625,20.99609375,-17.08984375
1771542171.2060938,16.6015625,27.34375,15.13671875,20.99609375,-62.01171875
1771542171.208125,21.97265625,33.69140625,14.16015625,19.04296875,-35.64453125
1771542171.2120314,28.80859375,34.66796875,20.99609375,19.04296875,48.828125
1771542171.2159376,27.34375,30.76171875,23.4375,19.53125,37.59765625
1771542171.2198439,21.484375,29.296875,21.484375,21.97265625,-29.78515625
1771542171.22375,23.92578125,33.203125,25.390625,22.94921875,4.8828125
1771542171.2276564,35.64453125,32.71484375,24.4140625,20.01953125,25.390625
1771542171.2315626,32.2265625,37.109375,24.4140625,19.04296875,32.71484375
1771542171.2354689,11.71875,37.109375,22.4609375,18.5546875,63.4765625
1771542171.239375,9.765625,30.76171875,23.4375,20.01953125,36.62109375
1771542171.2432814,27.83203125,32.71484375,22.94921875,26.3671875,34.1796875
1771542171.2471876,29.296875,30.76171875,21.97265625,21.484375,53.7109375
1771542171.2510939,22.94921875,32.2265625,20.5078125,30.2734375,-13.671875
1771542171.253125,36.1328125,35.15625,18.06640625,44.43359375,-53.7109375
1771542171.2570312,39.0625,30.76171875,26.3671875,33.203125,19.04296875
1771542171.2609375,24.4140625,40.0390625,29.78515625,16.11328125,56.15234375
1771542171.2648437,8.30078125,41.50390625,31.73828125,11.23046875,35.64453125
1771542171.26875,3.90625,29.296875,37.109375,20.5078125,32.71484375
1771542171.2726562,6.8359375,27.34375,38.0859375,15.625,10.7421875
1771542171.2765625,4.8828125,25.390625,40.0390625,5.37109375,-19.04296875
1771542171.2804687,-5.37109375,19.53125,47.36328125,7.8125,29.296875
1771542171.284375,-9.765625,24.4140625,48.33984375,14.6484375,29.78515625
1771542171.2882812,-1.46484375,29.296875,41.015625,18.5546875,46.875
1771542171.2921875,0.9765625,23.4375,40.0390625,18.06640625,69.82421875
1771542171.2960937,-2.9296875,22.4609375,42.96875,14.16015625,20.01953125
1771542171.299125,-8.7890625,28.3203125,41.015625,15.625,47.8515625
1771542171.3030312,-0.48828125,27.83203125,37.109375,23.4375,85.44921875
1771542171.3069375,14.16015625,29.78515625,35.64453125,18.5546875,85.9375
1771542171.3108437,4.39453125,28.3203125,32.2265625,8.30078125,84.47265625
1771542171.31475,-4.39453125,23.92578125,32.71484375,16.6015625,43.9453125
1771542171.3186562,4.8828125,24.4140625,33.69140625,24.90234375,15.625
1771542171.3225625,22.4609375,27.34375,32.2265625,26.3671875,53.7109375
1771542171.3264687,26.3671875,34.1796875,29.78515625,20.99609375,45.8984375
1771542171.330375,22.94921875,33.69140625,30.2734375,27.83203125,24.90234375
1771542171.3342812,22.94921875,25.87890625,35.15625,44.43359375,38.57421875
1771542171.3381875,28.3203125,29.78515625,35.64453125,35.64453125,49.31640625
1771542171.3420937,33.203125,34.66796875,29.296875,19.53125,30.2734375
1771542171.358125,24.90234375,29.78515625,26.85546875,19.53125,3.90625
1771542171.3620312,17.578125,31.73828125,26.85546875,27.34375,9.27734375
1771542171.3659375,29.78515625,35.15625,25.87890625,34.66796875,42.96875
1771542171.3698437,44.43359375,29.78515625,25.390625,33.69140625,39.0625
1771542171.37375,42.96875,27.83203125,25.390625,31.25,62.01171875
1771542171.3776562,31.25,30.2734375,28.80859375,37.59765625,57.6171875
1771542171.3815625,31.25,30.2734375,27.83203125,38.57421875,-14.16015625
1771542171.3854687,36.62109375,24.4140625,29.78515625,37.59765625,-25.87890625
1771542171.389375,30.76171875,26.85546875,34.1796875,32.2265625,5.37109375
1771542171.3932812,31.73828125,37.109375,30.76171875,32.2265625,58.59375
1771542171.3971875,30.76171875,42.96875,28.80859375,40.0390625,45.8984375
1771542171.4010937,22.94921875,34.66796875,25.87890625,37.109375,22.94921875
1771542171.403125,21.97265625,32.2265625,23.4375,28.80859375,71.77734375
1771542171.4070313,19.53125,35.64453125,26.3671875,28.3203125,65.4296875
1771542171.4109375,14.6484375,29.296875,28.80859375,34.1796875,25.87890625
1771542171.4148438,32.2265625,26.3671875,28.3203125,41.50390625,53.7109375
1771542171.41875,40.52734375,28.80859375,30.76171875,36.1328125,62.98828125
1771542171.4226563,27.34375,30.2734375,29.78515625,31.73828125,-8.30078125
1771542171.4265625,13.671875,30.76171875,27.34375,36.62109375,-31.73828125
1771542171.4304688,18.5546875,30.2734375,31.73828125,37.59765625,30.2734375
1771542171.434375,27.83203125,32.71484375,28.80859375,32.71484375,58.10546875
1771542171.4382813,19.04296875,32.71484375,23.4375,25.390625,46.38671875
1771542171.4421875,15.13671875,31.25,28.3203125,30.2734375,19.53125
1771542171.4460938,17.08984375,32.2265625,29.78515625,35.15625,0.48828125
1771542171.448125,21.97265625,30.76171875,27.34375,27.34375,76.171875
1771542171.4520311,17.08984375,29.296875,23.4375,19.53125,24.4140625
1771542171.4559374,10.25390625,32.2265625,24.4140625,25.390625,25.390625
1771542171.4598436,13.18359375,30.76171875,24.90234375,32.71484375,114.2578125
1771542171.46375,19.53125,36.62109375,24.4140625,30.2734375,48.828125
1771542171.4676561,20.99609375,41.015625,24.4140625,17.578125,0.9765625
1771542171.4715624,16.6015625,30.76171875,23.4375,18.06640625,76.66015625
1771542171.4754686,18.5546875,34.1796875,21.97265625,32.71484375,99.12109375
1771542171.479375,30.76171875,28.80859375,25.390625,31.73828125,41.9921875
1771542171.4832811,35.64453125,30.2734375,21.484375,18.06640625,66.89453125
1771542171.4871874,25.87890625,39.0625,16.6015625,14.16015625,80.56640625
1771542171.4910936,22.4609375,33.69140625,21.97265625,26.3671875,20.01953125
1771542171.493125,28.80859375,40.0390625,24.90234375,30.2734375,3.90625
1771542171.4970312,39.0625,38.57421875,26.85546875,21.97265625,12.20703125
1771542171.5009375,37.109375,34.66796875,25.87890625,20.5078125,8.7890625
1771542171.5048437,19.04296875,38.57421875,27.34375,21.484375,16.11328125
1771542171.50875,12.20703125,31.73828125,22.94921875,20.5078125,-19.53125
1771542171.5126562,10.25390625,27.34375,19.04296875,15.625,-10.7421875
1771542171.5165625,26.85546875,26.3671875,32.71484375,24.4140625,8.7890625
1771542171.5204687,51.26953125,21.97265625,34.66796875,49.8046875,2.9296875
1771542171.524375,37.59765625,34.66796875,22.94921875,54.6875,42.48046875
1771542171.5282812,21.97265625,45.41015625,18.5546875,34.66796875,71.77734375
1771542171.5321875,6.8359375,40.52734375,20.01953125,10.25390625,67.87109375
1771542171.5360937,-4.8828125,51.7578125,20.99609375,0.48828125,37.59765625
1771542171.538125,-6.8359375,59.08203125,23.4375,1.953125,9.27734375
1771542171.5420313,-4.8828125,45.8984375,24.4140625,-3.90625,13.18359375
1771542171.5459375,-0.9765625,46.38671875,17.08984375,-14.16015625,35.15625
1771542171.5498438,-19.53125,54.6875,14.6484375,-28.3203125,65.4296875
1771542171.55375,-29.78515625,53.7109375,25.390625,-28.3203125,59.5703125
1771542171.5576563,-13.18359375,57.6171875,36.1328125,-11.71875,57.12890625
1771542171.5615625,-18.06640625,55.17578125,35.15625,-20.01953125,41.9921875
1771542171.5654688,-33.69140625,51.7578125,38.57421875,-44.43359375,18.5546875
1771542171.569375,-46.38671875,58.59375,43.9453125,-49.8046875,1.46484375
1771542171.5732813,-49.31640625,64.453125,47.8515625,-43.45703125,31.25
1771542171.5771875,-46.38671875,66.40625,51.26953125,-46.875,52.734375
1771542171.5810938,-48.828125,67.87109375,52.734375,-55.6640625,29.296875
1771542171.584125,-61.03515625,73.73046875,52.734375,-57.12890625,-9.765625
1771542171.5880313,-81.54296875,67.87109375,48.828125,-60.546875,7.32421875
1771542171.5919375,-72.265625,66.40625,48.33984375,-65.4296875,16.11328125
1771542171.5958438,-60.05859375,77.1484375,55.17578125,-65.4296875,-4.8828125
1771542171.59975,-83.49609375,86.42578125,50.78125,-77.1484375,13.671875
1771542171.6036563,-118.65234375,90.33203125,48.33984375,-95.703125,1.46484375
1771542171.6075625,-118.1640625,98.14453125,55.17578125,-106.4453125,27.83203125
1771542171.6114688,-120.1171875,102.05078125,53.22265625,-132.32421875,79.1015625
1771542171.615375,-142.08984375,107.421875,60.05859375,-144.04296875,53.7109375
1771542171.6192813,-146.97265625,117.1875,64.94140625,-136.23046875,73.2421875
1771542171.6231875,-149.90234375,119.62890625,65.91796875,-144.04296875,93.26171875
1771542171.6270938,-166.015625,115.234375,72.75390625,-167.48046875,45.41015625
1771542171.629125,-182.6171875,106.93359375,80.078125,-185.05859375,18.5546875
1771542171.6330314,-185.546875,102.5390625,76.171875,-175.78125,29.296875
1771542171.6369376,-172.36328125,110.83984375,77.1484375,-160.64453125,20.5078125
1771542171.6408439,-173.33984375,111.328125,83.49609375,-178.22265625,-4.39453125
1771542171.64475,-175.29296875,108.88671875,83.984375,-190.91796875,52.24609375
1771542171.6486564,-164.0625,104.00390625,79.1015625,-174.8046875,87.40234375
1771542171.6525626,-169.43359375,83.984375,74.70703125,-161.62109375,13.671875
1771542171.6564689,-166.50390625,83.49609375,77.63671875,-156.25,36.62109375
1771542171.660375,-141.11328125,84.9609375,78.61328125,-139.6484375,54.6875
1771542171.6642814,-131.34765625,76.171875,77.1484375,-129.8828125,0.48828125
1771542171.6681876,-133.7890625,77.1484375,75.68359375,-121.58203125,18.06640625
1771542171.6720939,-116.2109375,81.0546875,69.82421875,-102.5390625,44.43359375
1771542171.689125,-90.33203125,77.63671875,65.91796875,-89.84375,37.109375
1771542171.6930313,-85.44921875,65.4296875,63.96484375,-83.984375,45.41015625
1771542171.6969376,-90.33203125,52.24609375,56.15234375,-75.1953125,57.6171875
1771542171.7008438,-68.84765625,47.8515625,48.33984375,-52.24609375,58.59375
1771542171.70475,-36.62109375,46.38671875,44.43359375,-35.15625,43.45703125
1771542171.7086563,-23.92578125,35.64453125,38.0859375,-34.1796875,63.96484375
1771542171.7125626,-20.99609375,35.15625,32.71484375,-27.34375,43.45703125
1771542171.7164688,4.39453125,41.015625,27.34375,4.8828125,21.97265625
1771542171.720375,24.4140625,39.0625,18.5546875,15.13671875,61.5234375
1771542171.7242813,35.64453125,27.34375,10.7421875,17.08984375,83.49609375
1771542171.7281876,49.31640625,18.5546875,9.27734375,45.8984375,79.58984375
1771542171.7320938,54.19921875,23.4375,8.7890625,63.4765625,20.01953125
1771542171.734125,61.03515625,25.390625,0.9765625,64.453125,3.41796875
1771542171.7380311,67.87109375,16.11328125,-3.41796875,66.40625,12.6953125
1771542171.7419374,81.0546875,8.7890625,-1.46484375,80.078125,-56.15234375
1771542171.7458436,84.9609375,16.6015625,-0.9765625,95.703125,-38.0859375
1771542171.74975,103.515625,18.06640625,-4.39453125,103.515625,12.6953125
1771542171.7536561,109.86328125,8.30078125,-9.27734375,99.609375,-10.25390625
1771542171.7575624,103.515625,6.34765625,-13.671875,97.16796875,-38.57421875
1771542171.7614686,104.00390625,18.06640625,-12.20703125,107.91015625,5.859375
1771542171.765375,104.98046875,14.16015625,-14.6484375,115.234375,42.96875
1771542171.7692811,109.375,6.34765625,-16.11328125,104.00390625,31.73828125
1771542171.7731874,106.4453125,13.671875,-9.765625,98.6328125,26.85546875
1771542171.7770936,99.609375,11.71875,-9.27734375,107.421875,46.38671875
1771542171.778125,97.16796875,0.48828125,-10.25390625,108.88671875,62.98828125
1771542171.7820313,102.5390625,-0.48828125,-12.6953125,105.95703125,69.3359375
1771542171.7859375,104.4921875,2.44140625,-15.625,93.26171875,47.36328125
1771542171.7898438,103.02734375,4.39453125,-14.16015625,91.796875,11.23046875
1771542171.79375,98.14453125,5.37109375,-9.27734375,105.46875,31.25
1771542171.7976563,107.91015625,3.90625,-7.32421875,114.74609375,7.32421875
1771542171.8015625,114.2578125,0.48828125,-8.7890625,108.88671875,24.4140625
1771542171.8054688,113.28125,0.48828125,-3.41796875,111.328125,44.43359375
1771542171.809375,108.88671875,0.0,-2.44140625,121.58203125,48.828125
1771542171.8132813,107.91015625,-1.953125,-5.37109375,120.60546875,68.84765625
1771542171.8171875,120.60546875,1.46484375,-0.9765625,118.1640625,27.34375
1771542171.8210938,121.09375,3.90625,0.9765625,112.79296875,-32.2265625
1771542171.823125,111.328125,9.765625,2.9296875,115.234375,-42.96875
1771542171.8270311,111.328125,8.7890625,7.32421875,124.0234375,1.953125
1771542171.8309374,117.67578125,0.0,7.32421875,121.58203125,41.9921875
1771542171.8348436,122.0703125,-4.8828125,8.30078125,115.72265625,19.04296875
1771542171.83875,104.98046875,-2.9296875,7.32421875,112.3046875,37.109375
1771542171.8426561,96.6796875,2.44140625,5.37109375,112.79296875,5.37109375
1771542171.8465624,106.4453125,2.44140625,5.37109375,114.74609375,-2.44140625
1771542171.8504686,108.3984375,1.953125,3.90625,101.5625,68.359375
1771542171.854375,104.98046875,2.44140625,7.32421875,97.16796875,113.76953125
1771542171.8582811,87.40234375,6.34765625,13.18359375,104.98046875,87.890625
1771542171.8621874,90.8203125,12.6953125,17.578125,106.4453125,35.64453125
1771542171.8660936,102.05078125,8.7890625,15.625,103.515625,20.01953125
1771542171.868125,89.35546875,-1.46484375,11.23046875,89.84375,24.4140625
1771542171.8720312,82.03125,3.90625,11.23046875,91.30859375,111.81640625
1771542171.8759375,88.37890625,7.8125,8.7890625,100.5859375,109.375
1771542171.8798437,93.26171875,10.25390625,7.8125,88.37890625,-0.48828125
1771542171.88375,94.7265625,11.23046875,9.765625,83.984375,-0.9765625
1771542171.8876562,87.40234375,14.6484375,12.6953125,92.28515625,0.0
1771542171.8915625,83.49609375,17.08984375,11.71875,99.12109375,18.06640625
1771542171.8954687,91.796875,8.7890625,8.7890625,96.6796875,28.3203125
1771542171.899375,87.890625,9.765625,12.6953125,81.0546875,26.3671875
1771542171.9032812,79.58984375,19.04296875,17.08984375,77.63671875,-19.04296875
1771542171.9071875,74.21875,16.6015625,17.08984375,85.9375,0.0
1771542171.9110937,82.03125,15.625,16.6015625,84.47265625,68.84765625
1771542171.913125,88.37890625,14.6484375,16.6015625,79.1015625,18.06640625
1771542171.9170313,75.1953125,12.20703125,16.11328125,76.171875,-9.27734375
1771542171.9209375,69.82421875,15.625,16.11328125,80.078125,13.671875
1771542171.9248438,81.0546875,19.53125,12.20703125,79.58984375,40.0390625
1771542171.92875,87.890625,15.13671875,10.7421875,69.82421875,44.921875
1771542171.9326563,76.66015625,16.11328125,12.6953125,67.3828125,37.109375
1771542171.9365625,71.2890625,20.5078125,12.20703125,68.84765625,42.48046875
1771542171.9404688,71.2890625,22.94921875,16.11328125,70.80078125,39.0625
1771542171.944375,68.84765625,19.04296875,21.484375,64.453125,29.78515625
1771542171.9482813,68.359375,13.18359375,22.4609375,55.6640625,26.85546875
1771542171.9521875,62.5,13.18359375,20.5078125,64.453125,20.01953125
1771542171.9560938,63.4765625,21.484375,18.06640625,72.75390625,27.34375
1771542171.958125,69.3359375,27.34375,19.04296875,66.89453125,65.4296875
1771542171.9620314,70.80078125,22.94921875,17.08984375,57.12890625,61.03515625
1771542171.9659376,66.89453125,19.04296875,18.06640625,59.08203125,5.37109375
1771542171.9698439,61.5234375,19.04296875,21.484375,64.94140625,16.11328125
1771542171.97375,78.61328125,20.01953125,17.578125,71.2890625,47.36328125
1771542171.9776564,78.125,19.53125,18.5546875,64.453125,-16.11328125
1771542171.9815626,53.22265625,17.08984375,19.53125,52.24609375,35.15625
1771542171.9854689,36.1328125,20.01953125,24.4140625,51.26953125,64.94140625
1771542171.989375,43.45703125,27.34375,28.80859375,52.24609375,41.50390625
1771542171.9932814,60.546875,20.01953125,25.390625,57.6171875,56.15234375
1771542171.9971876,58.10546875,9.765625,24.4140625,60.05859375,7.32421875
1771542172.0010939,40.0390625,9.765625,21.97265625,57.6171875,29.296875
1771542172.003125,38.0859375,16.11328125,21.484375,58.10546875,62.01171875
1771542172.0070312,50.78125,17.08984375,22.4609375,59.08203125,4.8828125
1771542172.0109375,49.31640625,16.11328125,20.99609375,49.31640625,34.1796875
1771542172.0148437,45.41015625,21.484375,20.99609375,48.33984375,31.25
1771542172.01875,40.52734375,20.99609375,24.4140625,50.78125,35.64453125
1771542172.0226562,41.9921875,15.13671875,24.90234375,50.78125,41.9921875
1771542172.0265625,50.29296875,17.08984375,23.92578125,40.52734375,1.46484375
1771542172.0304687,49.31640625,30.76171875,23.4375,35.64453125,43.9453125
1771542172.034375,39.55078125,29.296875,23.92578125,50.29296875,29.296875
1771542172.0382812,36.1328125,19.53125,20.5078125,43.45703125,20.01953125
1771542172.0421875,34.66796875,19.53125,19.04296875,32.71484375,15.13671875
1771542172.0460937,37.59765625,22.94921875,17.578125,37.109375,24.4140625
1771542172.063125,40.52734375,23.92578125,20.5078125,39.55078125,45.8984375
1771542172.0670311,40.52734375,21.97265625,20.99609375,43.45703125,21.484375
1771542172.0709374,52.734375,24.4140625,19.53125,43.45703125,38.0859375
1771542172.0748436,50.78125,31.25,21.484375,38.0859375,25.390625
1771542172.07875,33.69140625,30.76171875,17.08984375,42.96875,13.671875
1771542172.0826561,30.2734375,15.625,17.578125,47.8515625,95.703125
1771542172.0865624,43.45703125,19.53125,18.06640625,42.48046875,83.984375
1771542172.0904686,45.41015625,31.25,20.5078125,33.69140625,37.109375
1771542172.094375,37.59765625,25.390625,28.3203125,37.59765625,66.40625
1771542172.0982811,30.2734375,15.625,21.484375,38.0859375,40.52734375
1771542172.1021874,31.25,19.53125,16.11328125,32.71484375,29.296875
1771542172.1060936,33.203125,25.87890625,23.4375,30.2734375,89.84375
1771542172.108125,35.15625,25.390625,22.94921875,33.203125,87.890625
1771542172.1120312,28.80859375,23.4375,20.5078125,46.38671875,2.9296875
1771542172.1159375,34.1796875,23.4375,24.4140625,54.6875,-41.015625
1771542172.1198437,49.8046875,28.3203125,25.87890625,51.26953125,54.6875
1771542172.12375,53.7109375,28.80859375,29.78515625,49.8046875,62.01171875
1771542172.1276562,40.52734375,25.390625,31.25,49.31640625,54.19921875
1771542172.1315625,40.52734375,25.87890625,22.94921875,48.828125,92.7734375
1771542172.1354687,38.0859375,27.83203125,23.4375,40.0390625,37.59765625
1771542172.139375,31.73828125,26.3671875,27.83203125,36.1328125,82.51953125
1771542172.1432812,28.3203125,22.4609375,25.87890625,39.0625,119.62890625
1771542172.1471875,24.90234375,23.4375,24.4140625,43.45703125,12.6953125
1771542172.1510937,41.015625,27.83203125,30.76171875,49.31640625,13.18359375
1771542172.152125,44.921875,25.87890625,27.83203125,43.45703125,69.3359375
1771542172.1560311,32.2265625,25.87890625,24.90234375,38.0859375,51.26953125
1771542172.1599374,28.3203125,33.203125,26.85546875,43.45703125,42.48046875
1771542172.1638436,36.62109375,30.2734375,21.484375,45.41015625,72.75390625
1771542172.16775,37.109375,31.25,23.4375,32.71484375,90.33203125
1771542172.1716561,38.57421875,40.52734375,27.83203125,31.25,15.625
1771542172.1755624,39.0625,38.0859375,25.87890625,33.69140625,18.5546875
1771542172.1794686,25.390625,33.69140625,23.4375,32.71484375,78.61328125
1771542172.183375,25.87890625,17.08984375,25.390625,31.25,1.953125
1771542172.1872811,44.921875,4.8828125,28.3203125,48.33984375,-38.57421875
1771542172.1911874,52.24609375,27.83203125,24.90234375,59.5703125,-16.11328125
1771542172.1950936,39.55078125,45.41015625,14.6484375,35.64453125,51.26953125
1771542172.199125,34.66796875,41.015625,8.7890625,11.71875,56.15234375
1771542172.2030313,34.66796875,42.48046875,8.7890625,4.8828125,-8.7890625
1771542172.2069376,21.97265625,50.29296875,1.953125,4.39453125,41.50390625
1771542172.2108438,19.04296875,47.36328125,-2.9296875,6.34765625,75.1953125
1771542172.21475,33.203125,48.33984375,-6.8359375,2.44140625,60.05859375
1771542172.2186563,39.55078125,56.15234375,-13.671875,-2.44140625,38.57421875
1771542172.2225626,32.71484375,58.10546875,-8.30078125,-5.37109375,34.1796875
1771542172.2264688,26.3671875,51.26953125,-4.8828125,7.8125,34.66796875
1771542172.230375,41.50390625,48.33984375,-6.34765625,21.97265625,21.97265625
1771542172.2342813,51.26953125,49.31640625,0.48828125,14.6484375,40.0390625
1771542172.2381876,45.41015625,48.828125,3.90625,16.6015625,86.9140625
1771542172.2420938,39.55078125,45.8984375,1.46484375,24.4140625,43.9453125
1771542172.244125,39.0625,43.9453125,2.44140625,24.90234375,-0.48828125
1771542172.2480311,45.8984375,44.921875,8.7890625,23.92578125,9.765625
1771542172.2519374,45.41015625,44.43359375,8.7890625,22.94921875,33.203125
1771542172.2558436,35.15625,45.41015625,6.34765625,25.390625,15.13671875
1771542172.25975,39.55078125,47.8515625,6.34765625,23.92578125,-21.484375
1771542172.2636561,53.7109375,41.015625,6.8359375,21.484375,-12.20703125
1771542172.2675624,55.6640625,40.0390625,10.7421875,22.4609375,80.56640625
1771542172.2714686,41.9921875,38.0859375,10.25390625,23.92578125,98.14453125
1771542172.275375,37.109375,36.62109375,11.71875,32.71484375,24.4140625
1771542172.2792811,44.43359375,43.45703125,16.11328125,29.296875,26.3671875
1771542172.2831874,51.7578125,42.96875,15.13671875,23.4375,64.453125
1771542172.2870936,41.50390625,35.15625,13.18359375,22.4609375,52.24609375
1771542172.288125,23.92578125,38.0859375,12.6953125,29.78515625,17.578125
1771542172.2920313,35.15625,38.0859375,15.625,39.0625,17.08984375
1771542172.2959375,42.48046875,32.71484375,18.5546875,30.2734375,82.51953125
1771542172.2998438,41.015625,39.0625,22.4609375,32.71484375,57.6171875
1771542172.30375,40.0390625,35.64453125,25.390625,38.0859375,15.625
1771542172.3076563,40.52734375,28.80859375,19.04296875,41.9921875,35.15625
1771542172.3115625,43.9453125,29.78515625,14.6484375,38.57421875,22.94921875
1771542172.3154688,43.9453125,26.85546875,15.625,28.3203125,51.26953125
1771542172.319375,34.66796875,37.59765625,16.11328125,30.2734375,38.0859375
1771542172.3232813,25.87890625,36.62109375,22.94921875,37.59765625,33.69140625
1771542172.3271875,33.69140625,28.3203125,23.4375,37.109375,47.36328125
1771542172.3310938,41.9921875,35.64453125,15.625,31.73828125,46.875
1771542172.333125,43.45703125,40.0390625,20.5078125,36.62109375,73.2421875
1771542172.3370314,43.45703125,41.015625,26.3671875,42.48046875,58.59375
1771542172.3409376,48.33984375,37.109375,24.4140625,44.43359375,-1.46484375
1771542172.3448439,56.15234375,32.71484375,26.85546875,43.45703125,28.3203125
1771542172.34875,51.7578125,32.2265625,23.4375,38.57421875,61.03515625
1771542172.3526564,41.015625,30.76171875,19.53125,47.36328125,29.78515625
1771542172.3565626,43.45703125,28.80859375,20.5078125,41.015625,22.4609375
1771542172.3604689,51.26953125,29.78515625,20.99609375,27.83203125,20.99609375
1771542172.364375,43.45703125,37.59765625,25.390625,31.25,40.0390625
1771542172.3682814,31.25,38.0859375,22.94921875,31.73828125,62.01171875
1771542172.3721876,36.62109375,27.34375,20.5078125,32.2265625,78.61328125
1771542172.3760939,55.6640625,26.85546875,20.99609375,35.15625,97.65625
1771542172.378125,58.10546875,27.34375,21.97265625,32.2265625,44.43359375
1771542172.3820312,42.48046875,30.76171875,20.99609375,30.76171875,7.32421875
1771542172.3859375,39.0625,41.015625,22.4609375,35.15625,-3.41796875
1771542172.3898437,51.7578125,33.203125,23.92578125,35.15625,-21.484375
1771542172.39375,55.6640625,27.83203125,21.484375,27.83203125,-14.16015625
1771542172.3976562,46.38671875,30.76171875,21.484375,30.76171875,12.6953125
1771542172.4015625,41.015625,27.34375,20.99609375,39.55078125,48.828125
1771542172.4054687,45.8984375,31.73828125,22.94921875,35.15625,15.13671875
1771542172.409375,51.26953125,33.203125,21.97265625,27.83203125,17.08984375
1771542172.4132812,48.828125,27.34375,24.4140625,29.78515625,16.6015625
1771542172.4171875,35.15625,26.85546875,25.87890625,33.69140625,-8.30078125
1771542172.4210937,44.921875,37.59765625,21.97265625,37.59765625,38.0859375
1771542172.438125,61.5234375,46.38671875,21.484375,32.2265625,120.1171875
1771542172.4420311,47.36328125,37.109375,21.97265625,20.99609375,113.28125
1771542172.4459374,36.1328125,29.78515625,22.94921875,23.92578125,30.2734375
1771542172.4498436,41.9921875,35.15625,20.99609375,38.0859375,49.8046875
1771542172.45375,52.734375,31.25,21.484375,33.69140625,20.01953125
1771542172.4576561,47.8515625,25.390625,21.484375,23.92578125,-18.06640625
1771542172.4615624,34.1796875,28.3203125,22.94921875,22.4609375,21.97265625
1771542172.4654686,33.203125,33.69140625,25.390625,26.3671875,-0.9765625
1771542172.469375,41.50390625,40.52734375,22.94921875,29.78515625,-31.73828125
1771542172.4732811,43.9453125,30.2734375,20.01953125,23.92578125,-15.13671875
1771542172.4771874,39.55078125,29.78515625,19.53125,29.78515625,41.9921875
1771542172.4810936,39.55078125,39.55078125,24.90234375,37.109375,88.37890625
1771542172.483125,51.7578125,32.2265625,22.94921875,41.015625,64.94140625
1771542172.4870312,55.17578125,27.83203125,21.484375,38.57421875,39.0625
1771542172.4909375,51.26953125,29.78515625,24.90234375,35.15625,30.2734375
1771542172.4948437,44.43359375,35.64453125,29.296875,44.43359375,-1.953125
1771542172.49875,47.36328125,36.62109375,26.85546875,48.828125,-0.48828125
1771542172.5026562,51.7578125,32.71484375,23.4375,41.9921875,0.0
1771542172.5065625,50.29296875,34.66796875,23.4375,37.59765625,47.36328125
1771542172.5104687,40.52734375,39.55078125,22.94921875,42.48046875,42.96875
1771542172.514375,41.50390625,34.1796875,23.4375,51.26953125,-20.01953125
1771542172.5182812,47.36328125,33.69140625,20.01953125,39.0625,53.7109375
1771542172.5221875,43.9453125,37.59765625,23.4375,27.34375,58.10546875
1771542172.5260937,39.0625,39.0625,25.87890625,36.62109375,34.1796875
1771542172.529125,34.1796875,40.52734375,24.4140625,41.015625,21.484375
1771542172.5330312,41.015625,38.0859375,28.80859375,33.69140625,14.16015625
1771542172.5369375,44.43359375,35.15625,26.85546875,28.80859375,70.80078125
1771542172.5408437,32.2265625,36.1328125,26.85546875,34.66796875,25.87890625
1771542172.54475,26.3671875,36.1328125,26.3671875,39.55078125,11.71875
1771542172.5486562,35.15625,31.73828125,23.4375,34.66796875,18.5546875
1771542172.5525625,38.0859375,38.0859375,24.4140625,24.90234375,20.01953125
1771542172.5564687,26.85546875,35.64453125,27.83203125,16.11328125,40.52734375
1771542172.560375,25.390625,25.390625,27.83203125,30.2734375,69.82421875
1771542172.5642812,43.45703125,24.4140625,26.3671875,51.7578125,85.44921875
1771542172.5681875,58.10546875,38.57421875,23.4375,41.50390625,78.61328125
1771542172.5720937,38.57421875,50.29296875,17.08984375,13.18359375,62.5
1771542172.573125,9.765625,39.55078125,17.578125,14.6484375,27.34375
1771542172.5770311,23.92578125,38.0859375,18.5546875,25.87890625,5.859375
1771542172.5809374,34.1796875,44.921875,18.06640625,15.625,9.27734375
1771542172.5848436,29.296875,39.0625,18.5546875,9.765625,-0.48828125
1771542172.58875,21.484375,33.69140625,12.6953125,10.7421875,8.7890625
1771542172.5926561,11.71875,31.25,14.6484375,19.53125,26.3671875
1771542172.5965624,30.2734375,33.69140625,20.01953125,32.2265625,79.1015625
1771542172.6004686,40.52734375,35.64453125,18.06640625,29.78515625,78.125
1771542172.604375,38.0859375,28.80859375,20.99609375,28.80859375,50.29296875
1771542172.6082811,33.203125,32.71484375,23.4375,34.66796875,35.64453125
1771542172.6121874,32.2265625,39.55078125,21.484375,39.55078125,33.69140625
1771542172.6160936,40.52734375,33.69140625,20.01953125,34.66796875,47.36328125
1771542172.618125,46.38671875,30.2734375,21.484375,33.203125,27.83203125
1771542172.6220312,46.38671875,32.2265625,24.4140625,41.9921875,25.390625
1771542172.6259375,44.921875,33.203125,22.94921875,40.0390625,46.875
1771542172.6298437,49.31640625,36.62109375,19.04296875,34.66796875,41.50390625
1771542172.63375,52.734375,32.71484375,22.94921875,38.0859375,33.203125
1771542172.6376562,45.41015625,33.69140625,29.296875,40.0390625,-1.953125
1771542172.6415625,46.38671875,39.55078125,24.4140625,45.41015625,12.6953125
1771542172.6454687,44.43359375,25.87890625,20.5078125,38.0859375,39.0625
1771542172.649375,34.66796875,23.4375,24.90234375,23.92578125,1.46484375
1771542172.6532812,29.78515625,33.203125,25.390625,27.83203125,18.06640625
1771542172.6571875,38.0859375,37.109375,22.94921875,38.57421875,41.015625
1771542172.6610937,45.8984375,38.57421875,25.87890625,43.45703125,25.390625
1771542172.663125,49.8046875,33.69140625,29.296875,37.59765625,62.01171875
1771542172.6670313,53.22265625,31.25,25.87890625,34.1796875,62.98828125
1771542172.6709375,37.59765625,27.83203125,26.3671875,41.9921875,25.390625
1771542172.6748438,39.0625,24.90234375,24.90234375,42.48046875,22.4609375
1771542172.67875,46.38671875,27.34375,18.06640625,29.296875,50.78125
1771542172.6826563,38.57421875,28.80859375,20.99609375,27.83203125,76.66015625
1771542172.6865625,31.73828125,28.3203125,23.92578125,32.71484375,64.453125
1771542172.6904688,34.1796875,23.4375,23.4375,34.66796875,52.734375
1771542172.694375,42.48046875,32.71484375,24.4140625,27.34375,68.359375
1771542172.6982813,44.921875,40.52734375,27.34375,23.4375,3.90625
1771542172.7021875,37.109375,37.59765625,25.87890625,33.69140625,-1.953125
1771542172.7060938,38.0859375,34.1796875,23.4375,46.875,65.91796875
1771542172.708125,46.38671875,31.73828125,24.4140625,43.9453125,21.97265625
1771542172.7120314,47.36328125,35.15625,21.97265625,31.73828125,63.96484375
1771542172.7159376,43.9453125,30.2734375,26.3671875,34.1796875,140.13671875
1771542172.7198439,34.66796875,28.80859375,31.73828125,40.52734375,44.921875
1771542172.72375,40.0390625,38.0859375,30.2734375,37.59765625,2.44140625
1771542172.7276564,52.24609375,35.15625,26.85546875,32.2265625,31.73828125
1771542172.7315626,47.36328125,29.78515625,26.85546875,27.83203125,6.34765625
1771542172.7354689,40.0390625,36.1328125,22.94921875,28.3203125,-22.94921875
1771542172.739375,43.45703125,43.45703125,23.4375,35.15625,13.18359375
1771542172.7432814,48.33984375,36.1328125,24.90234375,31.25,28.80859375
1771542172.7471876,40.52734375,28.80859375,23.92578125,22.94921875,-0.48828125
1771542172.7510939,29.78515625,27.83203125,23.92578125,27.34375,16.11328125
1771542172.753125,30.76171875,31.73828125,27.34375,33.203125,19.04296875
1771542172.7570312,40.0390625,30.76171875,32.71484375,31.73828125,-37.59765625
1771542172.7609375,41.50390625,29.296875,32.2265625,26.3671875,-62.5
1771542172.7648437,32.71484375,35.15625,31.25,30.76171875,11.23046875
1771542172.76875,30.76171875,37.59765625,30.2734375,36.1328125,49.8046875
1771542172.7726562,46.875,31.73828125,30.2734375,38.57421875,2.9296875
1771542172.7765625,53.7109375,33.203125,29.296875,31.73828125,13.18359375
1771542172.7804687,38.57421875,35.15625,27.83203125,21.484375,-4.39453125
1771542172.784375,33.203125,35.64453125,27.83203125,28.80859375,5.37109375
1771542172.7882812,44.921875,43.45703125,29.296875,39.0625,28.3203125
1771542172.7921875,47.36328125,38.0859375,26.85546875,34.66796875,18.5546875
1771542172.7960937,39.0625,28.3203125,27.34375,28.3203125,8.7890625
1771542172.799125,29.78515625,29.78515625,28.80859375,33.203125,4.8828125
1771542172.8030312,37.109375,31.73828125,23.92578125,35.15625,32.2265625
1771542172.8069375,46.38671875,32.2265625,23.4375,32.71484375,49.8046875
1771542172.8108437,41.9921875,28.80859375,24.4140625,32.71484375,36.1328125
1771542172.81475,31.73828125,34.1796875,26.3671875,34.66796875,30.76171875
1771542172.8186562,31.25,32.2265625,23.92578125,40.0390625,76.171875
1771542172.8225625,46.38671875,28.80859375,25.87890625,36.62109375,54.6875
1771542172.8264687,46.875,37.59765625,25.87890625,28.80859375,10.25390625
1771542172.830375,32.2265625,34.1796875,24.90234375,24.4140625,-22.94921875
1771542172.8342812,34.1796875,36.1328125,28.3203125,35.15625,2.44140625
1771542172.8381875,46.38671875,35.64453125,24.90234375,39.0625,-8.30078125
1771542172.8420937,52.734375,30.76171875,22.94921875,31.73828125,-32.2265625
1771542172.858125,48.828125,34.1796875,23.92578125,27.34375,4.39453125
1771542172.8620312,29.296875,38.0859375,20.5078125,26.85546875,18.06640625
1771542172.8659375,31.25,40.52734375,24.4140625,34.66796875,18.06640625
1771542172.8698437,48.828125,33.69140625,26.3671875,28.3203125,41.015625
1771542172.87375,40.52734375,21.97265625,25.87890625,26.85546875,28.3203125
1771542172.8776562,14.6484375,22.94921875,29.296875,30.76171875,47.36328125
1771542172.8815625,34.1796875,34.1796875,33.69140625,43.45703125,60.546875
1771542172.8854687,59.08203125,39.0625,27.34375,48.33984375,35.64453125
1771542172.889375,41.50390625,28.80859375,23.4375,29.296875,10.25390625
1771542172.8932812,17.578125,22.4609375,30.76171875,23.92578125,9.27734375
1771542172.8971875,20.5078125,29.78515625,31.25,32.2265625,62.01171875
1771542172.9010937,45.8984375,34.66796875,26.85546875,34.66796875,30.76171875
1771542172.903125,50.78125,35.64453125,21.97265625,33.69140625,-16.6015625
1771542172.9070313,41.9921875,31.73828125,24.4140625,32.2265625,23.92578125
1771542172.9109375,36.1328125,30.76171875,28.3203125,41.9921875,92.28515625
1771542172.9148438,39.0625,30.76171875,23.92578125,43.45703125,104.98046875
1771542172.91875,44.43359375,38.57421875,25.87890625,36.1328125,70.3125
1771542172.9226563,38.0859375,40.0390625,24.90234375,32.2265625,80.56640625
1771542172.9265625,34.66796875,31.73828125,22.94921875,30.2734375,68.84765625
1771542172.9304688,30.2734375,32.71484375,25.87890625,26.85546875,1.953125
1771542172.934375,35.15625,29.78515625,23.92578125,21.484375,0.48828125
1771542172.9382813,35.64453125,31.25,20.5078125,18.06640625,28.80859375
1771542172.9421875,16.11328125,41.9921875,25.390625,20.99609375,57.6171875
1771542172.9460938,21.484375,39.55078125,22.94921875,30.76171875,87.890625
1771542172.949125,33.69140625,34.66796875,22.4609375,29.296875,34.66796875
1771542172.9530313,26.3671875,39.0625,27.34375,18.5546875,20.99609375
1771542172.9569376,8.7890625,37.59765625,24.90234375,20.01953125,82.51953125
1771542172.9608438,6.8359375,27.83203125,23.92578125,26.3671875,43.45703125
1771542172.96475,17.08984375,31.25,24.90234375,20.99609375,-1.953125
1771542172.9686563,19.04296875,33.69140625,22.94921875,17.578125,34.66796875
1771542172.9725626,12.20703125,32.2265625,23.92578125,20.01953125,77.63671875
1771542172.9764688,0.9765625,33.69140625,25.87890625,29.78515625,44.921875
1771542172.980375,7.32421875,28.80859375,22.94921875,34.1796875,15.625
1771542172.9842813,9.27734375,33.203125,20.99609375,20.5078125,46.875
1771542172.9881876,6.8359375,36.1328125,21.484375,18.5546875,31.73828125
1771542172.9920938,7.8125,35.64453125,21.97265625,25.87890625,41.50390625
1771542172.993125,13.18359375,39.0625,25.87890625,28.3203125,23.4375
1771542172.9970312,20.99609375,31.25,26.85546875,20.01953125,16.6015625
1771542173.0009375,18.5546875,24.4140625,25.390625,14.6484375,43.45703125
1771542173.0048437,13.671875,29.78515625,25.87890625,24.4140625,20.99609375
1771542173.00875,25.390625,31.73828125,24.4140625,32.71484375,1.46484375
1771542173.0126562,35.64453125,36.62109375,20.99609375,31.73828125,38.57421875
1771542173.0165625,26.3671875,43.45703125,23.4375,27.83203125,85.9375
1771542173.0204687,19.04296875,30.76171875,23.4375,29.78515625,41.50390625
1771542173.024375,16.6015625,23.92578125,19.04296875,25.87890625,-3.90625
1771542173.0282812,25.87890625,34.66796875,25.87890625,20.99609375,58.59375
1771542173.0321875,32.71484375,34.66796875,19.53125,14.16015625,52.24609375
1771542173.0360937,48.33984375,35.64453125,13.671875,28.3203125,2.44140625
1771542173.038125,52.734375,38.0859375,28.3203125,54.6875,74.70703125
1771542173.0420313,27.34375,41.015625,33.69140625,29.78515625,99.12109375
1771542173.0459375,13.18359375,38.57421875,32.71484375,-1.953125,71.2890625
1771542173.0498438,4.39453125,32.71484375,38.0859375,0.0,107.91015625
1771542173.05375,-3.90625,29.78515625,45.41015625,10.25390625,65.4296875
1771542173.0576563,-14.16015625,33.203125,46.875,0.0,37.109375
1771542173.0615625,-16.11328125,32.71484375,49.31640625,-15.13671875,65.4296875
1771542173.0654688,-23.4375,26.3671875,51.26953125,-14.16015625,36.1328125
1771542173.069375,-36.1328125,30.2734375,52.734375,-16.11328125,60.05859375
1771542173.0732813,-30.76171875,32.71484375,57.12890625,-8.30078125,54.19921875
1771542173.0771875,-26.85546875,26.85546875,62.01171875,-9.765625,36.1328125
1771542173.0810938,-27.83203125,17.08984375,65.4296875,-12.20703125,69.3359375
1771542173.084125,-33.69140625,19.53125,63.4765625,-7.8125,44.43359375
1771542173.0880313,-30.2734375,19.53125,65.91796875,6.34765625,17.578125
1771542173.0919375,-24.4140625,13.18359375,72.265625,4.8828125,57.12890625
1771542173.0958438,-35.64453125,15.625,67.87109375,-13.18359375,76.171875
1771542173.09975,-33.203125,15.625,69.82421875,-4.8828125,17.08984375
1771542173.1036563,-19.04296875,16.11328125,73.2421875,17.08984375,4.39453125
1771542173.1075625,-12.6953125,18.5546875,67.87109375,14.16015625,60.546875
1771542173.1114688,-2.9296875,20.01953125,62.5,1.953125,25.390625
1771542173.115375,-4.39453125,29.296875,59.08203125,1.46484375,4.8828125
1771542173.1192813,-19.04296875,23.4375,56.15234375,5.859375,18.06640625
1771542173.1231875,-8.7890625,14.16015625,52.734375,12.20703125,38.0859375
1771542173.1270938,5.37109375,20.99609375,45.8984375,12.20703125,47.8515625
1771542173.128125,7.32421875,20.99609375,42.48046875,18.06640625,2.9296875
1771542173.1320312,9.765625,22.94921875,48.828125,29.78515625,13.18359375
1771542173.1359375,7.32421875,27.83203125,49.31640625,35.15625,20.99609375
1771542173.1398437,14.6484375,21.97265625,45.8984375,28.3203125,13.671875
1771542173.14375,23.92578125,18.06640625,42.96875,19.04296875,51.26953125
1771542173.1476562,11.23046875,16.11328125,40.52734375,25.390625,18.06640625
1771542173.1515625,5.37109375,16.6015625,39.55078125,29.296875,-9.27734375
1771542173.1554687,22.4609375,24.4140625,42.48046875,32.71484375,20.99609375
1771542173.159375,38.57421875,26.3671875,40.0390625,33.69140625,15.625
1771542173.1632812,42.48046875,29.78515625,39.0625,32.71484375,-49.8046875
1771542173.1671875,35.15625,39.0625,39.0625,44.43359375,-32.2265625
1771542173.1710937,42.96875,35.64453125,35.15625,47.8515625,31.73828125
1771542173.188125,51.26953125,29.296875,37.59765625,47.8515625,31.73828125
1771542173.1920311,41.015625,29.296875,34.66796875,37.109375,67.87109375
1771542173.1959374,35.15625,30.2734375,29.296875,39.55078125,68.359375
1771542173.1998436,37.59765625,31.25,35.64453125,55.6640625,20.99609375
1771542173.20375,37.59765625,26.85546875,34.1796875,45.8984375,4.39453125
1771542173.2076561,41.015625,23.92578125,33.69140625,37.59765625,49.8046875
1771542173.2115624,28.3203125,29.296875,34.66796875,40.0390625,49.31640625
1771542173.2154686,23.92578125,27.34375,36.1328125,45.41015625,19.53125
1771542173.219375,43.45703125,31.73828125,39.0625,39.0625,64.453125
1771542173.2232811,41.9921875,29.296875,36.62109375,29.296875,42.96875
1771542173.2271874,23.92578125,21.484375,34.1796875,29.78515625,-4.39453125
1771542173.2310936,19.04296875,27.34375,33.203125,34.66796875,1.46484375
1771542173.233125,31.73828125,26.85546875,28.3203125,36.62109375,16.11328125
1771542173.2370312,34.1796875,25.87890625,25.390625,29.296875,52.734375
1771542173.2409375,26.85546875,30.2734375,23.4375,30.2734375,95.703125
1771542173.2448437,20.99609375,26.85546875,26.3671875,30.76171875,93.26171875
1771542173.24875,21.484375,24.4140625,29.296875,29.78515625,50.29296875
1771542173.2526562,40.0390625,25.87890625,29.296875,31.25,31.73828125
1771542173.2565625,41.50390625,30.76171875,28.3203125,25.87890625,40.52734375
1771542173.2604687,28.80859375,32.71484375,24.4140625,26.85546875,77.63671875
1771542173.264375,34.1796875,33.203125,21.484375,32.71484375,83.0078125
1771542173.2682812,48.828125,28.80859375,20.5078125,38.57421875,63.4765625
1771542173.2721875,42.96875,27.34375,19.53125,28.80859375,-1.46484375
1771542173.2760937,23.92578125,33.69140625,25.390625,20.99609375,-7.8125
1771542173.279125,20.99609375,34.66796875,28.3203125,32.71484375,37.59765625
1771542173.2830312,30.76171875,33.203125,22.4609375,31.73828125,37.59765625
1771542173.2869375,35.64453125,28.3203125,24.4140625,25.87890625,52.24609375
1771542173.2908437,30.2734375,28.3203125,25.390625,25.87890625,31.73828125
1771542173.29475,25.390625,30.76171875,24.90234375,28.3203125,25.87890625
1771542173.2986562,31.25,24.90234375,25.390625,27.83203125,0.48828125
1771542173.3025625,39.0625,25.87890625,26.85546875,26.85546875,13.18359375
1771542173.3064687,27.83203125,31.25,27.83203125,28.3203125,65.4296875
1771542173.310375,18.5546875,31.25,23.92578125,29.78515625,27.34375
1771542173.3142812,33.69140625,41.9921875,25.390625,38.57421875,15.13671875
1771542173.3181875,34.1796875,42.96875,34.1796875,34.66796875,37.59765625
1771542173.3220937,30.2734375,25.390625,33.69140625,24.90234375,16.11328125
1771542173.323125,22.4609375,23.4375,32.71484375,29.78515625,61.5234375
1771542173.3270311,12.20703125,28.3203125,33.69140625,31.73828125,69.3359375
1771542173.3309374,22.4609375,27.34375,36.1328125,29.296875,45.41015625
